File: txt/14380_R229_UA592_SOC00_C01.mpt
EC-Lab ASCII FILE
Nb header lines : 63

Potentio Electrochemical Impedance Spectroscopy

Run on channel : 1 (SN 66354)
User :
CE vs. WE compliance from -10 V to 10 V
Electrode connection : standard
Potential control : Ewe
Ewe ctrl range : min = -10.00 V, max = 10.00 V
Safety Limits :
	Do not start on E overload
Acquisition started on : 09/15/2025 10:21:49.411
Loaded Setting File :  C:\Users\Celltest\OneDrive - store-dot.com\Documents\EC-Lab\Data\Gyutae\EIS_SOC0_C01.mpr
Saved on :
	File : 14380_R229-G1, Nb2O5 30% blending_C01.mpr
	Directory : C:\Users\Celltest\OneDrive - store-dot.com\Documents\EC-Lab\Data\Gyutae\
	Host : 169.254.61.224
Device : VMP-3e (SN .003165)
Address : USB
EC-LAB for windows v11.62 (software)
Internet server v27.00 (firmware)
Command interpretor v12.03 (firmware)
Electrode material :
Initial state :
Electrolyte :
Comments :
Electrode surface area : 0.001 cm²
Characteristic mass : 0.001 g
Equivalent Weight : 0.000 g/eq.
Density : 0.000 g/cm3
Volume (V) : 0.001 cm³
Cycle Definition : Charge/Discharge alternance
Mode                Single sine
E (V)               0.0000
vs.                 Eoc
tE (h:m:s)          0:00:0.0000
record              0
dI                  0.000
unit dI             mA
dt (s)              0.000
fi                  100.000
unit fi             kHz
ff                  10.000
unit ff             mHz
Nd                  6
Points              per decade
spacing             Logarithmic
Va (mV)             5.0
pw                  0.10
Na                  2
corr                0
E range min (V)     -10.000
E range max (V)     10.000
I Range             Auto
Bandwidth           5
nc cycles           0
goto Ns'            0
nr cycles           0
inc. cycle          0

freq/Hz	Re(Z)/Ohm	-Im(Z)/Ohm	|Z|/Ohm	Phase(Z)/deg	time/s	<Ewe>/V	<I>/mA	Cs/µF	Cp/µF	cycle number	I Range	|Ewe|/V	|I|/A	Ns	(Q-Qo)/mA.h	Re(Y)/Ohm-1	Im(Y)/Ohm-1	|Y|/Ohm-1	Phase(Y)/deg	Re(C)/nF	Im(C)/nF	|C|/nF	Phase(C)/deg	Re(M)	Im(M)	|M|	Phase(M)/deg	Re(Permittivity)	Im(Permittivity)	|Permittivity|	Phase(Permittivity)/deg	Re(Resistivity)/Ohm.cm	Im(Resistivity)/Ohm.cm	|Resistivity|/Ohm.cm	Phase(Resistivity)/deg	Re(Conductivity)/mS/cm	Im(Conductivity)/mS/cm	|Conductivity|/mS/cm	Phase(Conductivity)/deg	Tan(Delta)	Loss Angle(Delta)/deg	dq/mA.h	Pwe/W	Rwe/Ohm
100004	1.17054	0.267716	1.20077	-12.8826	2.06747	0.366419	0.0742806	5.94469	0.295502	1	9	0.00474828	0.00395437	0	5.03186e-06	0.811837	0.185676	0.8328	12.8826	295.502	1292.03	1325.39	-77.1174	0.0000000E+000	0.0000000E+000	0.0000000E+000	77.1174	0.0000000E+000	0.0000000E+000	0.0000000E+000	-77.1174	0.0000000E+000	0.0000000E+000	0.0000000E+000	-12.8826	0.0000000E+000	0.0000000E+000	0.0000000E+000	12.8826	4.37233	77.1174	5.03186e-06	2.72179e-05	4932.91
46420.4	1.30772	0.336025	1.3502	-14.4106	3.22348	0.366425	0.0761619	10.2033	0.631953	1	9	0.00501566	0.00371475	0	3.84555e-05	0.717327	0.18432	0.74063	14.4106	631.953	2459.4	2539.29	-75.5894	0.0000000E+000	0.0000000E+000	0.0000000E+000	75.5894	0.0000000E+000	0.0000000E+000	0.0000000E+000	-75.5894	0.0000000E+000	0.0000000E+000	0.0000000E+000	-14.4106	0.0000000E+000	0.0000000E+000	0.0000000E+000	14.4106	3.89174	75.5894	1.8017e-05	2.79076e-05	4811.13
21544.7	1.47166	0.438173	1.5355	-16.5804	4.23849	0.366422	0.0738708	16.8591	1.37285	1	9	0.00524529	0.00341601	0	4.28481e-05	0.624173	0.185842	0.651252	16.5804	1372.85	4610.89	4810.93	-73.4196	0.0000000E+000	0.0000000E+000	0.0000000E+000	73.4196	0.0000000E+000	0.0000000E+000	0.0000000E+000	-73.4196	0.0000000E+000	0.0000000E+000	0.0000000E+000	-16.5804	0.0000000E+000	0.0000000E+000	0.0000000E+000	16.5804	3.35862	73.4196	5.2165e-06	2.70679e-05	4960.31
10002.2	1.67815	0.565794	1.77096	-18.6317	5.1125	0.366418	0.0717845	28.1232	2.87055	1	9	0.00490403	0.00276914	0	6.11669e-05	0.535072	0.180402	0.564666	18.6317	2870.55	8514.05	8984.93	-71.3683	0.0000000E+000	0.0000000E+000	0.0000000E+000	71.3683	0.0000000E+000	0.0000000E+000	0.0000000E+000	-71.3683	0.0000000E+000	0.0000000E+000	0.0000000E+000	-18.6317	0.0000000E+000	0.0000000E+000	0.0000000E+000	18.6317	2.966	71.3683	8.39751e-06	2.63031e-05	5104.41
4641.49	1.95738	0.759028	2.09939	-21.1952	6.18469	0.366399	0.10373	45.1757	5.90518	1	9	0.00485776	0.00231389	0	7.21061e-05	0.444106	0.172215	0.476328	21.1952	5905.18	15228.2	16333.1	-68.8048	0.0000000E+000	0.0000000E+000	0.0000000E+000	68.8048	0.0000000E+000	0.0000000E+000	0.0000000E+000	-68.8048	0.0000000E+000	0.0000000E+000	0.0000000E+000	-21.1952	0.0000000E+000	0.0000000E+000	0.0000000E+000	21.1952	2.5788	68.8048	1.71724e-05	3.80066e-05	3532.23
2155.69	2.29487	1.01874	2.51083	-23.9376	7.11868	0.366408	0.106934	72.4717	11.9307	1	9	0.0047464	0.00189037	0	9.82385e-05	0.364019	0.161596	0.398275	23.9376	11930.7	26875.6	29404.7	-66.0625	0.0000000E+000	0.0000000E+000	0.0000000E+000	66.0625	0.0000000E+000	0.0000000E+000	0.0000000E+000	-66.0625	0.0000000E+000	0.0000000E+000	0.0000000E+000	-23.9376	0.0000000E+000	0.0000000E+000	0.0000000E+000	23.9376	2.25264	66.0625	1.23696e-05	3.91814e-05	3426.48
1000.32	2.68121	1.45321	3.04971	-28.4576	8.05468	0.366406	0.106114	109.485	24.8595	1	9	0.00469834	0.00154059	0	0.000123509	0.28828	0.156247	0.3279	28.4576	24859.5	45866.5	52170.2	-61.5424	0.0000000E+000	0.0000000E+000	0.0000000E+000	61.5424	0.0000000E+000	0.0000000E+000	0.0000000E+000	-61.5424	0.0000000E+000	0.0000000E+000	0.0000000E+000	-28.4576	0.0000000E+000	0.0000000E+000	0.0000000E+000	28.4576	1.84503	61.5424	1.39777e-05	3.8881e-05	3452.94
463.961	3.19466	2.29771	3.93514	-35.7251	9.24418	0.366382	-0.0106297	149.294	50.8997	1	10	0.00473978	0.00120448	0	0.000127482	0.206302	0.14838	0.254121	35.7251	50899.7	70769	87172.4	-54.2749	0.0000000E+000	0.0000000E+000	0.0000000E+000	54.2749	0.0000000E+000	0.0000000E+000	0.0000000E+000	-54.2749	0.0000000E+000	0.0000000E+000	0.0000000E+000	-35.7251	0.0000000E+000	0.0000000E+000	0.0000000E+000	35.7251	1.39036	54.2749	-6.15831e-07	-3.89452e-06	34467.9
215.345	4.06849	3.90677	5.64052	-43.8383	10.1784	0.366383	-0.0107452	189.177	90.754	1	10	0.00470197	0.000833607	0	0.000124524	0.127878	0.122795	0.177289	43.8383	90754	94510.8	131029	-46.1617	0.0000000E+000	0.0000000E+000	0.0000000E+000	46.1617	0.0000000E+000	0.0000000E+000	0.0000000E+000	-46.1617	0.0000000E+000	0.0000000E+000	0.0000000E+000	-43.8383	0.0000000E+000	0.0000000E+000	0.0000000E+000	43.8383	1.0414	46.1617	-1.82477e-06	-3.93687e-06	34097.4
100.032	6.00503	6.6368	8.95028	-47.8609	11.1087	0.366371	-0.0110788	239.73	131.815	1	10	0.00468661	0.000523627	0	0.000122246	0.0749622	0.0828486	0.111728	47.8609	131815	119268	177764	-42.1391	0.0000000E+000	0.0000000E+000	0.0000000E+000	42.1391	0.0000000E+000	0.0000000E+000	0.0000000E+000	-42.1391	0.0000000E+000	0.0000000E+000	0.0000000E+000	-47.8609	0.0000000E+000	0.0000000E+000	0.0000000E+000	47.8609	0.904809	42.1391	-1.02987e-06	-4.05894e-06	33069.6
46.4415	10.2069	10.0901	14.3524	-44.6701	12.0425	0.366367	-0.0141591	339.64	167.864	1	10	0.00467899	0.000326007	0	0.000120043	0.0495503	0.048983	0.0696747	44.6701	167864	169809	238775	-45.3299	0.0000000E+000	0.0000000E+000	0.0000000E+000	45.3299	0.0000000E+000	0.0000000E+000	0.0000000E+000	-45.3299	0.0000000E+000	0.0000000E+000	0.0000000E+000	-44.6701	0.0000000E+000	0.0000000E+000	0.0000000E+000	44.6701	1.01158	45.3299	-1.53818e-06	-5.18742e-06	25875
21.5517	17.2303	12.3313	21.1884	-35.5904	13.1713	0.3664	-0.00552298	598.864	202.84	1	11	0.00468429	0.000221079	0	0.000118395	0.0383795	0.0274673	0.0471957	35.5904	202840	283425	348531	-54.4096	0.0000000E+000	0.0000000E+000	0.0000000E+000	54.4096	0.0000000E+000	0.0000000E+000	0.0000000E+000	-54.4096	0.0000000E+000	0.0000000E+000	0.0000000E+000	-35.5904	0.0000000E+000	0.0000000E+000	0.0000000E+000	35.5904	1.39728	54.4096	8.95839e-08	-2.02362e-06	66341.1
10.0032	24.5965	11.7937	27.2778	-25.6171	14.1187	0.366405	-0.00462626	1349.06	252.181	1	11	0.00468329	0.000171689	0	0.000116603	0.0330563	0.0158501	0.0366598	25.6171	252181	525939	583273	-64.3829	0.0000000E+000	0.0000000E+000	0.0000000E+000	64.3829	0.0000000E+000	0.0000000E+000	0.0000000E+000	-64.3829	0.0000000E+000	0.0000000E+000	0.0000000E+000	-25.6171	0.0000000E+000	0.0000000E+000	0.0000000E+000	25.6171	2.08556	64.3829	-1.29667e-06	-1.69509e-06	79201.2
4.63925	30.3936	9.84557	31.9485	-17.949	14.9783	0.366405	-0.00411068	3484.43	330.912	1	11	0.00468012	0.00014649	0	0.000114413	0.0297771	0.00964586	0.0313004	17.949	330912	1.02154e+06	1.0738e+06	-72.051	0.0000000E+000	0.0000000E+000	0.0000000E+000	72.051	0.0000000E+000	0.0000000E+000	0.0000000E+000	-72.051	0.0000000E+000	0.0000000E+000	0.0000000E+000	-17.949	0.0000000E+000	0.0000000E+000	0.0000000E+000	17.949	3.08703	72.051	-1.95533e-06	-1.50617e-06	89134.7
2.15577	34.8173	7.85598	35.6926	-12.715	16.7038	0.366422	-0.00232037	9397.62	455.263	1	11	0.00468507	0.000131262	0	0.000117024	0.0273299	0.00616657	0.028017	12.715	455263	2.0177e+06	2.06843e+06	-77.285	0.0000000E+000	0.0000000E+000	0.0000000E+000	77.285	0.0000000E+000	0.0000000E+000	0.0000000E+000	-77.285	0.0000000E+000	0.0000000E+000	0.0000000E+000	-12.715	0.0000000E+000	0.0000000E+000	0.0000000E+000	12.715	4.43195	77.285	1.20153e-06	-8.50233e-07	157916
1.00006	38.0786	6.07009	38.5594	-9.05728	21.0492	0.366418	-0.00246336	26217.9	649.722	1	12	0.00468788	0.000121576	0	0.000107959	0.0256107	0.00408258	0.025934	9.05728	649722	4.07581e+06	4.12727e+06	-80.9427	0.0000000E+000	0.0000000E+000	0.0000000E+000	80.9427	0.0000000E+000	0.0000000E+000	0.0000000E+000	-80.9427	0.0000000E+000	0.0000000E+000	0.0000000E+000	-9.05728	0.0000000E+000	0.0000000E+000	0.0000000E+000	9.05728	6.27315	80.9427	-5.75004e-06	-9.02619e-07	148747
0.464091	40.4235	4.78913	40.7063	-6.75655	28.7338	0.366418	-0.00262896	71607.9	991.178	1	12	0.00468553	0.000115106	0	0.000100669	0.0243956	0.00289024	0.0245663	6.75655	991177	8.36623e+06	8.42474e+06	-83.2435	0.0000000E+000	0.0000000E+000	0.0000000E+000	83.2435	0.0000000E+000	0.0000000E+000	0.0000000E+000	-83.2435	0.0000000E+000	0.0000000E+000	0.0000000E+000	-6.75655	0.0000000E+000	0.0000000E+000	0.0000000E+000	6.75655	8.44069	83.2435	-1.9069e-06	-9.63298e-07	139378
0.215268	42.1558	4.27618	42.3721	-5.79213	45.2139	0.366425	-0.00215251	172896	1760.91	1	12	0.00468257	0.000110511	0	0.000113233	0.0234799	0.00238174	0.0236004	5.79213	1.7609e+06	1.73595e+07	1.74486e+07	-84.2079	0.0000000E+000	0.0000000E+000	0.0000000E+000	84.2079	0.0000000E+000	0.0000000E+000	0.0000000E+000	-84.2079	0.0000000E+000	0.0000000E+000	0.0000000E+000	-5.79213	0.0000000E+000	0.0000000E+000	0.0000000E+000	5.79213	9.85829	84.2079	8.85034e-06	-7.88733e-07	170232
0.0999041	44.0319	4.83995	44.2971	-6.27272	80.6193	0.366421	-0.000880968	329152	3929.41	1	12	0.00468715	0.000105812	0	0.000120873	0.0224397	0.00246655	0.0225748	6.27272	3.92941e+06	3.57482e+07	3.59635e+07	-83.7273	0.0000000E+000	0.0000000E+000	0.0000000E+000	83.7273	0.0000000E+000	0.0000000E+000	0.0000000E+000	-83.7273	0.0000000E+000	0.0000000E+000	0.0000000E+000	-6.27272	0.0000000E+000	0.0000000E+000	0.0000000E+000	6.27272	9.09759	83.7273	-1.04001e-06	-3.22805e-07	415930
0.0464052	46.416	6.69709	46.8967	-8.2102	156.856	0.366428	0.000101644	512115	10443.7	1	12	0.00468761	9.99561e-05	0	4.65892e-05	0.0211049	0.0030451	0.0213235	8.2102	1.04437e+07	7.23831e+07	7.31326e+07	-81.7898	0.0000000E+000	0.0000000E+000	0.0000000E+000	81.7898	0.0000000E+000	0.0000000E+000	0.0000000E+000	-81.7898	0.0000000E+000	0.0000000E+000	0.0000000E+000	-8.2102	0.0000000E+000	0.0000000E+000	0.0000000E+000	8.2102	6.93078	81.7898	-5.44995e-05	3.7245e-08	3.60503e+06
0.0215268	49.894	9.83196	50.8535	-11.1477	321.086	0.366429	-0.000598985	751970	28108.6	1	12	0.00468465	9.21205e-05	0	-0.000131136	0.0192933	0.00380188	0.0196643	11.1477	2.81086e+07	1.42642e+08	1.45385e+08	-78.8523	0.0000000E+000	0.0000000E+000	0.0000000E+000	78.8523	0.0000000E+000	0.0000000E+000	0.0000000E+000	-78.8523	0.0000000E+000	0.0000000E+000	0.0000000E+000	-11.1477	0.0000000E+000	0.0000000E+000	0.0000000E+000	11.1477	5.07467	78.8523	-9.10906e-05	-2.19485e-07	611749
0.0100092	53.5302	15.6897	55.7821	-16.3359	674.302	0.366429	-0.000680922	1.01346e+06	80176.5	1	12	0.00468636	8.40119e-05	0	-7.23283e-05	0.0172032	0.00504226	0.0179269	16.3359	8.01765e+07	2.73546e+08	2.85054e+08	-73.6641	0.0000000E+000	0.0000000E+000	0.0000000E+000	73.6641	0.0000000E+000	0.0000000E+000	0.0000000E+000	-73.6641	0.0000000E+000	0.0000000E+000	0.0000000E+000	-16.3359	0.0000000E+000	0.0000000E+000	0.0000000E+000	16.3359	3.4118	73.6641	9.67683e-05	-2.4951e-07	538137