File: txt/14381_R229_UA592_SOC00_C02.mpt
EC-Lab ASCII FILE
Nb header lines : 63

Potentio Electrochemical Impedance Spectroscopy

Run on channel : 2 (SN 66139)
User :
CE vs. WE compliance from -10 V to 10 V
Electrode connection : standard
Potential control : Ewe
Ewe ctrl range : min = -10.00 V, max = 10.00 V
Safety Limits :
	Do not start on E overload
Acquisition started on : 09/15/2025 10:22:00.221
Loaded Setting File :  C:\Users\Celltest\OneDrive - store-dot.com\Documents\EC-Lab\Data\Charmaine\R279\17382_C01.mpr
Saved on :
	File : 14381_R229-G1, Nb2O5 30% blending_C02.mpr
	Directory : C:\Users\Celltest\OneDrive - store-dot.com\Documents\EC-Lab\Data\Gyutae\
	Host : 169.254.61.224
Device : VMP-3e (SN .003165)
Address : USB
EC-LAB for windows v11.62 (software)
Internet server v27.00 (firmware)
Command interpretor v12.03 (firmware)
Electrode material :
Initial state :
Electrolyte :
Comments :
Electrode surface area : 0.001 cm²
Characteristic mass : 0.001 g
Equivalent Weight : 0.000 g/eq.
Density : 0.000 g/cm3
Volume (V) : 0.001 cm³
Cycle Definition : Charge/Discharge alternance
Mode                Single sine
E (V)               0.0000
vs.                 Eoc
tE (h:m:s)          0:00:0.0000
record              0
dI                  0.000
unit dI             mA
dt (s)              0.000
fi                  100.000
unit fi             kHz
ff                  10.000
unit ff             mHz
Nd                  6
Points              per decade
spacing             Logarithmic
Va (mV)             5.0
pw                  0.10
Na                  2
corr                0
E range min (V)     -10.000
E range max (V)     10.000
I Range             Auto
Bandwidth           5
nc cycles           0
goto Ns'            0
nr cycles           0
inc. cycle          0

freq/Hz	Re(Z)/Ohm	-Im(Z)/Ohm	|Z|/Ohm	Phase(Z)/deg	time/s	<Ewe>/V	<I>/mA	Cs/µF	Cp/µF	cycle number	I Range	|Ewe|/V	|I|/A	Ns	(Q-Qo)/mA.h	Re(Y)/Ohm-1	Im(Y)/Ohm-1	|Y|/Ohm-1	Phase(Y)/deg	Re(C)/nF	Im(C)/nF	|C|/nF	Phase(C)/deg	Re(M)	Im(M)	|M|	Phase(M)/deg	Re(Permittivity)	Im(Permittivity)	|Permittivity|	Phase(Permittivity)/deg	Re(Resistivity)/Ohm.cm	Im(Resistivity)/Ohm.cm	|Resistivity|/Ohm.cm	Phase(Resistivity)/deg	Re(Conductivity)/mS/cm	Im(Conductivity)/mS/cm	|Conductivity|/mS/cm	Phase(Conductivity)/deg	Tan(Delta)	Loss Angle(Delta)/deg	dq/mA.h	Pwe/W	Rwe/Ohm
100004	2.19939	0.217704	2.21014	-5.65294	2.03648	0.359403	0.0231878	7.31034	0.0709303	1	9	0.00383648	0.00173586	0	1.57024e-07	0.45026	0.0445684	0.45246	5.65294	70.9302	716.584	720.086	-84.3471	0.0000000E+000	0.0000000E+000	0.0000000E+000	84.3471	0.0000000E+000	0.0000000E+000	0.0000000E+000	-84.3471	0.0000000E+000	0.0000000E+000	0.0000000E+000	-5.65294	0.0000000E+000	0.0000000E+000	0.0000000E+000	5.65294	10.1027	84.3471	1.57024e-07	8.33378e-06	15499.6
46420.4	2.2759	0.564203	2.34479	-13.9231	3.33849	0.359283	-0.0180434	6.07682	0.351836	1	9	0.00522712	0.00222925	0	1.0452e-05	0.413948	0.102619	0.426478	13.9231	351.836	1419.24	1462.21	-76.0769	0.0000000E+000	0.0000000E+000	0.0000000E+000	76.0769	0.0000000E+000	0.0000000E+000	0.0000000E+000	-76.0769	0.0000000E+000	0.0000000E+000	0.0000000E+000	-13.9231	0.0000000E+000	0.0000000E+000	0.0000000E+000	13.9231	4.03383	76.0769	9.69468e-06	-6.48268e-06	19912.2
21544.7	2.55699	0.712759	2.65447	-15.5758	4.21349	0.359274	-0.0200174	10.3642	0.74725	1	9	0.00501678	0.00188993	0	4.96911e-06	0.362888	0.101155	0.376723	15.5758	747.25	2680.73	2782.93	-74.4242	0.0000000E+000	0.0000000E+000	0.0000000E+000	74.4242	0.0000000E+000	0.0000000E+000	0.0000000E+000	-74.4242	0.0000000E+000	0.0000000E+000	0.0000000E+000	-15.5758	0.0000000E+000	0.0000000E+000	0.0000000E+000	15.5758	3.58746	74.4242	-3.75985e-06	-7.19174e-06	17948.1
10002.2	2.91391	0.889761	3.04673	-16.98	4.94648	0.359272	-0.0196263	17.8834	1.52521	1	9	0.00499824	0.00164053	0	2.40234e-06	0.313913	0.095853	0.328221	16.98	1525.21	4994.96	5222.64	-73.02	0.0000000E+000	0.0000000E+000	0.0000000E+000	73.02	0.0000000E+000	0.0000000E+000	0.0000000E+000	-73.02	0.0000000E+000	0.0000000E+000	0.0000000E+000	-16.98	0.0000000E+000	0.0000000E+000	0.0000000E+000	16.98	3.27494	73.02	-1.40684e-06	-7.05119e-06	18305.6
4641.49	3.34301	1.13132	3.52925	-18.6964	5.79669	0.359315	0.00791701	30.3095	3.11445	1	9	0.0049799	0.00141104	0	8.49449e-07	0.268394	0.0908278	0.283346	18.6964	3114.45	9203.14	9715.84	-71.3036	0.0000000E+000	0.0000000E+000	0.0000000E+000	71.3036	0.0000000E+000	0.0000000E+000	0.0000000E+000	-71.3036	0.0000000E+000	0.0000000E+000	0.0000000E+000	-18.6964	0.0000000E+000	0.0000000E+000	0.0000000E+000	18.6964	2.95498	71.3036	3.38128e-07	2.8447e-06	45385.2
2155.69	3.89587	1.46516	4.16227	-20.6103	6.98468	0.359322	-0.010842	50.3906	6.24394	1	10	0.00499118	0.00119915	0	-1.95858e-06	0.224877	0.0845716	0.240254	20.6103	6243.94	16602.7	17738	-69.3897	0.0000000E+000	0.0000000E+000	0.0000000E+000	69.3897	0.0000000E+000	0.0000000E+000	0.0000000E+000	-69.3897	0.0000000E+000	0.0000000E+000	0.0000000E+000	-20.6103	0.0000000E+000	0.0000000E+000	0.0000000E+000	20.6103	2.65901	69.3897	-6.37547e-07	-3.89576e-06	33141.7
1000.32	4.5768	1.93028	4.9672	-22.8678	7.92071	0.359327	-0.0103521	82.4252	12.4474	1	10	0.00489494	0.000985451	0	-4.62577e-06	0.185498	0.0782343	0.201321	22.8678	12447.4	29513.4	32030.9	-67.1322	0.0000000E+000	0.0000000E+000	0.0000000E+000	67.1322	0.0000000E+000	0.0000000E+000	0.0000000E+000	-67.1322	0.0000000E+000	0.0000000E+000	0.0000000E+000	-22.8678	0.0000000E+000	0.0000000E+000	0.0000000E+000	22.8678	2.37105	67.1322	-2.027e-06	-3.7198e-06	34710.5
463.961	5.42093	2.67754	6.04613	-26.286	8.85522	0.359319	-0.0106073	128.116	25.1258	1	10	0.00484192	0.00080083	0	-7.70036e-06	0.148292	0.0732455	0.165395	26.286	25125.8	50869.6	56736.4	-63.714	0.0000000E+000	0.0000000E+000	0.0000000E+000	63.714	0.0000000E+000	0.0000000E+000	0.0000000E+000	-63.714	0.0000000E+000	0.0000000E+000	0.0000000E+000	-26.286	0.0000000E+000	0.0000000E+000	0.0000000E+000	26.286	2.02459	63.714	-9.75999e-07	-3.81141e-06	33874.6
215.345	6.61911	3.9899	7.72864	-31.0809	9.78945	0.359313	-0.0107209	185.236	49.3676	1	10	0.00480944	0.000622288	0	-1.08724e-05	0.110814	0.0667968	0.129389	31.0809	49367.6	81899.2	95627.6	-58.9191	0.0000000E+000	0.0000000E+000	0.0000000E+000	58.9191	0.0000000E+000	0.0000000E+000	0.0000000E+000	-58.9191	0.0000000E+000	0.0000000E+000	0.0000000E+000	-31.0809	0.0000000E+000	0.0000000E+000	0.0000000E+000	31.0809	1.65897	58.9191	-1.77827e-06	-3.85218e-06	33515.1
100.032	8.85186	5.97675	10.6807	-34.0271	10.7197	0.35932	-0.0102199	266.205	83.3582	1	10	0.00479529	0.000448969	0	-1.29815e-05	0.0775955	0.0523922	0.093627	34.0271	83358.2	123458	148964	-55.9729	0.0000000E+000	0.0000000E+000	0.0000000E+000	55.9729	0.0000000E+000	0.0000000E+000	0.0000000E+000	-55.9729	0.0000000E+000	0.0000000E+000	0.0000000E+000	-34.0271	0.0000000E+000	0.0000000E+000	0.0000000E+000	34.0271	1.48105	55.9729	-9.20314e-07	-3.67221e-06	35158.8
46.4415	12.7475	7.78298	14.9357	-31.4061	11.6535	0.359312	-0.0126152	440.319	119.567	1	10	0.00479829	0.000321264	0	-1.50932e-05	0.0571448	0.0348897	0.0669538	31.4061	119567	195835	229450	-58.5939	0.0000000E+000	0.0000000E+000	0.0000000E+000	58.5939	0.0000000E+000	0.0000000E+000	0.0000000E+000	-58.5939	0.0000000E+000	0.0000000E+000	0.0000000E+000	-31.4061	0.0000000E+000	0.0000000E+000	0.0000000E+000	31.4061	1.63787	58.5939	-1.36433e-06	-4.5328e-06	28482.4
21.5517	17.5563	8.33135	19.4328	-25.3867	12.7814	0.359331	-0.00749448	886.386	162.923	1	11	0.00479297	0.000246643	0	-1.68398e-05	0.0464902	0.022062	0.0514594	25.3867	162923	343320	380017	-64.6133	0.0000000E+000	0.0000000E+000	0.0000000E+000	64.6133	0.0000000E+000	0.0000000E+000	0.0000000E+000	-64.6133	0.0000000E+000	0.0000000E+000	0.0000000E+000	-25.3867	0.0000000E+000	0.0000000E+000	0.0000000E+000	25.3867	2.10725	64.6133	-4.59583e-08	-2.693e-06	47946.1
10.0032	21.9766	7.82864	23.3293	-19.6073	13.7277	0.359342	-0.00650773	2032.33	228.857	1	11	0.00479139	0.000205381	0	-1.95906e-05	0.040379	0.0143841	0.0428645	19.6073	228857	642446	681992	-70.3927	0.0000000E+000	0.0000000E+000	0.0000000E+000	70.3927	0.0000000E+000	0.0000000E+000	0.0000000E+000	-70.3927	0.0000000E+000	0.0000000E+000	0.0000000E+000	-19.6073	0.0000000E+000	0.0000000E+000	0.0000000E+000	19.6073	2.8072	70.3927	-1.93616e-06	-2.3385e-06	55217.8
4.63925	25.8489	6.89845	26.7536	-14.9426	14.5883	0.359345	-0.00612723	4973.02	330.643	1	11	0.00479201	0.000179116	0	-2.24235e-05	0.0361142	0.00963799	0.0373781	14.9426	330643	1.23894e+06	1.2823e+06	-75.0574	0.0000000E+000	0.0000000E+000	0.0000000E+000	75.0574	0.0000000E+000	0.0000000E+000	0.0000000E+000	-75.0574	0.0000000E+000	0.0000000E+000	0.0000000E+000	-14.9426	0.0000000E+000	0.0000000E+000	0.0000000E+000	14.9426	3.74706	75.0574	-2.78817e-06	-2.20179e-06	58647.2
2.15577	29.1367	5.69482	29.688	-11.0591	16.3147	0.359358	-0.00475584	12964	477.019	1	11	0.00479521	0.00016152	0	-2.00061e-05	0.0330581	0.00646127	0.0336836	11.0591	477019	2.4406e+06	2.48678e+06	-78.9409	0.0000000E+000	0.0000000E+000	0.0000000E+000	78.9409	0.0000000E+000	0.0000000E+000	0.0000000E+000	-78.9409	0.0000000E+000	0.0000000E+000	0.0000000E+000	-11.0591	0.0000000E+000	0.0000000E+000	0.0000000E+000	11.0591	5.11635	78.9409	1.14381e-06	-1.70905e-06	75561.5
1.00006	31.5141	4.48139	31.8312	-8.09333	20.9791	0.359358	-0.00363741	35512.4	703.881	1	12	0.0047932	0.000150582	0	-3.19357e-05	0.0311028	0.0044229	0.0314157	8.09333	703881	4.94985e+06	4.99965e+06	-81.9067	0.0000000E+000	0.0000000E+000	0.0000000E+000	81.9067	0.0000000E+000	0.0000000E+000	0.0000000E+000	-81.9067	0.0000000E+000	0.0000000E+000	0.0000000E+000	-8.09333	0.0000000E+000	0.0000000E+000	0.0000000E+000	8.09333	7.03223	81.9067	-8.97237e-06	-1.30713e-06	98795.1
0.464091	33.1864	3.66549	33.3883	-6.30286	28.6639	0.359364	-0.00377914	93558.9	1127.62	1	12	0.00479471	0.000143605	0	-4.5248e-05	0.0297696	0.0032881	0.0299507	6.30286	1.12762e+06	1.02092e+07	1.02713e+07	-83.6971	0.0000000E+000	0.0000000E+000	0.0000000E+000	83.6971	0.0000000E+000	0.0000000E+000	0.0000000E+000	-83.6971	0.0000000E+000	0.0000000E+000	0.0000000E+000	-6.30286	0.0000000E+000	0.0000000E+000	0.0000000E+000	6.30286	9.05375	83.6971	-5.0521e-06	-1.35809e-06	95091.6
0.215268	34.3855	3.65671	34.5794	-6.07028	45.1439	0.359365	-0.00327142	202186	2260.98	1	12	0.00479142	0.000138563	0	-3.454e-05	0.0287568	0.00305813	0.0289189	6.07028	2.26098e+06	2.12609e+07	2.13808e+07	-83.9297	0.0000000E+000	0.0000000E+000	0.0000000E+000	83.9297	0.0000000E+000	0.0000000E+000	0.0000000E+000	-83.9297	0.0000000E+000	0.0000000E+000	0.0000000E+000	-6.07028	0.0000000E+000	0.0000000E+000	0.0000000E+000	6.07028	9.4034	83.9297	9.13514e-06	-1.17564e-06	109850
0.0999041	35.9579	4.60655	36.2518	-7.30036	80.5505	0.359361	-0.00142056	345829	5584.1	1	12	0.00479309	0.000132217	0	-1.82146e-05	0.0273612	0.00350523	0.0275848	7.30036	5.5841e+06	4.35886e+07	4.39448e+07	-82.6996	0.0000000E+000	0.0000000E+000	0.0000000E+000	82.6996	0.0000000E+000	0.0000000E+000	0.0000000E+000	-82.6996	0.0000000E+000	0.0000000E+000	0.0000000E+000	-7.30036	0.0000000E+000	0.0000000E+000	0.0000000E+000	7.30036	7.80583	82.6996	3.94938e-06	-5.10492e-07	252972
0.0464052	38.1072	6.77808	38.7053	-10.0856	156.787	0.359355	-3.81118e-05	505996	15517.4	1	12	0.00479406	0.000123861	0	-9.76381e-05	0.025437	0.00452444	0.0258362	10.0856	1.55174e+07	8.72407e+07	8.861e+07	-79.9144	0.0000000E+000	0.0000000E+000	0.0000000E+000	79.9144	0.0000000E+000	0.0000000E+000	0.0000000E+000	-79.9144	0.0000000E+000	0.0000000E+000	0.0000000E+000	-10.0856	0.0000000E+000	0.0000000E+000	0.0000000E+000	10.0856	5.62213	79.9144	-6.20318e-05	-1.36957e-08	9.42895e+06
0.0215268	41.2907	10.0047	42.4855	-13.6202	321.017	0.35936	-0.000677555	738988	40979.2	1	12	0.00479385	0.000112835	0	-0.000338749	0.0228755	0.00554272	0.0235375	13.6202	4.09793e+07	1.69127e+08	1.74021e+08	-76.3798	0.0000000E+000	0.0000000E+000	0.0000000E+000	76.3798	0.0000000E+000	0.0000000E+000	0.0000000E+000	-76.3798	0.0000000E+000	0.0000000E+000	0.0000000E+000	-13.6202	0.0000000E+000	0.0000000E+000	0.0000000E+000	13.6202	4.12713	76.3798	-0.000130772	-2.43486e-07	530378
0.0100092	44.6047	16.2482	47.4719	-20.0152	674.235	0.359376	-0.000699625	978628	114644	1	12	0.00479376	0.000100981	0	-0.000334134	0.0197928	0.00720993	0.0210651	20.0152	1.14644e+08	3.14724e+08	3.34954e+08	-69.9848	0.0000000E+000	0.0000000E+000	0.0000000E+000	69.9848	0.0000000E+000	0.0000000E+000	0.0000000E+000	-69.9848	0.0000000E+000	0.0000000E+000	0.0000000E+000	-20.0152	0.0000000E+000	0.0000000E+000	0.0000000E+000	20.0152	2.74522	69.9848	8.51181e-05	-2.51429e-07	513670