File: txt/14957_R243_UA603_SOC00_C04.mpt
EC-Lab ASCII FILE
Nb header lines : 63

Potentio Electrochemical Impedance Spectroscopy

Run on channel : 4 (SN 66756)
User :
CE vs. WE compliance from -10 V to 10 V
Electrode connection : standard
Potential control : Ewe
Ewe ctrl range : min = -10.00 V, max = 10.00 V
Safety Limits :
	Do not start on E overload
Acquisition started on : 09/22/2025 10:43:56.297
Loaded Setting File :  C:\Users\Celltest\OneDrive - store-dot.com\Documents\EC-Lab\Data\Gyutae\17739_R277_UA674_SOC00_C03.mpr
Saved on :
	File : 14957_R243_UA603_SOC00_C04.mpr
	Directory : C:\Users\Celltest\OneDrive - store-dot.com\Documents\EC-Lab\Data\Anna\
	Host : 169.254.61.224
Device : VMP-3e (SN .003165)
Address : USB
EC-LAB for windows v11.62 (software)
Internet server v27.00 (firmware)
Command interpretor v12.03 (firmware)
Electrode material :
Initial state :
Electrolyte :
Comments :
Electrode surface area : 0.001 cm²
Characteristic mass : 0.001 g
Equivalent Weight : 0.000 g/eq.
Density : 0.000 g/cm3
Volume (V) : 0.001 cm³
Cycle Definition : Charge/Discharge alternance
Mode                Single sine
E (V)               0.0000
vs.                 Eoc
tE (h:m:s)          0:00:0.0000
record              0
dI                  0.000
unit dI             mA
dt (s)              0.000
fi                  100.000
unit fi             kHz
ff                  10.000
unit ff             mHz
Nd                  6
Points              per decade
spacing             Logarithmic
Va (mV)             5.0
pw                  0.10
Na                  2
corr                0
E range min (V)     -10.000
E range max (V)     10.000
I Range             Auto
Bandwidth           5
nc cycles           0
goto Ns'            0
nr cycles           0
inc. cycle          0

freq/Hz	Re(Z)/Ohm	-Im(Z)/Ohm	|Z|/Ohm	Phase(Z)/deg	time/s	<Ewe>/V	<I>/mA	Cs/µF	Cp/µF	cycle number	I Range	|Ewe|/V	|I|/A	Ns	(Q-Qo)/mA.h	Re(Y)/Ohm-1	Im(Y)/Ohm-1	|Y|/Ohm-1	Phase(Y)/deg	Re(C)/nF	Im(C)/nF	|C|/nF	Phase(C)/deg	Re(M)	Im(M)	|M|	Phase(M)/deg	Re(Permittivity)	Im(Permittivity)	|Permittivity|	Phase(Permittivity)/deg	Re(Resistivity)/Ohm.cm	Im(Resistivity)/Ohm.cm	|Resistivity|/Ohm.cm	Phase(Resistivity)/deg	Re(Conductivity)/mS/cm	Im(Conductivity)/mS/cm	|Conductivity|/mS/cm	Phase(Conductivity)/deg	Tan(Delta)	Loss Angle(Delta)/deg	dq/mA.h	Pwe/W	Rwe/Ohm
100004	8.59201	2.42591	8.92791	-15.7668	1.86447	0.644227	-0.0225568	0.656038	0.0484372	1	10	0.00459749	0.000514957	0	-2.64982e-06	0.107794	0.0304351	0.112008	15.7668	48.4372	171.553	178.26	-74.2332	0.0000000E+000	0.0000000E+000	0.0000000E+000	74.2332	0.0000000E+000	0.0000000E+000	0.0000000E+000	-74.2332	0.0000000E+000	0.0000000E+000	0.0000000E+000	-15.7668	0.0000000E+000	0.0000000E+000	0.0000000E+000	15.7668	3.54176	74.2332	-2.64982e-06	-1.45317e-05	28560.3
46420.4	9.72094	3.25895	10.2527	-18.5338	2.7385	0.644267	-0.0220756	1.05204	0.106296	1	10	0.00523528	0.000510626	0	-6.84983e-06	0.092477	0.031003	0.0975355	18.5338	106.296	317.063	334.406	-71.4662	0.0000000E+000	0.0000000E+000	0.0000000E+000	71.4662	0.0000000E+000	0.0000000E+000	0.0000000E+000	-71.4662	0.0000000E+000	0.0000000E+000	0.0000000E+000	-18.5338	0.0000000E+000	0.0000000E+000	0.0000000E+000	18.5338	2.98284	71.4662	-1.28867e-06	-1.42226e-05	29184.6
21544.7	11.2874	4.38587	12.1096	-21.2343	3.61248	0.64423	-0.023618	1.68432	0.220942	1	10	0.00517103	0.00042702	0	-1.17556e-05	0.0769727	0.0299087	0.0825792	21.2343	220.942	568.613	610.03	-68.7657	0.0000000E+000	0.0000000E+000	0.0000000E+000	68.7657	0.0000000E+000	0.0000000E+000	0.0000000E+000	-68.7657	0.0000000E+000	0.0000000E+000	0.0000000E+000	-21.2343	0.0000000E+000	0.0000000E+000	0.0000000E+000	21.2343	2.57359	68.7657	-2.65268e-06	-1.52154e-05	27277.1
10002.2	13.509	5.79459	14.6993	-23.2166	4.3455	0.644228	-0.0236217	2.746	0.426728	1	10	0.00500093	0.000340215	0	-1.55921e-05	0.0625213	0.0268181	0.0680303	23.2166	426.728	994.836	1082.5	-66.7834	0.0000000E+000	0.0000000E+000	0.0000000E+000	66.7834	0.0000000E+000	0.0000000E+000	0.0000000E+000	-66.7834	0.0000000E+000	0.0000000E+000	0.0000000E+000	-23.2166	0.0000000E+000	0.0000000E+000	0.0000000E+000	23.2166	2.33131	66.7834	-2.22113e-06	-1.52178e-05	27272.7
4641.49	16.5455	7.66353	18.2341	-24.8526	5.19468	0.644466	0.00168751	4.47439	0.790353	1	10	0.00494883	0.000271404	0	-1.61945e-05	0.0497634	0.0230493	0.0548422	24.8526	790.353	1706.37	1880.52	-65.1474	0.0000000E+000	0.0000000E+000	0.0000000E+000	65.1474	0.0000000E+000	0.0000000E+000	0.0000000E+000	-65.1474	0.0000000E+000	0.0000000E+000	0.0000000E+000	-24.8526	0.0000000E+000	0.0000000E+000	0.0000000E+000	24.8526	2.159	65.1474	4.11335e-08	1.08754e-06	381903
2155.69	20.7198	9.82931	22.9331	-25.3793	6.12868	0.644466	0.00189267	7.51123	1.37985	1	10	0.00490285	0.00021379	0	-1.59328e-05	0.0393968	0.0186895	0.0436052	25.3793	1379.85	2908.67	3219.38	-64.6207	0.0000000E+000	0.0000000E+000	0.0000000E+000	64.6207	0.0000000E+000	0.0000000E+000	0.0000000E+000	-64.6207	0.0000000E+000	0.0000000E+000	0.0000000E+000	-25.3793	0.0000000E+000	0.0000000E+000	0.0000000E+000	25.3793	2.10796	64.6207	3.01857e-07	1.21976e-06	340507
1000.32	26.198	12.0847	28.8509	-24.7631	7.06567	0.64447	0.00138909	13.1657	2.30993	1	10	0.00487407	0.00016894	0	-1.56925e-05	0.0314738	0.0145183	0.034661	24.7631	2309.93	5007.61	5514.7	-65.2369	0.0000000E+000	0.0000000E+000	0.0000000E+000	65.2369	0.0000000E+000	0.0000000E+000	0.0000000E+000	-65.2369	0.0000000E+000	0.0000000E+000	0.0000000E+000	-24.7631	0.0000000E+000	0.0000000E+000	0.0000000E+000	24.7631	2.16786	65.2369	1.45744e-07	8.95228e-07	463950
463.961	32.9306	14.0695	35.8102	-23.1345	8.25422	0.64448	-0.00345717	24.3815	3.7636	1	11	0.00489909	0.000136807	0	-1.64011e-05	0.0256794	0.0109715	0.027925	23.1345	3763.6	8808.94	9579.25	-66.8655	0.0000000E+000	0.0000000E+000	0.0000000E+000	66.8655	0.0000000E+000	0.0000000E+000	0.0000000E+000	-66.8655	0.0000000E+000	0.0000000E+000	0.0000000E+000	-23.1345	0.0000000E+000	0.0000000E+000	0.0000000E+000	23.1345	2.34056	66.8655	-3.47253e-07	-2.22807e-06	186419
215.345	40.5861	15.3605	43.3956	-20.7299	9.18841	0.644421	-0.00317568	48.1152	6.02837	1	11	0.00487847	0.000112419	0	-1.72282e-05	0.021552	0.00815668	0.0230438	20.7299	6028.37	15928.4	17031	-69.27	0.0000000E+000	0.0000000E+000	0.0000000E+000	69.27	0.0000000E+000	0.0000000E+000	0.0000000E+000	-69.27	0.0000000E+000	0.0000000E+000	0.0000000E+000	-20.7299	0.0000000E+000	0.0000000E+000	0.0000000E+000	20.7299	2.64225	69.27	-4.65285e-07	-2.04647e-06	202924
100.032	48.531	16.3304	51.2049	-18.5978	10.1197	0.644425	-0.00320795	97.428	9.9096	1	11	0.00486455	9.50018e-05	0	-1.80869e-05	0.0185096	0.00622838	0.0195294	18.5978	9909.6	29449.5	31072	-71.4022	0.0000000E+000	0.0000000E+000	0.0000000E+000	71.4022	0.0000000E+000	0.0000000E+000	0.0000000E+000	-71.4022	0.0000000E+000	0.0000000E+000	0.0000000E+000	-18.5978	0.0000000E+000	0.0000000E+000	0.0000000E+000	18.5978	2.97181	71.4022	-4.16648e-07	-2.06728e-06	200884
46.4415	57.1207	16.5001	59.4561	-16.1121	11.0535	0.644415	-0.00352786	207.695	15.9958	1	11	0.00486127	8.17623e-05	0	-1.89115e-05	0.0161585	0.0046676	0.0168191	16.1121	15995.8	55375	57639.1	-73.8879	0.0000000E+000	0.0000000E+000	0.0000000E+000	73.8879	0.0000000E+000	0.0000000E+000	0.0000000E+000	-73.8879	0.0000000E+000	0.0000000E+000	0.0000000E+000	-16.1121	0.0000000E+000	0.0000000E+000	0.0000000E+000	16.1121	3.46184	73.8879	-4.62015e-07	-2.27341e-06	182664
21.5517	66.2738	16.4311	68.2803	-13.9244	11.9393	0.644415	-0.00392687	449.439	26.0264	1	11	0.00488403	7.15291e-05	0	-2.00365e-05	0.0142151	0.00352433	0.0146455	13.9244	26026.4	104976	108154	-76.0756	0.0000000E+000	0.0000000E+000	0.0000000E+000	76.0756	0.0000000E+000	0.0000000E+000	0.0000000E+000	-76.0756	0.0000000E+000	0.0000000E+000	0.0000000E+000	-13.9244	0.0000000E+000	0.0000000E+000	0.0000000E+000	13.9244	4.03343	76.0756	-7.02698e-07	-2.53054e-06	164104
10.0032	73.9694	13.3494	75.1643	-10.2301	12.8867	0.644436	-0.00314863	1191.85	37.5939	1	11	0.00485892	6.4644e-05	0	-2.04183e-05	0.0130927	0.00236285	0.0133042	10.2301	37593.9	208310	211675	-79.7699	0.0000000E+000	0.0000000E+000	0.0000000E+000	79.7699	0.0000000E+000	0.0000000E+000	0.0000000E+000	-79.7699	0.0000000E+000	0.0000000E+000	0.0000000E+000	-10.2301	0.0000000E+000	0.0000000E+000	0.0000000E+000	10.2301	5.54105	79.7699	-3.43446e-08	-2.02909e-06	204672
4.63925	79.2459	9.10651	79.7674	-6.55537	13.7463	0.644454	-0.00235304	3767.21	49.0991	1	11	0.00484042	6.06817e-05	0	-2.06623e-05	0.0124545	0.0014312	0.0125365	6.55537	49099.1	427266	430078	-83.4446	0.0000000E+000	0.0000000E+000	0.0000000E+000	83.4446	0.0000000E+000	0.0000000E+000	0.0000000E+000	-83.4446	0.0000000E+000	0.0000000E+000	0.0000000E+000	-6.55537	0.0000000E+000	0.0000000E+000	0.0000000E+000	6.55537	8.70211	83.4446	3.02768e-07	-1.51643e-06	273881
2.15577	83.7002	7.34654	84.022	-5.01612	15.8408	0.644469	-0.00155854	10049.3	76.8273	1	12	0.00486849	5.79431e-05	0	-2.23143e-05	0.0118561	0.00104063	0.0119016	5.01612	76827.2	875304	878669	-84.9839	0.0000000E+000	0.0000000E+000	0.0000000E+000	84.9839	0.0000000E+000	0.0000000E+000	0.0000000E+000	-84.9839	0.0000000E+000	0.0000000E+000	0.0000000E+000	-5.01612	0.0000000E+000	0.0000000E+000	0.0000000E+000	5.01612	11.3931	84.9839	-7.70086e-08	-1.00443e-06	413508
1.00006	86.1901	6.51634	86.4361	-4.32358	19.4543	0.644472	-0.00140742	24422.4	138.805	1	12	0.00487407	5.63893e-05	0	-2.09574e-05	0.0115363	0.000872195	0.0115692	4.32358	138805	1.83594e+06	1.84118e+06	-85.6764	0.0000000E+000	0.0000000E+000	0.0000000E+000	85.6764	0.0000000E+000	0.0000000E+000	0.0000000E+000	-85.6764	0.0000000E+000	0.0000000E+000	0.0000000E+000	-4.32358	0.0000000E+000	0.0000000E+000	0.0000000E+000	4.32358	13.2268	85.6764	4.92382e-07	-9.07042e-07	457911
0.464091	88.6098	6.7372	88.8656	-4.34796	27.1396	0.644489	-0.00103962	50902.4	292.57	1	12	0.00488371	5.49562e-05	0	-2.61721e-05	0.0112206	0.000853124	0.011253	4.34796	292570	3.84797e+06	3.85908e+06	-85.652	0.0000000E+000	0.0000000E+000	0.0000000E+000	85.652	0.0000000E+000	0.0000000E+000	0.0000000E+000	-85.652	0.0000000E+000	0.0000000E+000	0.0000000E+000	-4.34796	0.0000000E+000	0.0000000E+000	0.0000000E+000	4.34796	13.1523	85.652	-4.05588e-06	-6.70023e-07	619928
0.215268	91.3022	7.88251	91.6419	-4.93436	43.6179	0.644489	-0.00109834	93794.2	693.934	1	12	0.0048734	5.31787e-05	0	-4.17375e-05	0.0108716	0.000938592	0.010912	4.93436	693934	8.03775e+06	8.06765e+06	-85.0656	0.0000000E+000	0.0000000E+000	0.0000000E+000	85.0656	0.0000000E+000	0.0000000E+000	0.0000000E+000	-85.0656	0.0000000E+000	0.0000000E+000	0.0000000E+000	-4.93436	0.0000000E+000	0.0000000E+000	0.0000000E+000	4.93436	11.5829	85.0656	-8.45387e-06	-7.0787e-07	586784
0.0999041	95.0876	11.5249	95.7835	-6.91073	79.0235	0.644479	-0.00122516	138229	2001.22	1	12	0.00486278	5.07685e-05	0	-4.83582e-05	0.0103644	0.0012562	0.0104402	6.91073	2.00122e+06	1.65112e+07	1.66321e+07	-83.0893	0.0000000E+000	0.0000000E+000	0.0000000E+000	83.0893	0.0000000E+000	0.0000000E+000	0.0000000E+000	-83.0893	0.0000000E+000	0.0000000E+000	0.0000000E+000	-6.91073	0.0000000E+000	0.0000000E+000	0.0000000E+000	6.91073	8.25059	83.0893	-1.05296e-07	-7.89588e-07	526038
0.0464052	101.16	16.7365	102.535	-9.39432	155.26	0.644476	-0.00072493	204922	5459.81	1	12	0.00486714	4.74683e-05	0	-2.16186e-05	0.009622	0.00159193	0.0097528	9.39432	5.45981e+06	3.30004e+07	3.3449e+07	-80.6057	0.0000000E+000	0.0000000E+000	0.0000000E+000	80.6057	0.0000000E+000	0.0000000E+000	0.0000000E+000	-80.6057	0.0000000E+000	0.0000000E+000	0.0000000E+000	-9.39432	0.0000000E+000	0.0000000E+000	0.0000000E+000	9.39432	6.04423	80.6057	1.86971e-05	-4.672e-07	889018
0.0215268	110.01	25.5284	112.934	-13.0645	319.488	0.644482	-0.00014197	289612	14798.5	1	12	0.00486816	4.31064e-05	0	-9.95701e-06	0.00862557	0.0020016	0.00885476	13.0645	1.47985e+07	6.37718e+07	6.54663e+07	-76.9355	0.0000000E+000	0.0000000E+000	0.0000000E+000	76.9355	0.0000000E+000	0.0000000E+000	0.0000000E+000	-76.9355	0.0000000E+000	0.0000000E+000	0.0000000E+000	-13.0645	0.0000000E+000	0.0000000E+000	0.0000000E+000	13.0645	4.30933	76.9355	-5.8612e-06	-9.14969e-08	4.53957e+06
0.0100092	120.676	38.8022	126.761	-17.8247	672.704	0.644477	-9.98283e-05	409794	38397.9	1	12	0.00486557	3.83838e-05	0	-0.00017708	0.00751018	0.00241483	0.00788887	17.8247	3.83979e+07	1.19419e+08	1.2544e+08	-72.1753	0.0000000E+000	0.0000000E+000	0.0000000E+000	72.1753	0.0000000E+000	0.0000000E+000	0.0000000E+000	-72.1753	0.0000000E+000	0.0000000E+000	0.0000000E+000	-17.8247	0.0000000E+000	0.0000000E+000	0.0000000E+000	17.8247	3.11003	72.1753	-0.000113893	-6.4337e-08	6.45586e+06