File: txt/14956_R243_UA603_SOC00_C03.mpt
EC-Lab ASCII FILE
Nb header lines : 63

Potentio Electrochemical Impedance Spectroscopy

Run on channel : 3 (SN 65921)
User :
CE vs. WE compliance from -10 V to 10 V
Electrode connection : standard
Potential control : Ewe
Ewe ctrl range : min = -10.00 V, max = 10.00 V
Safety Limits :
	Do not start on E overload
Acquisition started on : 09/22/2025 10:43:40.735
Loaded Setting File :  C:\Users\Celltest\OneDrive - store-dot.com\Documents\EC-Lab\Data\Gyutae\17738_R277_UA674_SOC00_C02.mpr
Saved on :
	File : 14956_R243_UA603_SOC00_C03.mpr
	Directory : C:\Users\Celltest\OneDrive - store-dot.com\Documents\EC-Lab\Data\Anna\
	Host : 169.254.61.224
Device : VMP-3e (SN .003165)
Address : USB
EC-LAB for windows v11.62 (software)
Internet server v27.00 (firmware)
Command interpretor v12.03 (firmware)
Electrode material :
Initial state :
Electrolyte :
Comments :
Electrode surface area : 0.001 cm²
Characteristic mass : 0.001 g
Equivalent Weight : 0.000 g/eq.
Density : 0.000 g/cm3
Volume (V) : 0.001 cm³
Cycle Definition : Charge/Discharge alternance
Mode                Single sine
E (V)               0.0000
vs.                 Eoc
tE (h:m:s)          0:00:0.0000
record              0
dI                  0.000
unit dI             mA
dt (s)              0.000
fi                  100.000
unit fi             kHz
ff                  10.000
unit ff             mHz
Nd                  6
Points              per decade
spacing             Logarithmic
Va (mV)             5.0
pw                  0.10
Na                  2
corr                0
E range min (V)     -10.000
E range max (V)     10.000
I Range             Auto
Bandwidth           5
nc cycles           0
goto Ns'            0
nr cycles           0
inc. cycle          0

freq/Hz	Re(Z)/Ohm	-Im(Z)/Ohm	|Z|/Ohm	Phase(Z)/deg	time/s	<Ewe>/V	<I>/mA	Cs/µF	Cp/µF	cycle number	I Range	|Ewe|/V	|I|/A	Ns	(Q-Qo)/mA.h	Re(Y)/Ohm-1	Im(Y)/Ohm-1	|Y|/Ohm-1	Phase(Y)/deg	Re(C)/nF	Im(C)/nF	|C|/nF	Phase(C)/deg	Re(M)	Im(M)	|M|	Phase(M)/deg	Re(Permittivity)	Im(Permittivity)	|Permittivity|	Phase(Permittivity)/deg	Re(Resistivity)/Ohm.cm	Im(Resistivity)/Ohm.cm	|Resistivity|/Ohm.cm	Phase(Resistivity)/deg	Re(Conductivity)/mS/cm	Im(Conductivity)/mS/cm	|Conductivity|/mS/cm	Phase(Conductivity)/deg	Tan(Delta)	Loss Angle(Delta)/deg	dq/mA.h	Pwe/W	Rwe/Ohm
100004	5.28971	1.23032	5.4309	-13.0935	2.02549	0.291812	-0.00407256	1.29356	0.0663862	1	10	0.00477534	0.00087929	0	-1.65152e-06	0.179344	0.0417132	0.184131	13.0935	66.3862	285.425	293.043	-76.9065	0.0000000E+000	0.0000000E+000	0.0000000E+000	76.9065	0.0000000E+000	0.0000000E+000	0.0000000E+000	-76.9065	0.0000000E+000	0.0000000E+000	0.0000000E+000	-13.0935	0.0000000E+000	0.0000000E+000	0.0000000E+000	13.0935	4.29946	76.9065	-1.65152e-06	-1.18842e-06	71653.1
46420.4	5.87099	1.46747	6.05161	-14.0337	3.04049	0.291796	-0.00345729	2.33638	0.137385	1	10	0.00508094	0.000839602	0	-2.83709e-06	0.160313	0.0400708	0.165245	14.0337	137.385	549.644	566.554	-75.9663	0.0000000E+000	0.0000000E+000	0.0000000E+000	75.9663	0.0000000E+000	0.0000000E+000	0.0000000E+000	-75.9663	0.0000000E+000	0.0000000E+000	0.0000000E+000	-14.0337	0.0000000E+000	0.0000000E+000	0.0000000E+000	14.0337	4.00076	75.9663	6.58581e-07	-1.00882e-06	84400
21544.7	6.58322	1.78028	6.81969	-15.1323	4.05648	0.291794	-0.00280289	4.14947	0.282773	1	10	0.00508526	0.000745673	0	-3.96461e-06	0.14155	0.0382788	0.146634	15.1323	282.773	1045.66	1083.22	-74.8677	0.0000000E+000	0.0000000E+000	0.0000000E+000	74.8677	0.0000000E+000	0.0000000E+000	0.0000000E+000	-74.8677	0.0000000E+000	0.0000000E+000	0.0000000E+000	-15.1323	0.0000000E+000	0.0000000E+000	0.0000000E+000	15.1323	3.69787	74.8677	-9.25217e-07	-8.17865e-07	104105
10002.2	7.47538	2.20905	7.79495	-16.463	4.93048	0.291791	-0.0027078	7.20307	0.5785	1	10	0.0054715	0.00070193	0	-5.532e-06	0.123029	0.0363563	0.128288	16.463	578.5	1957.63	2041.32	-73.537	0.0000000E+000	0.0000000E+000	0.0000000E+000	73.537	0.0000000E+000	0.0000000E+000	0.0000000E+000	-73.537	0.0000000E+000	0.0000000E+000	0.0000000E+000	-16.463	0.0000000E+000	0.0000000E+000	0.0000000E+000	16.463	3.38398	73.537	-9.08958e-07	-7.90112e-07	107760
4641.49	8.57253	2.76041	9.006	-17.8489	6.18069	0.291803	-0.00082285	12.422	1.167	1	10	0.00523449	0.000581223	0	-5.1523e-06	0.105693	0.0340337	0.111037	17.8489	1167	3624.16	3807.42	-72.1511	0.0000000E+000	0.0000000E+000	0.0000000E+000	72.1511	0.0000000E+000	0.0000000E+000	0.0000000E+000	-72.1511	0.0000000E+000	0.0000000E+000	0.0000000E+000	-17.8489	0.0000000E+000	0.0000000E+000	0.0000000E+000	17.8489	3.10553	72.1511	-7.76824e-07	-2.4011e-07	354624
2155.69	9.95256	3.46671	10.539	-19.2044	7.33769	0.291795	-0.000746413	21.2969	2.30435	1	10	0.00545367	0.000517473	0	-5.16762e-06	0.089605	0.0312115	0.0948853	19.2044	2304.35	6615.55	7005.4	-70.7956	0.0000000E+000	0.0000000E+000	0.0000000E+000	70.7956	0.0000000E+000	0.0000000E+000	0.0000000E+000	-70.7956	0.0000000E+000	0.0000000E+000	0.0000000E+000	-19.2044	0.0000000E+000	0.0000000E+000	0.0000000E+000	19.2044	2.8709	70.7956	-5.31095e-07	-2.17799e-07	390930
1000.32	11.6628	4.43481	12.4775	-20.8194	8.27366	0.291809	-0.000746414	35.8762	4.5321	1	10	0.00542641	0.000434895	0	-5.34114e-06	0.0749112	0.0284852	0.0801442	20.8194	4532.1	11918.7	12751.3	-69.1806	0.0000000E+000	0.0000000E+000	0.0000000E+000	69.1806	0.0000000E+000	0.0000000E+000	0.0000000E+000	-69.1806	0.0000000E+000	0.0000000E+000	0.0000000E+000	-20.8194	0.0000000E+000	0.0000000E+000	0.0000000E+000	20.8194	2.62983	69.1806	2.04651e-07	-2.17811e-07	390949
463.961	13.9158	5.72525	15.0475	-22.3633	9.2082	0.291792	-0.000451833	59.9162	8.67371	1	10	0.00530991	0.000352876	0	-5.22995e-06	0.061458	0.0252852	0.0664562	22.3633	8673.71	21082.3	22796.8	-67.6367	0.0000000E+000	0.0000000E+000	0.0000000E+000	67.6367	0.0000000E+000	0.0000000E+000	0.0000000E+000	-67.6367	0.0000000E+000	0.0000000E+000	0.0000000E+000	-22.3633	0.0000000E+000	0.0000000E+000	0.0000000E+000	22.3633	2.4306	67.6367	-2.04644e-07	-1.31841e-07	645795
215.345	17.0648	7.42477	18.61	-23.5135	10.1414	0.2918	-0.000226237	99.5413	15.8444	1	10	0.0052522	0.000282224	0	-5.04415e-06	0.0492726	0.0214382	0.0537344	23.5135	15844.4	36416	39713.6	-66.4865	0.0000000E+000	0.0000000E+000	0.0000000E+000	66.4865	0.0000000E+000	0.0000000E+000	0.0000000E+000	-66.4865	0.0000000E+000	0.0000000E+000	0.0000000E+000	-23.5135	0.0000000E+000	0.0000000E+000	0.0000000E+000	23.5135	2.29836	66.4865	2.03622e-07	-6.60158e-08	1.2898e+06
100.032	21.4789	8.98849	23.2838	-22.7084	11.3267	0.291796	-0.00625717	177.009	26.3792	1	11	0.00523874	0.000224995	0	-5.7423e-06	0.0396191	0.0165798	0.0429484	22.7084	26379.2	63035.5	68332.5	-67.2916	0.0000000E+000	0.0000000E+000	0.0000000E+000	67.2916	0.0000000E+000	0.0000000E+000	0.0000000E+000	-67.2916	0.0000000E+000	0.0000000E+000	0.0000000E+000	-22.7084	0.0000000E+000	0.0000000E+000	0.0000000E+000	22.7084	2.38959	67.2916	-6.26053e-07	-1.82581e-06	46633.8
46.4415	27.1843	9.33944	28.7439	-18.9607	12.2606	0.291802	-0.00608899	366.938	38.7386	1	11	0.0052176	0.00018152	0	-6.99835e-06	0.0329024	0.0113039	0.03479	18.9607	38738.6	112756	119225	-71.0393	0.0000000E+000	0.0000000E+000	0.0000000E+000	71.0393	0.0000000E+000	0.0000000E+000	0.0000000E+000	-71.0393	0.0000000E+000	0.0000000E+000	0.0000000E+000	-18.9607	0.0000000E+000	0.0000000E+000	0.0000000E+000	18.9607	2.9107	71.0393	-6.66929e-07	-1.77678e-06	47922.9
21.5517	32.3643	7.5185	33.2261	-13.0783	13.1463	0.291794	-0.00615537	982.216	50.2934	1	11	0.00521454	0.000156941	0	-8.64703e-06	0.0293162	0.0068104	0.0300968	13.0783	50293.4	216494	222259	-76.9217	0.0000000E+000	0.0000000E+000	0.0000000E+000	76.9217	0.0000000E+000	0.0000000E+000	0.0000000E+000	-76.9217	0.0000000E+000	0.0000000E+000	0.0000000E+000	-13.0783	0.0000000E+000	0.0000000E+000	0.0000000E+000	13.0783	4.30462	76.9217	-8.70603e-07	-1.7961e-06	47404.8
10.0032	35.4087	4.93288	35.7507	-7.93098	14.0937	0.291817	-0.00542523	3225.38	61.4064	1	11	0.00521486	0.000145867	0	-8.80158e-06	0.027704	0.00385951	0.0279715	7.93098	61406.4	440781	445038	-82.069	0.0000000E+000	0.0000000E+000	0.0000000E+000	82.069	0.0000000E+000	0.0000000E+000	0.0000000E+000	-82.069	0.0000000E+000	0.0000000E+000	0.0000000E+000	-7.93098	0.0000000E+000	0.0000000E+000	0.0000000E+000	7.93098	7.1781	82.069	3.54883e-07	-1.58318e-06	53789
4.63925	36.7939	3.01242	36.917	-4.68053	14.9543	0.291813	-0.00535549	11388.2	75.8289	1	11	0.00521072	0.000141147	0	-9.97782e-06	0.0269974	0.00221036	0.0270878	4.68053	75828.9	926179	929278	-85.3195	0.0000000E+000	0.0000000E+000	0.0000000E+000	85.3195	0.0000000E+000	0.0000000E+000	0.0000000E+000	-85.3195	0.0000000E+000	0.0000000E+000	0.0000000E+000	-4.68053	0.0000000E+000	0.0000000E+000	0.0000000E+000	4.68053	12.2141	85.3195	1.15586e-06	-1.5628e-06	54488.4
2.15577	37.5499	1.99991	37.6031	-3.04869	16.6778	0.291824	-0.00429925	36915.5	104.419	1	11	0.0052217	0.000138863	0	-1.43916e-05	0.0265559	0.00141437	0.0265935	3.04869	104419	1.96056e+06	1.96334e+06	-86.9513	0.0000000E+000	0.0000000E+000	0.0000000E+000	86.9513	0.0000000E+000	0.0000000E+000	0.0000000E+000	-86.9513	0.0000000E+000	0.0000000E+000	0.0000000E+000	-3.04869	0.0000000E+000	0.0000000E+000	0.0000000E+000	3.04869	18.7758	86.9513	-3.90427e-06	-1.25462e-06	67877.9
1.00006	38.0574	1.68221	38.0946	-2.53093	21.0232	0.291828	-0.00451997	94604.7	184.479	1	12	0.00521683	0.000136944	0	-1.97348e-05	0.0262249	0.00115919	0.0262505	2.53093	184478	4.17355e+06	4.17762e+06	-87.4691	0.0000000E+000	0.0000000E+000	0.0000000E+000	87.4691	0.0000000E+000	0.0000000E+000	0.0000000E+000	-87.4691	0.0000000E+000	0.0000000E+000	0.0000000E+000	-2.53093	0.0000000E+000	0.0000000E+000	0.0000000E+000	2.53093	22.6235	87.4691	-7.58429e-08	-1.31906e-06	64564.3
0.464091	38.5518	1.8986	38.5985	-2.81943	28.7079	0.291833	-0.00377047	180627	437.029	1	12	0.00521963	0.000135229	0	-1.49865e-05	0.0258764	0.00127436	0.0259077	2.81943	437029	8.87403e+06	8.88479e+06	-87.1806	0.0000000E+000	0.0000000E+000	0.0000000E+000	87.1806	0.0000000E+000	0.0000000E+000	0.0000000E+000	-87.1806	0.0000000E+000	0.0000000E+000	0.0000000E+000	-2.81943	0.0000000E+000	0.0000000E+000	0.0000000E+000	2.81943	20.3054	87.1806	2.34226e-06	-1.10035e-06	77399.6
0.215268	39.3706	2.78571	39.469	-4.04728	45.1878	0.291823	-0.00222771	265403	1322.1	1	12	0.00521629	0.000132162	0	-3.32268e-05	0.0252732	0.00178823	0.0253363	4.04728	1.3221e+06	1.86853e+07	1.8732e+07	-85.9527	0.0000000E+000	0.0000000E+000	0.0000000E+000	85.9527	0.0000000E+000	0.0000000E+000	0.0000000E+000	-85.9527	0.0000000E+000	0.0000000E+000	0.0000000E+000	-4.04728	0.0000000E+000	0.0000000E+000	0.0000000E+000	4.04728	14.1331	85.9527	-1.47925e-05	-6.50095e-07	130997
0.0999041	40.6908	4.28389	40.9157	-6.0099	80.5932	0.291824	-0.00170453	371876	4076.57	1	12	0.00521964	0.000127571	0	-0.000107961	0.0243061	0.00255893	0.0244405	6.0099	4.07657e+06	3.87216e+07	3.89356e+07	-83.9901	0.0000000E+000	0.0000000E+000	0.0000000E+000	83.9901	0.0000000E+000	0.0000000E+000	0.0000000E+000	-83.9901	0.0000000E+000	0.0000000E+000	0.0000000E+000	-6.0099	0.0000000E+000	0.0000000E+000	0.0000000E+000	6.0099	9.49857	83.9901	-4.42867e-05	-4.97422e-07	171205
0.0464052	42.9452	7.053	43.5205	-9.32659	156.829	0.291824	-0.00211203	486272	12771.5	1	12	0.00522034	0.000119951	0	-0.000181648	0.0226739	0.0037238	0.0229777	9.32659	1.27715e+07	7.77644e+07	7.88061e+07	-80.6734	0.0000000E+000	0.0000000E+000	0.0000000E+000	80.6734	0.0000000E+000	0.0000000E+000	0.0000000E+000	-80.6734	0.0000000E+000	0.0000000E+000	0.0000000E+000	-9.32659	0.0000000E+000	0.0000000E+000	0.0000000E+000	9.32659	6.08892	80.6734	-2.64864e-05	-6.16341e-07	138172
0.0215268	45.5938	11.238	46.9584	-13.8463	321.059	0.291825	-0.0012097	657888	37679.4	1	12	0.00521895	0.00011114	0	-4.08795e-05	0.0206766	0.00509639	0.0212954	13.8463	3.76794e+07	1.52869e+08	1.57445e+08	-76.1537	0.0000000E+000	0.0000000E+000	0.0000000E+000	76.1537	0.0000000E+000	0.0000000E+000	0.0000000E+000	-76.1537	0.0000000E+000	0.0000000E+000	0.0000000E+000	-13.8463	0.0000000E+000	0.0000000E+000	0.0000000E+000	13.8463	4.05711	76.1537	0.00010871	-3.53022e-07	241237
0.0100092	50.0596	18.5858	53.3985	-20.3686	674.273	0.291826	-3.6757e-05	855542	103644	1	12	0.00522114	9.77768e-05	0	0.000221483	0.0175562	0.00651813	0.0187271	20.3686	1.03644e+08	2.79159e+08	2.97778e+08	-69.6314	0.0000000E+000	0.0000000E+000	0.0000000E+000	69.6314	0.0000000E+000	0.0000000E+000	0.0000000E+000	-69.6314	0.0000000E+000	0.0000000E+000	0.0000000E+000	-20.3686	0.0000000E+000	0.0000000E+000	0.0000000E+000	20.3686	2.69344	69.6314	0.000103244	-1.07266e-08	7.93932e+06