File: txt/14954_R243_UA603_SOC00_C01.mpt
EC-Lab ASCII FILE
Nb header lines : 63

Potentio Electrochemical Impedance Spectroscopy

Run on channel : 1 (SN 66354)
User :
CE vs. WE compliance from -10 V to 10 V
Electrode connection : standard
Potential control : Ewe
Ewe ctrl range : min = -10.00 V, max = 10.00 V
Safety Limits :
	Do not start on E overload
Acquisition started on : 09/22/2025 10:43:15.806
Loaded Setting File :  C:\Users\Celltest\OneDrive - store-dot.com\Documents\EC-Lab\Data\txt_done\14380_R229_UA592_SOC00_C01.mpr
Saved on :
	File : 14954_R243_UA603_SOC00_C01.mpr
	Directory : C:\Users\Celltest\OneDrive - store-dot.com\Documents\EC-Lab\Data\Anna\
	Host : 169.254.61.224
Device : VMP-3e (SN .003165)
Address : USB
EC-LAB for windows v11.62 (software)
Internet server v27.00 (firmware)
Command interpretor v12.03 (firmware)
Electrode material :
Initial state :
Electrolyte :
Comments :
Electrode surface area : 0.001 cm²
Characteristic mass : 0.001 g
Equivalent Weight : 0.000 g/eq.
Density : 0.000 g/cm3
Volume (V) : 0.001 cm³
Cycle Definition : Charge/Discharge alternance
Mode                Single sine
E (V)               0.0000
vs.                 Eoc
tE (h:m:s)          0:00:0.0000
record              0
dI                  0.000
unit dI             mA
dt (s)              0.000
fi                  100.000
unit fi             kHz
ff                  10.000
unit ff             mHz
Nd                  6
Points              per decade
spacing             Logarithmic
Va (mV)             5.0
pw                  0.10
Na                  2
corr                0
E range min (V)     -10.000
E range max (V)     10.000
I Range             Auto
Bandwidth           5
nc cycles           0
goto Ns'            0
nr cycles           0
inc. cycle          0

freq/Hz	Re(Z)/Ohm	-Im(Z)/Ohm	|Z|/Ohm	Phase(Z)/deg	time/s	<Ewe>/V	<I>/mA	Cs/µF	Cp/µF	cycle number	I Range	|Ewe|/V	|I|/A	Ns	(Q-Qo)/mA.h	Re(Y)/Ohm-1	Im(Y)/Ohm-1	|Y|/Ohm-1	Phase(Y)/deg	Re(C)/nF	Im(C)/nF	|C|/nF	Phase(C)/deg	Re(M)	Im(M)	|M|	Phase(M)/deg	Re(Permittivity)	Im(Permittivity)	|Permittivity|	Phase(Permittivity)/deg	Re(Resistivity)/Ohm.cm	Im(Resistivity)/Ohm.cm	|Resistivity|/Ohm.cm	Phase(Resistivity)/deg	Re(Conductivity)/mS/cm	Im(Conductivity)/mS/cm	|Conductivity|/mS/cm	Phase(Conductivity)/deg	Tan(Delta)	Loss Angle(Delta)/deg	dq/mA.h	Pwe/W	Rwe/Ohm
100004	3.82255	0.525279	3.85847	-7.82434	2.02448	0.362677	-0.0187618	3.0298	0.0561517	1	10	0.00492545	0.00127653	0	-2.52424e-06	0.256757	0.0352825	0.25917	7.82434	56.1517	408.626	412.466	-82.1757	0.0000000E+000	0.0000000E+000	0.0000000E+000	82.1757	0.0000000E+000	0.0000000E+000	0.0000000E+000	-82.1757	0.0000000E+000	0.0000000E+000	0.0000000E+000	-7.82434	0.0000000E+000	0.0000000E+000	0.0000000E+000	7.82434	7.27719	82.1757	-2.52424e-06	-6.8045e-06	19330.6
46420.4	4.02471	0.562404	4.06381	-7.95488	2.89849	0.362681	-0.0175431	6.09626	0.11676	1	10	0.00534154	0.00131442	0	-3.72849e-06	0.243707	0.034055	0.246075	7.95488	116.76	835.563	843.681	-82.0451	0.0000000E+000	0.0000000E+000	0.0000000E+000	82.0451	0.0000000E+000	0.0000000E+000	0.0000000E+000	-82.0451	0.0000000E+000	0.0000000E+000	0.0000000E+000	-7.95488	0.0000000E+000	0.0000000E+000	0.0000000E+000	7.95488	7.15626	82.0451	-3.22186e-07	-6.36255e-06	20673.6
21544.7	4.26495	0.667569	4.31688	-8.89602	3.77248	0.362675	-0.0170009	11.0658	0.264629	1	10	0.00524967	0.00121608	0	-8.76548e-06	0.228862	0.0358226	0.231649	8.89602	264.629	1690.65	1711.24	-81.104	0.0000000E+000	0.0000000E+000	0.0000000E+000	81.104	0.0000000E+000	0.0000000E+000	0.0000000E+000	-81.104	0.0000000E+000	0.0000000E+000	0.0000000E+000	-8.89602	0.0000000E+000	0.0000000E+000	0.0000000E+000	8.89602	6.38877	81.104	-2.9676e-06	-6.16578e-06	21332.7
10002.2	4.56713	0.83579	4.64297	-10.3704	4.64748	0.362681	-0.0167605	19.0382	0.61692	1	10	0.00509825	0.00109806	0	-1.36387e-05	0.211861	0.0387708	0.215379	10.3704	616.92	3371.12	3427.11	-79.6295	0.0000000E+000	0.0000000E+000	0.0000000E+000	79.6295	0.0000000E+000	0.0000000E+000	0.0000000E+000	-79.6295	0.0000000E+000	0.0000000E+000	0.0000000E+000	-10.3704	0.0000000E+000	0.0000000E+000	0.0000000E+000	10.3704	5.46444	79.6295	-1.56277e-06	-6.07871e-06	21639.1
4641.49	4.96264	1.10533	5.08425	-12.5565	5.67271	0.362737	-0.000192374	31.0221	1.46623	1	10	0.00524665	0.00103194	0	-1.13286e-05	0.191982	0.0427601	0.196686	12.5565	1466.23	6582.99	6744.3	-77.4435	0.0000000E+000	0.0000000E+000	0.0000000E+000	77.4435	0.0000000E+000	0.0000000E+000	0.0000000E+000	-77.4435	0.0000000E+000	0.0000000E+000	0.0000000E+000	-12.5565	0.0000000E+000	0.0000000E+000	0.0000000E+000	12.5565	4.48974	77.4435	7.75701e-07	-6.97811e-08	1.88559e+06
2155.69	5.47787	1.48355	5.67521	-15.1537	6.6067	0.362749	0.000159823	49.7658	3.40074	1	10	0.00527863	0.00093012	0	-1.14984e-05	0.170078	0.0460616	0.176205	15.1537	3400.74	12556.9	13009.2	-74.8463	0.0000000E+000	0.0000000E+000	0.0000000E+000	74.8463	0.0000000E+000	0.0000000E+000	0.0000000E+000	-74.8463	0.0000000E+000	0.0000000E+000	0.0000000E+000	-15.1537	0.0000000E+000	0.0000000E+000	0.0000000E+000	15.1537	3.6924	74.8463	-1.49469e-07	5.79755e-08	2.26969e+06
1000.32	6.17416	2.0175	6.49543	-18.0956	7.54367	0.362744	0.000519466	78.862	7.60815	1	10	0.00524265	0.000807129	0	-1.13367e-05	0.14634	0.0478187	0.153954	18.0956	7608.15	23283.3	24494.8	-71.9044	0.0000000E+000	0.0000000E+000	0.0000000E+000	71.9044	0.0000000E+000	0.0000000E+000	0.0000000E+000	-71.9044	0.0000000E+000	0.0000000E+000	0.0000000E+000	-18.0956	0.0000000E+000	0.0000000E+000	0.0000000E+000	18.0956	3.06031	71.9044	-5.36433e-07	1.88433e-07	698301
463.961	7.06614	2.86085	7.62331	-22.0414	8.4782	0.362742	9.27264e-05	119.907	16.8868	1	10	0.00521588	0.000684201	0	-1.145e-05	0.121589	0.0492276	0.131177	22.0414	16886.8	41709.4	44998.2	-67.9586	0.0000000E+000	0.0000000E+000	0.0000000E+000	67.9586	0.0000000E+000	0.0000000E+000	0.0000000E+000	-67.9586	0.0000000E+000	0.0000000E+000	0.0000000E+000	-22.0414	0.0000000E+000	0.0000000E+000	0.0000000E+000	22.0414	2.46994	67.9586	-1.05793e-07	3.36358e-08	3.91196e+06
215.345	8.32427	4.25768	9.34993	-27.0887	9.41243	0.362731	-0.000483088	173.586	35.995	1	10	0.00519191	0.000555288	0	-1.21645e-05	0.0952202	0.048703	0.106953	27.0887	35995	70374.5	79045.6	-62.9113	0.0000000E+000	0.0000000E+000	0.0000000E+000	62.9113	0.0000000E+000	0.0000000E+000	0.0000000E+000	-62.9113	0.0000000E+000	0.0000000E+000	0.0000000E+000	-27.0887	0.0000000E+000	0.0000000E+000	0.0000000E+000	27.0887	1.95512	62.9113	-2.63663e-07	-1.75231e-07	750860
100.032	10.5742	6.49673	12.4105	-31.5665	10.3437	0.362739	0.000463551	244.899	67.1117	1	10	0.00519456	0.000418563	0	-1.14852e-05	0.0686543	0.042181	0.080577	31.5665	67111.7	109232	128201	-58.4335	0.0000000E+000	0.0000000E+000	0.0000000E+000	58.4335	0.0000000E+000	0.0000000E+000	0.0000000E+000	-58.4335	0.0000000E+000	0.0000000E+000	0.0000000E+000	-31.5665	0.0000000E+000	0.0000000E+000	0.0000000E+000	31.5665	1.62761	58.4335	4.68502e-07	1.68148e-07	782522
46.4415	14.8201	9.0097	17.3439	-31.2969	11.2776	0.362719	-0.00242297	380.367	102.643	1	10	0.00518738	0.00029909	0	-1.10293e-05	0.0492673	0.0299514	0.0576572	31.2969	102643	168839	197591	-58.7031	0.0000000E+000	0.0000000E+000	0.0000000E+000	58.7031	0.0000000E+000	0.0000000E+000	0.0000000E+000	-58.7031	0.0000000E+000	0.0000000E+000	0.0000000E+000	-31.2969	0.0000000E+000	0.0000000E+000	0.0000000E+000	31.2969	1.64491	58.7031	-8.56143e-08	-8.78856e-07	149700
21.5517	20.9522	9.82939	23.1433	-25.1329	12.4074	0.362745	-0.00628359	751.297	135.523	1	11	0.00518075	0.000223855	0	-1.17406e-05	0.0391182	0.0183517	0.043209	25.1329	135523	288880	319090	-64.8671	0.0000000E+000	0.0000000E+000	0.0000000E+000	64.8671	0.0000000E+000	0.0000000E+000	0.0000000E+000	-64.8671	0.0000000E+000	0.0000000E+000	0.0000000E+000	-25.1329	0.0000000E+000	0.0000000E+000	0.0000000E+000	25.1329	2.13159	64.8671	-2.41175e-08	-2.27934e-06	57728.9
10.0032	26.4921	8.27921	27.7556	-17.3549	13.3537	0.362754	-0.00516194	1921.73	170.989	1	11	0.00518809	0.00018692	0	-1.45225e-05	0.0343885	0.010747	0.0360287	17.3549	170989	547136	573232	-72.6451	0.0000000E+000	0.0000000E+000	0.0000000E+000	72.6451	0.0000000E+000	0.0000000E+000	0.0000000E+000	-72.6451	0.0000000E+000	0.0000000E+000	0.0000000E+000	-17.3549	0.0000000E+000	0.0000000E+000	0.0000000E+000	17.3549	3.19983	72.6451	-2.00902e-06	-1.87251e-06	70274.6
4.63925	30.0265	5.88445	30.5977	-11.088	14.2133	0.362763	-0.00440934	5829.97	215.626	1	11	0.00518549	0.000169474	0	-1.66232e-05	0.0320721	0.00628534	0.0326822	11.088	215626	1.10027e+06	1.1212e+06	-78.912	0.0000000E+000	0.0000000E+000	0.0000000E+000	78.912	0.0000000E+000	0.0000000E+000	0.0000000E+000	-78.912	0.0000000E+000	0.0000000E+000	0.0000000E+000	-11.088	0.0000000E+000	0.0000000E+000	0.0000000E+000	11.088	5.10269	78.912	-2.97372e-06	-1.59954e-06	82271.4
2.15577	32.0901	4.03018	32.3422	-7.15827	15.9377	0.36278	-0.00313674	18318.7	284.449	1	11	0.00518263	0.000160244	0	-1.37097e-05	0.0306784	0.00385288	0.0309194	7.15827	284449	2.26491e+06	2.2827e+06	-82.8417	0.0000000E+000	0.0000000E+000	0.0000000E+000	82.8417	0.0000000E+000	0.0000000E+000	0.0000000E+000	-82.8417	0.0000000E+000	0.0000000E+000	0.0000000E+000	-7.15827	0.0000000E+000	0.0000000E+000	0.0000000E+000	7.15827	7.96245	82.8417	2.35794e-06	-1.13795e-06	115655
1.00006	33.3447	2.86134	33.4673	-4.90458	20.6021	0.362775	-0.00281786	55618.9	406.557	1	12	0.00518727	0.000154995	0	-2.10891e-05	0.0297705	0.00255463	0.0298799	4.90458	406557	4.73782e+06	4.75523e+06	-85.0954	0.0000000E+000	0.0000000E+000	0.0000000E+000	85.0954	0.0000000E+000	0.0000000E+000	0.0000000E+000	-85.0954	0.0000000E+000	0.0000000E+000	0.0000000E+000	-4.90458	0.0000000E+000	0.0000000E+000	0.0000000E+000	4.90458	11.6535	85.0954	-7.01511e-06	-1.02225e-06	128741
0.464091	34.1835	2.41895	34.269	-4.0477	28.2868	0.362771	-0.00307283	141772	706.383	1	12	0.00518713	0.000151365	0	-3.87542e-05	0.0291081	0.00205979	0.0291809	4.0477	706383	9.98231e+06	1.00073e+07	-85.9523	0.0000000E+000	0.0000000E+000	0.0000000E+000	85.9523	0.0000000E+000	0.0000000E+000	0.0000000E+000	-85.9523	0.0000000E+000	0.0000000E+000	0.0000000E+000	-4.0477	0.0000000E+000	0.0000000E+000	0.0000000E+000	4.0477	14.1316	85.9523	-8.4504e-06	-1.11474e-06	118058
0.215268	34.9597	2.79121	35.071	-4.56485	44.7667	0.362776	-0.00302514	264880	1677.79	1	12	0.00518596	0.00014787	0	-3.29808e-05	0.0284231	0.00226932	0.0285136	4.56485	1.67779e+06	2.10142e+07	2.10811e+07	-85.4351	0.0000000E+000	0.0000000E+000	0.0000000E+000	85.4351	0.0000000E+000	0.0000000E+000	0.0000000E+000	-85.4351	0.0000000E+000	0.0000000E+000	0.0000000E+000	-4.56485	0.0000000E+000	0.0000000E+000	0.0000000E+000	4.56485	12.5249	85.4351	8.02564e-06	-1.09745e-06	119920
0.0999041	36.1829	3.97741	36.4009	-6.27306	80.1721	0.362777	-0.00141194	400531	4782.05	1	12	0.00518727	0.000142504	0	4.67223e-06	0.0273074	0.00300177	0.0274719	6.27306	4.78205e+06	4.35028e+07	4.37648e+07	-83.7269	0.0000000E+000	0.0000000E+000	0.0000000E+000	83.7269	0.0000000E+000	0.0000000E+000	0.0000000E+000	-83.7269	0.0000000E+000	0.0000000E+000	0.0000000E+000	-6.27306	0.0000000E+000	0.0000000E+000	0.0000000E+000	6.27306	9.0971	83.7269	1.97699e-05	-5.12219e-07	256935
0.0464052	38.1726	6.49498	38.7212	-9.65625	156.408	0.36277	0.000114044	528051	14857	1	12	0.00518593	0.00013393	0	-2.7317e-05	0.0254597	0.0043319	0.0258256	9.65625	1.4857e+07	8.73186e+07	8.85736e+07	-80.3438	0.0000000E+000	0.0000000E+000	0.0000000E+000	80.3438	0.0000000E+000	0.0000000E+000	0.0000000E+000	-80.3438	0.0000000E+000	0.0000000E+000	0.0000000E+000	-9.65625	0.0000000E+000	0.0000000E+000	0.0000000E+000	9.65625	5.87726	80.3438	-3.8257e-05	4.13716e-08	3.18097e+06
0.0215268	41.1821	10.1646	42.418	-13.8647	320.638	0.362769	-0.000245963	727360	41766.9	1	12	0.00518664	0.000122275	0	-0.00029421	0.022888	0.00564925	0.0235749	13.8647	4.17669e+07	1.69219e+08	1.74297e+08	-76.1353	0.0000000E+000	0.0000000E+000	0.0000000E+000	76.1353	0.0000000E+000	0.0000000E+000	0.0000000E+000	-76.1353	0.0000000E+000	0.0000000E+000	0.0000000E+000	-13.8647	0.0000000E+000	0.0000000E+000	0.0000000E+000	13.8647	4.05151	76.1353	-0.000161776	-8.92276e-08	1.47489e+06
0.0146812	43.3065	12.9544	45.2025	-16.6536	463.834	0.362767	-0.000699636	836840	68730.7	1	12	0.00518764	0.000114764	0	-0.000447203	0.0211947	0.00634003	0.0221227	16.6536	6.87307e+07	2.29767e+08	2.39826e+08	-73.3464	0.0000000E+000	0.0000000E+000	0.0000000E+000	73.3464	0.0000000E+000	0.0000000E+000	0.0000000E+000	-73.3464	0.0000000E+000	0.0000000E+000	0.0000000E+000	-16.6536	0.0000000E+000	0.0000000E+000	0.0000000E+000	16.6536	3.343	73.3464	-0.000152992	-2.53805e-07	518508

0.0100092	45.4822	16.7696	48.4752	-20.2393	673.854	0.362761	-0.000807301	948199	113476	1	12	0.00518884	0.000107041	0	-0.000468825	0.0193554	0.00713647	0.0206291	20.2393	1.13476e+08	3.07768e+08	3.28022e+08	-69.7607	0.0000000E+000	0.0000000E+000	0.0000000E+000	69.7607	0.0000000E+000	0.0000000E+000	0.0000000E+000	-69.7607	0.0000000E+000	0.0000000E+000	0.0000000E+000	-20.2393	0.0000000E+000	0.0000000E+000	0.0000000E+000	20.2393	2.71218	69.7607	-2.16225e-05	-2.92858e-07	449350