File: txt/14958_R243_UA603_SOC00_C05.mpt
EC-Lab ASCII FILE
Nb header lines : 63

Potentio Electrochemical Impedance Spectroscopy

Run on channel : 5 (SN 65912)
User :
CE vs. WE compliance from -10 V to 10 V
Electrode connection : standard
Potential control : Ewe
Ewe ctrl range : min = -10.00 V, max = 10.00 V
Safety Limits :
	Do not start on E overload
Acquisition started on : 09/22/2025 10:44:05.538
Loaded Setting File :  C:\Users\Celltest\OneDrive - store-dot.com\Documents\EC-Lab\Data\Gyutae\17740_R277_UA674_SOC00_C04.mpr
Saved on :
	File : 14958_R243_UA603_SOC00_C05.mpr
	Directory : C:\Users\Celltest\OneDrive - store-dot.com\Documents\EC-Lab\Data\Anna\
	Host : 169.254.61.224
Device : VMP-3e (SN .003165)
Address : USB
EC-LAB for windows v11.62 (software)
Internet server v27.00 (firmware)
Command interpretor v12.03 (firmware)
Electrode material :
Initial state :
Electrolyte :
Comments :
Electrode surface area : 0.001 cm²
Characteristic mass : 0.001 g
Equivalent Weight : 0.000 g/eq.
Density : 0.000 g/cm3
Volume (V) : 0.001 cm³
Cycle Definition : Charge/Discharge alternance
Mode                Single sine
E (V)               0.0000
vs.                 Eoc
tE (h:m:s)          0:00:0.0000
record              0
dI                  0.000
unit dI             mA
dt (s)              0.000
fi                  100.000
unit fi             kHz
ff                  10.000
unit ff             mHz
Nd                  6
Points              per decade
spacing             Logarithmic
Va (mV)             5.0
pw                  0.10
Na                  2
corr                0
E range min (V)     -10.000
E range max (V)     10.000
I Range             Auto
Bandwidth           5
nc cycles           0
goto Ns'            0
nr cycles           0
inc. cycle          0

freq/Hz	Re(Z)/Ohm	-Im(Z)/Ohm	|Z|/Ohm	Phase(Z)/deg	time/s	<Ewe>/V	<I>/mA	Cs/µF	Cp/µF	cycle number	I Range	|Ewe|/V	|I|/A	Ns	(Q-Qo)/mA.h	Re(Y)/Ohm-1	Im(Y)/Ohm-1	|Y|/Ohm-1	Phase(Y)/deg	Re(C)/nF	Im(C)/nF	|C|/nF	Phase(C)/deg	Re(M)	Im(M)	|M|	Phase(M)/deg	Re(Permittivity)	Im(Permittivity)	|Permittivity|	Phase(Permittivity)/deg	Re(Resistivity)/Ohm.cm	Im(Resistivity)/Ohm.cm	|Resistivity|/Ohm.cm	Phase(Resistivity)/deg	Re(Conductivity)/mS/cm	Im(Conductivity)/mS/cm	|Conductivity|/mS/cm	Phase(Conductivity)/deg	Tan(Delta)	Loss Angle(Delta)/deg	dq/mA.h	Pwe/W	Rwe/Ohm
100004	3.47937	1.52319	3.79818	-23.6427	1.41847	0.345792	0.0943603	1.04484	0.168038	1	10	0.00494132	0.00130097	0	3.96996e-05	0.241185	0.105585	0.263284	23.6427	168.038	383.844	419.014	-66.3573	0.0000000E+000	0.0000000E+000	0.0000000E+000	66.3573	0.0000000E+000	0.0000000E+000	0.0000000E+000	-66.3573	0.0000000E+000	0.0000000E+000	0.0000000E+000	-23.6427	0.0000000E+000	0.0000000E+000	0.0000000E+000	23.6427	2.28427	66.3573	3.96996e-05	3.2629e-05	3664.59
46420.4	1.47688	0.265752	1.5006	-10.2007	2.60648	0.345775	0.118978	12.9014	0.404632	1	9	0.00480939	0.00320499	0	7.36623e-05	0.655868	0.118018	0.666401	10.2007	404.632	2248.68	2284.8	-79.7993	0.0000000E+000	0.0000000E+000	0.0000000E+000	79.7993	0.0000000E+000	0.0000000E+000	0.0000000E+000	-79.7993	0.0000000E+000	0.0000000E+000	0.0000000E+000	-10.2007	0.0000000E+000	0.0000000E+000	0.0000000E+000	10.2007	5.55736	79.7993	9.56589e-06	4.11398e-05	2906.21
21544.7	0.997713	0.220411	1.02177	-12.4575	3.34049	0.345772	0.106931	33.5155	1.55958	1	9	0.00523074	0.0051193	0	8.50076e-05	0.955652	0.21112	0.978695	12.4575	1559.58	7059.6	7229.82	-77.5425	0.0000000E+000	0.0000000E+000	0.0000000E+000	77.5425	0.0000000E+000	0.0000000E+000	0.0000000E+000	-77.5425	0.0000000E+000	0.0000000E+000	0.0000000E+000	-12.4575	0.0000000E+000	0.0000000E+000	0.0000000E+000	12.4575	4.52659	77.5425	5.36296e-06	3.69738e-05	3233.59
10002.2	0.914014	0.411204	1.00225	-24.2224	4.21448	0.345771	0.0614987	38.696	6.51368	1	9	0.00540429	0.00539214	0	0.000115429	0.90991	0.409357	0.997752	24.2224	6513.67	14478.4	15876.2	-65.7776	0.0000000E+000	0.0000000E+000	0.0000000E+000	65.7776	0.0000000E+000	0.0000000E+000	0.0000000E+000	-65.7776	0.0000000E+000	0.0000000E+000	0.0000000E+000	-24.2224	0.0000000E+000	0.0000000E+000	0.0000000E+000	24.2224	2.22278	65.7776	1.04533e-05	2.12645e-05	5622.41
4641.49	0.942553	0.854752	1.2724	-42.2032	5.68668	0.345803	0.0802675	40.1165	18.1032	1	9	0.00516941	0.00406271	0	0.000134635	0.582179	0.527948	0.785915	42.2032	18103.2	19962.7	26948.8	-47.7968	0.0000000E+000	0.0000000E+000	0.0000000E+000	47.7968	0.0000000E+000	0.0000000E+000	0.0000000E+000	-47.7968	0.0000000E+000	0.0000000E+000	0.0000000E+000	-42.2032	0.0000000E+000	0.0000000E+000	0.0000000E+000	42.2032	1.10272	47.7968	2.19763e-05	2.77567e-05	4308.13
2155.69	1.20801	1.81012	2.17619	-56.2823	6.84368	0.345794	0.0749981	40.7875	28.2194	1	9	0.00507275	0.00233103	0	0.000161019	0.25508	0.38222	0.459519	56.2823	28219.4	18832.6	33926.4	-33.7177	0.0000000E+000	0.0000000E+000	0.0000000E+000	33.7177	0.0000000E+000	0.0000000E+000	0.0000000E+000	-33.7177	0.0000000E+000	0.0000000E+000	0.0000000E+000	-56.2823	0.0000000E+000	0.0000000E+000	0.0000000E+000	56.2823	0.667364	33.7177	7.65419e-06	2.59338e-05	4610.7
1000.32	2.34239	3.25552	4.01064	-54.2645	8.47971	0.345796	0.0808759	48.872	32.2014	1	10	0.00506771	0.00126357	0	0.000189692	0.145624	0.202392	0.249337	54.2645	32201.4	23169.3	39670.5	-35.7355	0.0000000E+000	0.0000000E+000	0.0000000E+000	35.7355	0.0000000E+000	0.0000000E+000	0.0000000E+000	-35.7355	0.0000000E+000	0.0000000E+000	0.0000000E+000	-54.2645	0.0000000E+000	0.0000000E+000	0.0000000E+000	54.2645	0.719512	35.7355	1.72883e-05	2.79666e-05	4275.63
463.961	4.51268	4.41248	6.31144	-44.3567	9.41421	0.345781	0.0769235	77.7422	37.9983	1	10	0.00463124	0.000733785	0	0.000209934	0.113287	0.110771	0.158442	44.3567	37998.3	38861.3	54351.4	-45.6433	0.0000000E+000	0.0000000E+000	0.0000000E+000	45.6433	0.0000000E+000	0.0000000E+000	0.0000000E+000	-45.6433	0.0000000E+000	0.0000000E+000	0.0000000E+000	-44.3567	0.0000000E+000	0.0000000E+000	0.0000000E+000	44.3567	1.02271	45.6433	9.91935e-06	2.65987e-05	4495.12
215.345	6.83719	5.22998	8.60812	-37.4135	10.3484	0.34579	0.076864	141.314	52.1638	1	10	0.00454639	0.000528151	0	0.000228551	0.09227	0.0705802	0.116169	37.4135	52163.8	68194.1	85857.4	-52.5865	0.0000000E+000	0.0000000E+000	0.0000000E+000	52.5865	0.0000000E+000	0.0000000E+000	0.0000000E+000	-52.5865	0.0000000E+000	0.0000000E+000	0.0000000E+000	-37.4135	0.0000000E+000	0.0000000E+000	0.0000000E+000	37.4135	1.30731	52.5865	9.00613e-06	2.65788e-05	4498.73
100.032	9.64733	6.45127	11.6056	-33.7711	11.2797	0.345795	0.0751214	246.624	76.2064	1	10	0.00452243	0.000389677	0	0.000247838	0.0716263	0.0478972	0.0861653	33.7711	76206.4	113960	137093	-56.2289	0.0000000E+000	0.0000000E+000	0.0000000E+000	56.2289	0.0000000E+000	0.0000000E+000	0.0000000E+000	-56.2289	0.0000000E+000	0.0000000E+000	0.0000000E+000	-33.7711	0.0000000E+000	0.0000000E+000	0.0000000E+000	33.7711	1.49542	56.2289	9.93617e-06	2.59766e-05	4603.15
46.4415	11.6904	6.5221	13.3867	-29.1573	12.2136	0.345789	0.0799246	525.443	124.726	1	10	0.004505	0.000336529	0	0.000265961	0.0652355	0.0363951	0.0747012	29.1573	124726	223562	256001	-60.8427	0.0000000E+000	0.0000000E+000	0.0000000E+000	60.8427	0.0000000E+000	0.0000000E+000	0.0000000E+000	-60.8427	0.0000000E+000	0.0000000E+000	0.0000000E+000	-29.1573	0.0000000E+000	0.0000000E+000	0.0000000E+000	29.1573	1.79242	60.8427	8.97372e-06	2.7637e-05	4326.44
21.5517	18.0446	7.992	19.7352	-23.8887	13.5564	0.345794	0.0777747	924.022	151.534	1	11	0.00500395	0.000253555	0	0.000293483	0.0463301	0.0205197	0.0506708	23.8887	151534	342138	374194	-66.1113	0.0000000E+000	0.0000000E+000	0.0000000E+000	66.1113	0.0000000E+000	0.0000000E+000	0.0000000E+000	-66.1113	0.0000000E+000	0.0000000E+000	0.0000000E+000	-23.8887	0.0000000E+000	0.0000000E+000	0.0000000E+000	23.8887	2.25783	66.1113	9.83352e-06	2.6894e-05	4446.1
10.0032	21.746	5.78931	22.5035	-14.9077	14.5027	0.345798	0.0724892	2748.24	181.89	1	11	0.00499648	0.000222032	0	0.000310153	0.0429419	0.0114322	0.0444376	14.9077	181890	683223	707020	-75.0923	0.0000000E+000	0.0000000E+000	0.0000000E+000	75.0923	0.0000000E+000	0.0000000E+000	0.0000000E+000	-75.0923	0.0000000E+000	0.0000000E+000	0.0000000E+000	-14.9077	0.0000000E+000	0.0000000E+000	0.0000000E+000	14.9077	3.75624	75.0923	7.51764e-06	2.50666e-05	4770.34
4.63925	24.2427	4.09474	24.5861	-9.58712	15.3623	0.345799	0.071314	8378.1	232.391	1	11	0.00500333	0.000203503	0	0.000325191	0.0401054	0.00677404	0.0406734	9.58712	232391	1.37586e+06	1.39535e+06	-80.4129	0.0000000E+000	0.0000000E+000	0.0000000E+000	80.4129	0.0000000E+000	0.0000000E+000	0.0000000E+000	-80.4129	0.0000000E+000	0.0000000E+000	0.0000000E+000	-9.58712	0.0000000E+000	0.0000000E+000	0.0000000E+000	9.58712	5.92045	80.4129	6.65938e-06	2.46603e-05	4848.97
2.15577	25.3831	2.69444	25.5257	-6.05932	17.0878	0.345817	0.0713707	27399.9	305.304	1	11	0.005002	0.000195959	0	0.00036442	0.0389574	0.00413537	0.0391762	6.05932	305304	2.87612e+06	2.89228e+06	-83.9407	0.0000000E+000	0.0000000E+000	0.0000000E+000	83.9407	0.0000000E+000	0.0000000E+000	0.0000000E+000	-83.9407	0.0000000E+000	0.0000000E+000	0.0000000E+000	-6.05932	0.0000000E+000	0.0000000E+000	0.0000000E+000	6.05932	9.42053	83.9407	2.42557e-05	2.46812e-05	4845.37
1.00006	26.3644	2.21127	26.457	-4.79436	21.7513	0.345816	0.0642916	71970	502.752	1	12	0.00500181	0.000189055	0	0.000446994	0.037665	0.00315909	0.0377972	4.79436	502752	5.99419e+06	6.01523e+06	-85.2056	0.0000000E+000	0.0000000E+000	0.0000000E+000	85.2056	0.0000000E+000	0.0000000E+000	0.0000000E+000	-85.2056	0.0000000E+000	0.0000000E+000	0.0000000E+000	-4.79436	0.0000000E+000	0.0000000E+000	0.0000000E+000	4.79436	11.9228	85.2056	5.31812e-05	2.22331e-05	5378.86
0.464091	26.9183	2.05627	26.9967	-4.3683	29.4356	0.345823	0.0573667	166777	967.555	1	12	0.00499798	0.000185133	0	0.000556961	0.0369339	0.00282136	0.0370415	4.3683	967554	1.26661e+07	1.2703e+07	-85.6317	0.0000000E+000	0.0000000E+000	0.0000000E+000	85.6317	0.0000000E+000	0.0000000E+000	0.0000000E+000	-85.6317	0.0000000E+000	0.0000000E+000	0.0000000E+000	-4.3683	0.0000000E+000	0.0000000E+000	0.0000000E+000	4.3683	13.0908	85.6317	6.5258e-05	1.98387e-05	6028.3
0.215268	27.5966	2.48983	27.7086	-5.1554	45.9149	0.345822	0.0447408	296942	2397.62	1	12	0.00500037	0.000180462	0	0.00079736	0.0359438	0.00324294	0.0360898	5.1554	2.39762e+06	2.65745e+07	2.66824e+07	-84.8446	0.0000000E+000	0.0000000E+000	0.0000000E+000	84.8446	0.0000000E+000	0.0000000E+000	0.0000000E+000	-84.8446	0.0000000E+000	0.0000000E+000	0.0000000E+000	-5.1554	0.0000000E+000	0.0000000E+000	0.0000000E+000	5.1554	11.0837	84.8446	0.000142885	1.54724e-05	7729.46
0.0999041	28.8515	4.01424	29.1294	-7.92099	81.322	0.345817	0.0279437	396856	7536.64	1	12	0.00500092	0.00017168	0	0.0011997	0.0340021	0.00473087	0.0343296	7.92099	7.53664e+06	5.41679e+07	5.46897e+07	-82.079	0.0000000E+000	0.0000000E+000	0.0000000E+000	82.079	0.0000000E+000	0.0000000E+000	0.0000000E+000	-82.079	0.0000000E+000	0.0000000E+000	0.0000000E+000	-7.92099	0.0000000E+000	0.0000000E+000	0.0000000E+000	7.92099	7.18727	82.079	0.000217829	9.66341e-06	12375.5
0.0464052	30.1198	5.95313	30.7025	-11.1803	157.557	0.345823	0.0199677	576114	21659.6	1	12	0.0049998	0.000162846	0	0.00166659	0.0319525	0.00631534	0.0325706	11.1803	2.16596e+07	1.09587e+08	1.11707e+08	-78.8197	0.0000000E+000	0.0000000E+000	0.0000000E+000	78.8197	0.0000000E+000	0.0000000E+000	0.0000000E+000	-78.8197	0.0000000E+000	0.0000000E+000	0.0000000E+000	-11.1803	0.0000000E+000	0.0000000E+000	0.0000000E+000	11.1803	5.0595	78.8197	0.000221885	6.9053e-06	17319.1
0.0215268	33.2157	9.64532	34.5878	-16.1925	321.787	0.345829	0.00984254	766521	59609.1	1	12	0.00499748	0.000144487	0	0.0019411	0.027765	0.00806253	0.028912	16.1925	5.96091e+07	2.05276e+08	2.13756e+08	-73.8075	0.0000000E+000	0.0000000E+000	0.0000000E+000	73.8075	0.0000000E+000	0.0000000E+000	0.0000000E+000	-73.8075	0.0000000E+000	0.0000000E+000	0.0000000E+000	-16.1925	0.0000000E+000	0.0000000E+000	0.0000000E+000	16.1925	3.44371	73.8075	8.25319e-05	3.40383e-06	35136.1
0.0100092	37.3115	15.464	40.3892	-22.5118	675.002	0.345825	0.00158616	1.02826e+06	150735	1	12	0.0049996	0.000123786	0	0.00211973	0.0228725	0.00947961	0.0247591	22.5118	1.50735e+08	3.63693e+08	3.93693e+08	-67.4882	0.0000000E+000	0.0000000E+000	0.0000000E+000	67.4882	0.0000000E+000	0.0000000E+000	0.0000000E+000	-67.4882	0.0000000E+000	0.0000000E+000	0.0000000E+000	-22.5118	0.0000000E+000	0.0000000E+000	0.0000000E+000	22.5118	2.41281	67.4882	0.000116741	5.48534e-07	218027