File: txt/16204_R266_UA637_SOC00_C07.mpt
EC-Lab ASCII FILE
Nb header lines : 63

Potentio Electrochemical Impedance Spectroscopy

Run on channel : 7 (SN 66126)
User :
CE vs. WE compliance from -10 V to 10 V
Electrode connection : standard
Potential control : Ewe
Ewe ctrl range : min = -10.00 V, max = 10.00 V
Safety Limits :
	Do not start on E overload
Acquisition started on : 09/15/2025 10:19:04.385
Loaded Setting File :  C:\Users\Celltest\OneDrive - store-dot.com\Documents\EC-Lab\Data\Charmaine\R279\17382_C01.mpr
Saved on :
	File : 16204 R266 G001- 26 half cell_C07.mpr
	Directory : C:\Users\Celltest\OneDrive - store-dot.com\Documents\EC-Lab\Data\Gyutae\
	Host : 169.254.61.224
Device : VMP-3e (SN .003165)
Address : USB
EC-LAB for windows v11.62 (software)
Internet server v27.00 (firmware)
Command interpretor v12.03 (firmware)
Electrode material :
Initial state :
Electrolyte :
Comments :
Electrode surface area : 0.001 cm²
Characteristic mass : 0.001 g
Equivalent Weight : 0.000 g/eq.
Density : 0.000 g/cm3
Volume (V) : 0.001 cm³
Cycle Definition : Charge/Discharge alternance
Mode                Single sine
E (V)               0.0000
vs.                 Eoc
tE (h:m:s)          0:00:0.0000
record              0
dI                  0.000
unit dI             mA
dt (s)              0.000
fi                  100.000
unit fi             kHz
ff                  10.000
unit ff             mHz
Nd                  6
Points              per decade
spacing             Logarithmic
Va (mV)             5.0
pw                  0.10
Na                  2
corr                0
E range min (V)     -10.000
E range max (V)     10.000
I Range             Auto
Bandwidth           5
nc cycles           0
goto Ns'            0
nr cycles           0
inc. cycle          0

freq/Hz	Re(Z)/Ohm	-Im(Z)/Ohm	|Z|/Ohm	Phase(Z)/deg	time/s	<Ewe>/V	<I>/mA	Cs/µF	Cp/µF	cycle number	I Range	|Ewe|/V	|I|/A	Ns	(Q-Qo)/mA.h	Re(Y)/Ohm-1	Im(Y)/Ohm-1	|Y|/Ohm-1	Phase(Y)/deg	Re(C)/nF	Im(C)/nF	|C|/nF	Phase(C)/deg	Re(M)	Im(M)	|M|	Phase(M)/deg	Re(Permittivity)	Im(Permittivity)	|Permittivity|	Phase(Permittivity)/deg	Re(Resistivity)/Ohm.cm	Im(Resistivity)/Ohm.cm	|Resistivity|/Ohm.cm	Phase(Resistivity)/deg	Re(Conductivity)/mS/cm	Im(Conductivity)/mS/cm	|Conductivity|/mS/cm	Phase(Conductivity)/deg	Tan(Delta)	Loss Angle(Delta)/deg	dq/mA.h	Pwe/W	Rwe/Ohm
100004	0.889822	0.132441	0.899624	-8.46575	1.9175	0.319163	0.0733996	12.0166	0.260438	1	9	0.00219667	0.00244176	0	1.14494e-05	1.09946	0.163644	1.11158	8.46575	260.438	1749.79	1769.06	-81.5342	0.0000000E+000	0.0000000E+000	0.0000000E+000	81.5342	0.0000000E+000	0.0000000E+000	0.0000000E+000	-81.5342	0.0000000E+000	0.0000000E+000	0.0000000E+000	-8.46575	0.0000000E+000	0.0000000E+000	0.0000000E+000	8.46575	6.71863	81.5342	1.14494e-05	2.34264e-05	4348.29
46420.4	0.945948	0.264966	0.982357	-15.6479	3.21449	0.319242	0.0533853	12.9396	0.941378	1	9	0.00504446	0.00513506	0	1.53964e-05	0.980232	0.274569	1.01796	15.6479	941.378	3360.78	3490.14	-74.3521	0.0000000E+000	0.0000000E+000	0.0000000E+000	74.3521	0.0000000E+000	0.0000000E+000	0.0000000E+000	-74.3521	0.0000000E+000	0.0000000E+000	0.0000000E+000	-15.6479	0.0000000E+000	0.0000000E+000	0.0000000E+000	15.6479	3.57007	74.3521	-7.91607e-06	1.70428e-05	5979.95
21544.7	1.08092	0.341481	1.13358	-17.5322	4.23048	0.319254	0.0521751	21.6328	1.96311	1	9	0.00523323	0.00461656	0	3.94386e-05	0.841184	0.265744	0.882162	17.5322	1963.11	6213.99	6516.71	-72.4678	0.0000000E+000	0.0000000E+000	0.0000000E+000	72.4678	0.0000000E+000	0.0000000E+000	0.0000000E+000	-72.4678	0.0000000E+000	0.0000000E+000	0.0000000E+000	-17.5322	0.0000000E+000	0.0000000E+000	0.0000000E+000	17.5322	3.16539	72.4678	1.54529e-05	1.66571e-05	6118.89
10002.2	1.24349	0.443506	1.32021	-19.6294	5.10549	0.31925	0.0465711	35.8776	4.04889	1	9	0.00519442	0.00393454	0	4.97274e-05	0.713434	0.254456	0.757454	19.6294	4048.89	11352.1	12052.6	-70.3706	0.0000000E+000	0.0000000E+000	0.0000000E+000	70.3706	0.0000000E+000	0.0000000E+000	0.0000000E+000	-70.3706	0.0000000E+000	0.0000000E+000	0.0000000E+000	-19.6294	0.0000000E+000	0.0000000E+000	0.0000000E+000	19.6294	2.80377	70.3706	4.69696e-06	1.48678e-05	6855.12
4641.49	1.45882	0.580607	1.57012	-21.7024	5.95469	0.319202	0.0262401	59.0583	8.07572	1	9	0.00509138	0.00324267	0	5.90498e-05	0.59175	0.235515	0.636895	21.7024	8075.72	20290.9	21838.9	-68.2976	0.0000000E+000	0.0000000E+000	0.0000000E+000	68.2976	0.0000000E+000	0.0000000E+000	0.0000000E+000	-68.2976	0.0000000E+000	0.0000000E+000	0.0000000E+000	-21.7024	0.0000000E+000	0.0000000E+000	0.0000000E+000	21.7024	2.51258	68.2976	6.20213e-06	8.37591e-06	12164.6
2155.69	1.70575	0.778038	1.87481	-24.519	6.88869	0.319201	0.0211016	94.8928	16.3426	1	9	0.00489975	0.00261347	0	6.52743e-05	0.485288	0.221353	0.533387	24.519	16342.6	35828.9	39380.1	-65.481	0.0000000E+000	0.0000000E+000	0.0000000E+000	65.481	0.0000000E+000	0.0000000E+000	0.0000000E+000	-65.481	0.0000000E+000	0.0000000E+000	0.0000000E+000	-24.519	0.0000000E+000	0.0000000E+000	0.0000000E+000	24.519	2.19237	65.481	4.84744e-06	6.73564e-06	15126.9
1000.32	1.9924	1.13228	2.29166	-29.6094	7.82468	0.319211	0.02449	140.517	34.303	1	9	0.00479822	0.00209377	0	7.10964e-05	0.379381	0.215601	0.436365	29.6094	34303	60361.1	69427.4	-60.3906	0.0000000E+000	0.0000000E+000	0.0000000E+000	60.3906	0.0000000E+000	0.0000000E+000	0.0000000E+000	-60.3906	0.0000000E+000	0.0000000E+000	0.0000000E+000	-29.6094	0.0000000E+000	0.0000000E+000	0.0000000E+000	29.6094	1.75964	60.3906	1.46749e-06	7.81748e-06	13034.3
463.961	2.39062	1.84376	3.01902	-37.6412	9.01321	0.319241	-0.00923726	186.052	69.3922	1	10	0.00482736	0.00159898	0	7.50996e-05	0.262287	0.202289	0.331233	37.6412	69392.1	89973.8	113625	-52.3588	0.0000000E+000	0.0000000E+000	0.0000000E+000	52.3588	0.0000000E+000	0.0000000E+000	0.0000000E+000	-52.3588	0.0000000E+000	0.0000000E+000	0.0000000E+000	-37.6412	0.0000000E+000	0.0000000E+000	0.0000000E+000	37.6412	1.2966	52.3588	2.74075e-06	-2.94891e-06	34560.2
215.345	3.16325	3.16399	4.47404	-45.0067	9.94745	0.319234	-0.0101177	233.588	116.821	1	10	0.00476719	0.00106552	0	7.13365e-05	0.158028	0.158065	0.223512	45.0067	116821	116794	165191	-44.9933	0.0000000E+000	0.0000000E+000	0.0000000E+000	44.9933	0.0000000E+000	0.0000000E+000	0.0000000E+000	-44.9933	0.0000000E+000	0.0000000E+000	0.0000000E+000	-45.0067	0.0000000E+000	0.0000000E+000	0.0000000E+000	45.0067	0.999768	44.9933	-1.78976e-06	-3.22991e-06	31552
100.032	4.94067	5.2041	7.17585	-46.4875	10.8787	0.319233	-0.0102368	305.728	160.798	1	10	0.00473529	0.000659892	0	7.00772e-05	0.0959487	0.101064	0.139356	46.4875	160798	152658	221721	-43.5125	0.0000000E+000	0.0000000E+000	0.0000000E+000	43.5125	0.0000000E+000	0.0000000E+000	0.0000000E+000	-43.5125	0.0000000E+000	0.0000000E+000	0.0000000E+000	-46.4875	0.0000000E+000	0.0000000E+000	0.0000000E+000	46.4875	0.949381	43.5125	-4.29303e-07	-3.26794e-06	31184.7
46.4415	8.57782	7.21733	11.2102	-40.0771	11.8126	0.319241	-0.0130103	474.828	196.817	1	10	0.00472893	0.000421841	0	6.85567e-05	0.0682573	0.0574314	0.0892044	40.0771	196817	233917	305703	-49.9229	0.0000000E+000	0.0000000E+000	0.0000000E+000	49.9229	0.0000000E+000	0.0000000E+000	0.0000000E+000	-49.9229	0.0000000E+000	0.0000000E+000	0.0000000E+000	-40.0771	0.0000000E+000	0.0000000E+000	0.0000000E+000	40.0771	1.1885	49.9229	-1.10551e-06	-4.15342e-06	24537.6
21.5517	13.575	7.44663	15.4833	-28.7472	12.9393	0.319258	-0.00278781	991.696	229.389	1	11	0.00473209	0.000305626	0	6.55017e-05	0.0566256	0.0310623	0.0645858	28.7472	229389	418168	476953	-61.2528	0.0000000E+000	0.0000000E+000	0.0000000E+000	61.2528	0.0000000E+000	0.0000000E+000	0.0000000E+000	-61.2528	0.0000000E+000	0.0000000E+000	0.0000000E+000	-28.7472	0.0000000E+000	0.0000000E+000	0.0000000E+000	28.7472	1.82297	61.2528	-1.37907e-06	-8.9003e-07	114520
10.0032	17.4943	5.85472	18.448	-18.5036	13.8857	0.319266	-0.00223373	2717.53	273.709	1	11	0.00472554	0.000256155	0	6.73129e-05	0.0514042	0.0172032	0.0542065	18.5036	273709	817862	862447	-71.4964	0.0000000E+000	0.0000000E+000	0.0000000E+000	71.4964	0.0000000E+000	0.0000000E+000	0.0000000E+000	-71.4964	0.0000000E+000	0.0000000E+000	0.0000000E+000	-18.5036	0.0000000E+000	0.0000000E+000	0.0000000E+000	18.5036	2.98807	71.4964	1.73773e-06	-7.13155e-07	142929
4.63925	19.8284	4.08275	20.2444	-11.6348	14.7463	0.31928	-0.00158871	8402.71	341.755	1	11	0.00472853	0.000233572	0	6.77642e-05	0.0483814	0.00996191	0.0493963	11.6348	341755	1.65978e+06	1.6946e+06	-78.3652	0.0000000E+000	0.0000000E+000	0.0000000E+000	78.3652	0.0000000E+000	0.0000000E+000	0.0000000E+000	-78.3652	0.0000000E+000	0.0000000E+000	0.0000000E+000	-11.6348	0.0000000E+000	0.0000000E+000	0.0000000E+000	11.6348	4.85664	78.3652	3.23584e-06	-5.07244e-07	200968
2.15577	21.2207	2.75877	21.3993	-7.4071	16.4708	0.319278	0.000545579	26761.1	444.768	1	11	0.00473122	0.000221092	0	6.25379e-05	0.0463405	0.00602442	0.0467305	7.4071	444768	3.42121e+06	3.45e+06	-82.5929	0.0000000E+000	0.0000000E+000	0.0000000E+000	82.5929	0.0000000E+000	0.0000000E+000	0.0000000E+000	-82.5929	0.0000000E+000	0.0000000E+000	0.0000000E+000	-7.4071	0.0000000E+000	0.0000000E+000	0.0000000E+000	7.4071	7.69211	82.5929	-4.47632e-06	1.74191e-07	585209
1.00006	22.1421	1.95547	22.2283	-5.04694	21.1352	0.319278	-0.00041957	81384.6	629.839	1	12	0.00473054	0.000212816	0	6.38587e-05	0.0448132	0.00395765	0.0449877	5.04694	629838	7.13179e+06	7.15955e+06	-84.9531	0.0000000E+000	0.0000000E+000	0.0000000E+000	84.9531	0.0000000E+000	0.0000000E+000	0.0000000E+000	-84.9531	0.0000000E+000	0.0000000E+000	0.0000000E+000	-5.04694	0.0000000E+000	0.0000000E+000	0.0000000E+000	5.04694	11.3232	84.9531	4.03484e-06	-1.33959e-07	760965
0.464091	22.8878	1.58714	22.9428	-3.96678	28.8199	0.319278	-0.000205767	216074	1034.04	1	12	0.00473228	0.000206264	0	8.29599e-05	0.0434822	0.00301524	0.0435866	3.96678	1.03405e+06	1.49118e+07	1.49476e+07	-86.0332	0.0000000E+000	0.0000000E+000	0.0000000E+000	86.0332	0.0000000E+000	0.0000000E+000	0.0000000E+000	-86.0332	0.0000000E+000	0.0000000E+000	0.0000000E+000	-3.96678	0.0000000E+000	0.0000000E+000	0.0000000E+000	3.96678	14.4208	86.0332	9.70096e-06	-6.5697e-08	1.55165e+06
0.215268	23.6645	1.66233	23.7228	-4.0182	45.3	0.319289	0.00111218	444757	2183.87	1	12	0.00472976	0.000199376	0	7.10405e-05	0.0420499	0.00295384	0.0421536	4.0182	2.18387e+06	3.1089e+07	3.11656e+07	-85.9818	0.0000000E+000	0.0000000E+000	0.0000000E+000	85.9818	0.0000000E+000	0.0000000E+000	0.0000000E+000	-85.9818	0.0000000E+000	0.0000000E+000	0.0000000E+000	-4.0182	0.0000000E+000	0.0000000E+000	0.0000000E+000	4.0182	14.2357	85.9818	-1.37496e-05	3.55106e-07	287085
0.0999041	24.7348	2.15879	24.8288	-4.98798	80.7066	0.319292	0.000166687	737950	5578.71	1	12	0.00473261	0.000190609	0	-9.05564e-06	0.0401232	0.00350185	0.0402758	4.98798	5.57872e+06	6.39194e+07	6.41624e+07	-85.012	0.0000000E+000	0.0000000E+000	0.0000000E+000	85.012	0.0000000E+000	0.0000000E+000	0.0000000E+000	-85.012	0.0000000E+000	0.0000000E+000	0.0000000E+000	-4.98798	0.0000000E+000	0.0000000E+000	0.0000000E+000	4.98798	11.4577	85.012	-4.71185e-05	5.32218e-08	1.91552e+06
0.0464052	26.2402	3.36602	26.4552	-7.30982	156.942	0.319292	-0.00170271	1.01891e+06	16494.8	1	12	0.00473534	0.000178995	0	-5.9344e-05	0.0374925	0.00480943	0.0377997	7.30982	1.64948e+07	1.28587e+08	1.29641e+08	-82.6902	0.0000000E+000	0.0000000E+000	0.0000000E+000	82.6902	0.0000000E+000	0.0000000E+000	0.0000000E+000	-82.6902	0.0000000E+000	0.0000000E+000	0.0000000E+000	-7.30982	0.0000000E+000	0.0000000E+000	0.0000000E+000	7.30982	7.79562	82.6902	-6.0847e-06	-5.43662e-07	187520
0.0215268	28.0451	5.47387	28.5743	-11.0442	321.173	0.319296	-0.000804001	1.35066e+06	49565.9	1	12	0.00473457	0.000165693	0	0.000205623	0.0343483	0.00670412	0.0349964	11.0442	4.95659e+07	2.53949e+08	2.58741e+08	-78.9558	0.0000000E+000	0.0000000E+000	0.0000000E+000	78.9558	0.0000000E+000	0.0000000E+000	0.0000000E+000	-78.9558	0.0000000E+000	0.0000000E+000	0.0000000E+000	-11.0442	0.0000000E+000	0.0000000E+000	0.0000000E+000	11.0442	5.12346	78.9558	0.000187949	-2.56714e-07	397134
0.0100092	30.4883	9.45519	31.9208	-17.23	674.39	0.319291	0.00102491	1.68171e+06	147552	1	12	0.00473207	0.000148244	0	0.000659494	0.0299217	0.00927947	0.0313275	17.23	1.47552e+08	4.75782e+08	4.98136e+08	-72.77	0.0000000E+000	0.0000000E+000	0.0000000E+000	72.77	0.0000000E+000	0.0000000E+000	0.0000000E+000	-72.77	0.0000000E+000	0.0000000E+000	0.0000000E+000	-17.23	0.0000000E+000	0.0000000E+000	0.0000000E+000	17.23	3.2245	72.77	0.000195882	3.27244e-07	311531