File: txt/16435_R270_UA640_SOC00_C06.mpt
EC-Lab ASCII FILE
Nb header lines : 63

Potentio Electrochemical Impedance Spectroscopy

Run on channel : 6 (SN 65795)
User :
CE vs. WE compliance from -10 V to 10 V
Electrode connection : standard
Potential control : Ewe
Ewe ctrl range : min = -10.00 V, max = 10.00 V
Safety Limits :
	Do not start on E overload
Acquisition started on : 09/15/2025 10:34:40.269
Loaded Setting File :  C:\Users\Celltest\OneDrive - store-dot.com\Documents\EC-Lab\Data\Gyutae\16432.mps
Saved on :
	File : 16435_R270-A001 HG-1800_C06.mpr
	Directory : C:\Users\Celltest\OneDrive - store-dot.com\Documents\EC-Lab\Data\Gyutae\
	Host : 169.254.61.224
Device : VMP-3e (SN .003165)
Address : USB
EC-LAB for windows v11.62 (software)
Internet server v27.00 (firmware)
Command interpretor v12.03 (firmware)
Electrode material :
Initial state :
Electrolyte :
Comments :
Electrode surface area : 0.001 cm²
Characteristic mass : 0.001 g
Equivalent Weight : 0.000 g/eq.
Density : 0.000 g/cm3
Volume (V) : 0.001 cm³
Cycle Definition : Charge/Discharge alternance
Mode                Single sine
E (V)               0.0000
vs.                 Eoc
tE (h:m:s)          0:00:0.0000
record              0
dI                  0.000
unit dI             mA
dt (s)              0.000
fi                  100.000
unit fi             kHz
ff                  10.000
unit ff             mHz
Nd                  6
Points              per decade
spacing             Logarithmic
Va (mV)             5.0
pw                  0.10
Na                  2
corr                0
E range min (V)     -10.000
E range max (V)     10.000
I Range             Auto
Bandwidth           5
nc cycles           0
goto Ns'            0
nr cycles           0
inc. cycle          0

freq/Hz	Re(Z)/Ohm	-Im(Z)/Ohm	|Z|/Ohm	Phase(Z)/deg	time/s	<Ewe>/V	<I>/mA	Cs/µF	Cp/µF	cycle number	I Range	|Ewe|/V	|I|/A	Ns	(Q-Qo)/mA.h	Re(Y)/Ohm-1	Im(Y)/Ohm-1	|Y|/Ohm-1	Phase(Y)/deg	Re(C)/nF	Im(C)/nF	|C|/nF	Phase(C)/deg	Re(M)	Im(M)	|M|	Phase(M)/deg	Re(Permittivity)	Im(Permittivity)	|Permittivity|	Phase(Permittivity)/deg	Re(Resistivity)/Ohm.cm	Im(Resistivity)/Ohm.cm	|Resistivity|/Ohm.cm	Phase(Resistivity)/deg	Re(Conductivity)/mS/cm	Im(Conductivity)/mS/cm	|Conductivity|/mS/cm	Phase(Conductivity)/deg	Tan(Delta)	Loss Angle(Delta)/deg	dq/mA.h	Pwe/W	Rwe/Ohm
100004	1.68229	0.277333	1.705	-9.36125	2.22648	0.271112	0.0484554	5.73855	0.15183	1	9	0.00489398	0.00287037	0	4.14853e-06	0.578699	0.095401	0.58651	9.36125	151.83	920.995	933.425	-80.6387	0.0000000E+000	0.0000000E+000	0.0000000E+000	80.6387	0.0000000E+000	0.0000000E+000	0.0000000E+000	-80.6387	0.0000000E+000	0.0000000E+000	0.0000000E+000	-9.36125	0.0000000E+000	0.0000000E+000	0.0000000E+000	9.36125	6.06597	80.6387	4.14853e-06	1.31369e-05	5595.1
46420.4	1.83788	0.410359	1.88314	-12.5864	3.10047	0.271104	0.0471516	8.35502	0.396745	1	9	0.00536413	0.00284851	0	1.08352e-05	0.518267	0.115718	0.531028	12.5864	396.745	1776.91	1820.66	-77.4136	0.0000000E+000	0.0000000E+000	0.0000000E+000	77.4136	0.0000000E+000	0.0000000E+000	0.0000000E+000	-77.4136	0.0000000E+000	0.0000000E+000	0.0000000E+000	-12.5864	0.0000000E+000	0.0000000E+000	0.0000000E+000	12.5864	4.47872	77.4136	2.67922e-07	1.2783e-05	5749.62
21544.7	2.03761	0.537549	2.10732	-14.7787	3.97548	0.271094	0.0432031	13.7424	0.894203	1	9	0.00536319	0.00254503	0	2.01541e-05	0.458837	0.121048	0.474536	14.7787	894.203	3389.53	3505.49	-75.2213	0.0000000E+000	0.0000000E+000	0.0000000E+000	75.2213	0.0000000E+000	0.0000000E+000	0.0000000E+000	-75.2213	0.0000000E+000	0.0000000E+000	0.0000000E+000	-14.7787	0.0000000E+000	0.0000000E+000	0.0000000E+000	14.7787	3.79055	75.2213	6.18082e-06	1.17121e-05	6274.88
10002.2	2.29328	0.696114	2.3966	-16.8854	4.84949	0.271089	0.0415641	22.8583	1.92847	1	9	0.00528182	0.00220388	0	2.83182e-05	0.399268	0.121196	0.417257	16.8854	1928.47	6353.14	6639.38	-73.1146	0.0000000E+000	0.0000000E+000	0.0000000E+000	73.1146	0.0000000E+000	0.0000000E+000	0.0000000E+000	-73.1146	0.0000000E+000	0.0000000E+000	0.0000000E+000	-16.8854	0.0000000E+000	0.0000000E+000	0.0000000E+000	16.8854	3.2944	73.1146	3.38207e-06	1.12676e-05	6522.19
4641.49	2.62024	0.937889	2.78304	-19.6943	6.09768	0.271089	0.0409122	36.5605	4.15219	1	9	0.00512806	0.00184261	0	4.07793e-05	0.338301	0.121092	0.35932	19.6943	4152.19	11600.2	12321	-70.3057	0.0000000E+000	0.0000000E+000	0.0000000E+000	70.3057	0.0000000E+000	0.0000000E+000	0.0000000E+000	-70.3057	0.0000000E+000	0.0000000E+000	0.0000000E+000	-19.6943	0.0000000E+000	0.0000000E+000	0.0000000E+000	19.6943	2.79376	70.3057	6.07154e-06	1.10909e-05	6626.12
2155.69	3.05188	1.27354	3.30694	-22.6507	7.25467	0.27109	0.0403907	57.9723	8.59794	1	9	0.00513054	0.00155145	0	5.37227e-05	0.279071	0.116456	0.302394	22.6507	8597.94	20603.8	22325.8	-67.3493	0.0000000E+000	0.0000000E+000	0.0000000E+000	67.3493	0.0000000E+000	0.0000000E+000	0.0000000E+000	-67.3493	0.0000000E+000	0.0000000E+000	0.0000000E+000	-22.6507	0.0000000E+000	0.0000000E+000	0.0000000E+000	22.6507	2.39637	67.3493	4.12319e-06	1.09495e-05	6711.69
1000.32	3.55216	1.80565	3.98475	-26.9453	8.44367	0.271089	-0.00542094	88.1147	18.093	1	10	0.00508681	0.00127657	0	5.61296e-05	0.223713	0.113718	0.250957	26.9453	18093	35593.6	39928.2	-63.0547	0.0000000E+000	0.0000000E+000	0.0000000E+000	63.0547	0.0000000E+000	0.0000000E+000	0.0000000E+000	-63.0547	0.0000000E+000	0.0000000E+000	0.0000000E+000	-26.9453	0.0000000E+000	0.0000000E+000	0.0000000E+000	26.9453	1.96725	63.0547	3.29801e-07	-1.46956e-06	50007.9
463.961	4.17849	2.82075	5.04147	-34.0219	9.3782	0.2711	-0.00545821	121.611	38.0705	1	10	0.00495882	0.000983605	0	5.54016e-05	0.164401	0.110981	0.198355	34.0219	38070.5	56395.4	68042.7	-55.9781	0.0000000E+000	0.0000000E+000	0.0000000E+000	55.9781	0.0000000E+000	0.0000000E+000	0.0000000E+000	-55.9781	0.0000000E+000	0.0000000E+000	0.0000000E+000	-34.0219	0.0000000E+000	0.0000000E+000	0.0000000E+000	34.0219	1.48134	55.9781	-7.74195e-07	-1.47972e-06	49668.4
215.345	5.17265	4.79859	7.05569	-42.8516	10.3124	0.271093	-0.00574703	154.018	71.2394	1	10	0.00486627	0.000689695	0	5.50641e-05	0.103904	0.0963905	0.14173	42.8516	71239.4	76792.8	104748	-47.1484	0.0000000E+000	0.0000000E+000	0.0000000E+000	47.1484	0.0000000E+000	0.0000000E+000	0.0000000E+000	-47.1484	0.0000000E+000	0.0000000E+000	0.0000000E+000	-42.8516	0.0000000E+000	0.0000000E+000	0.0000000E+000	42.8516	1.07795	47.1484	-1.05871e-08	-1.55798e-06	47171.1
100.032	7.3825	8.27913	11.0926	-48.2766	11.2437	0.271091	-0.00581783	192.175	107.054	1	10	0.0048307	0.00043549	0	5.31118e-05	0.0599982	0.0672852	0.0901504	48.2766	107054	95459.6	143433	-41.7234	0.0000000E+000	0.0000000E+000	0.0000000E+000	41.7234	0.0000000E+000	0.0000000E+000	0.0000000E+000	-41.7234	0.0000000E+000	0.0000000E+000	0.0000000E+000	-48.2766	0.0000000E+000	0.0000000E+000	0.0000000E+000	48.2766	0.8917	41.7234	-1.03012e-06	-1.57716e-06	46596.6
46.4415	12.5019	13.1519	18.1458	-46.4513	12.1776	0.271099	-0.00688736	260.571	136.883	1	10	0.00481268	0.000265224	0	5.13935e-05	0.0379687	0.0399426	0.0551093	46.4513	136883	130118	188859	-43.5487	0.0000000E+000	0.0000000E+000	0.0000000E+000	43.5487	0.0000000E+000	0.0000000E+000	0.0000000E+000	-43.5487	0.0000000E+000	0.0000000E+000	0.0000000E+000	-46.4513	0.0000000E+000	0.0000000E+000	0.0000000E+000	46.4513	0.95058	43.5486	-7.79831e-07	-1.86716e-06	39361.8
21.5517	21.9908	16.6928	27.6088	-37.2015	13.3074	0.271108	-0.00743461	442.393	161.723	1	11	0.00481105	0.000174258	0	4.89607e-05	0.02885	0.0218995	0.0362203	37.2015	161723	213051	267480	-52.7985	0.0000000E+000	0.0000000E+000	0.0000000E+000	52.7985	0.0000000E+000	0.0000000E+000	0.0000000E+000	-52.7985	0.0000000E+000	0.0000000E+000	0.0000000E+000	-37.2015	0.0000000E+000	0.0000000E+000	0.0000000E+000	37.2015	1.31738	52.7985	-1.40482e-06	-2.01558e-06	36465.7
10.0032	32.401	15.7053	36.0067	-25.8603	14.2537	0.271109	-0.00710818	1013.06	192.735	1	11	0.00481089	0.000133611	0	4.7518e-05	0.0249914	0.0121138	0.0277726	25.8603	192735	397624	441873	-64.1397	0.0000000E+000	0.0000000E+000	0.0000000E+000	64.1397	0.0000000E+000	0.0000000E+000	0.0000000E+000	-64.1397	0.0000000E+000	0.0000000E+000	0.0000000E+000	-25.8603	0.0000000E+000	0.0000000E+000	0.0000000E+000	25.8603	2.06306	64.1397	-4.63101e-07	-1.92709e-06	38140.5
4.63925	39.9551	12.2229	41.7829	-17.0097	15.1143	0.2711	-0.00699253	2806.71	240.187	1	11	0.0048071	0.000115049	0	4.67833e-05	0.0228863	0.00700127	0.0239332	17.0097	240187	785141	821058	-72.9903	0.0000000E+000	0.0000000E+000	0.0000000E+000	72.9903	0.0000000E+000	0.0000000E+000	0.0000000E+000	-72.9903	0.0000000E+000	0.0000000E+000	0.0000000E+000	-17.0097	0.0000000E+000	0.0000000E+000	0.0000000E+000	17.0097	3.26887	72.9903	-5.28413e-08	-1.89568e-06	38769.9
2.15577	44.9473	9.02515	45.8445	-11.3537	16.8398	0.271106	-0.00588976	8180.2	317.029	1	11	0.00481217	0.000104967	0	4.09077e-05	0.021386	0.00429418	0.0218129	11.3537	317029	1.57888e+06	1.61039e+06	-78.6463	0.0000000E+000	0.0000000E+000	0.0000000E+000	78.6463	0.0000000E+000	0.0000000E+000	0.0000000E+000	-78.6463	0.0000000E+000	0.0000000E+000	0.0000000E+000	-11.3537	0.0000000E+000	0.0000000E+000	0.0000000E+000	11.3537	4.98023	78.6463	-2.77688e-06	-1.59675e-06	46030
1.00006	48.2752	6.63896	48.7296	-7.83037	21.1852	0.271104	-0.00573801	23971.4	444.945	1	12	0.00481429	9.87959e-05	0	3.9327e-05	0.0203301	0.00279585	0.0205214	7.83037	444945	3.23542e+06	3.26588e+06	-82.1696	0.0000000E+000	0.0000000E+000	0.0000000E+000	82.1696	0.0000000E+000	0.0000000E+000	0.0000000E+000	-82.1696	0.0000000E+000	0.0000000E+000	0.0000000E+000	-7.83037	0.0000000E+000	0.0000000E+000	0.0000000E+000	7.83037	7.27151	82.1696	-1.4856e-07	-1.5556e-06	47247
0.464091	50.5682	4.98176	50.813	-5.62637	28.8699	0.271104	-0.00529449	68839	661.683	1	12	0.00481245	9.47089e-05	0	2.72416e-05	0.0195852	0.00192944	0.01968	5.62637	661683	6.71653e+06	6.74904e+06	-84.3736	0.0000000E+000	0.0000000E+000	0.0000000E+000	84.3736	0.0000000E+000	0.0000000E+000	0.0000000E+000	-84.3736	0.0000000E+000	0.0000000E+000	0.0000000E+000	-5.62637	0.0000000E+000	0.0000000E+000	0.0000000E+000	5.62637	10.1507	84.3736	-9.12255e-06	-1.43536e-06	51205
0.215268	52.0861	4.15016	52.2512	-4.55564	45.3499	0.271117	-0.00502926	178146	1123.86	1	12	0.00481496	9.21502e-05	0	-1.61337e-05	0.0190779	0.0015201	0.0191383	4.55564	1.12386e+06	1.41049e+07	1.41496e+07	-85.4444	0.0000000E+000	0.0000000E+000	0.0000000E+000	85.4444	0.0000000E+000	0.0000000E+000	0.0000000E+000	-85.4444	0.0000000E+000	0.0000000E+000	0.0000000E+000	-4.55564	0.0000000E+000	0.0000000E+000	0.0000000E+000	4.55564	12.5504	85.4444	-2.58675e-05	-1.36351e-06	53907.9
0.0999041	53.3333	4.43484	53.5174	-4.7534	80.7565	0.271115	-0.00564639	359219	2466.75	1	12	0.00481603	8.999e-05	0	-8.02016e-05	0.0186213	0.00154842	0.0186855	4.7534	2.46675e+06	2.96651e+07	2.97675e+07	-85.2466	0.0000000E+000	0.0000000E+000	0.0000000E+000	85.2466	0.0000000E+000	0.0000000E+000	0.0000000E+000	-85.2466	0.0000000E+000	0.0000000E+000	0.0000000E+000	-4.7534	0.0000000E+000	0.0000000E+000	0.0000000E+000	4.7534	12.026	85.2466	-3.23418e-05	-1.53082e-06	48015.6
0.0464052	54.6074	6.12023	54.9493	-6.39485	156.993	0.27111	-0.00584713	560384	6951.8	1	12	0.00481724	8.76671e-05	0	-0.000132942	0.0180854	0.00202695	0.0181986	6.39485	6.9518e+06	6.2027e+07	6.24154e+07	-83.6051	0.0000000E+000	0.0000000E+000	0.0000000E+000	83.6051	0.0000000E+000	0.0000000E+000	0.0000000E+000	-83.6051	0.0000000E+000	0.0000000E+000	0.0000000E+000	-6.39485	0.0000000E+000	0.0000000E+000	0.0000000E+000	6.39485	8.92244	83.6051	-2.22496e-05	-1.58522e-06	46366.4
0.0215268	57.1591	9.43426	57.9325	-9.37232	321.221	0.271104	-0.00481453	783670	20782.8	1	12	0.00481457	8.31065e-05	0	-0.000246818	0.0170311	0.00281102	0.0172615	9.37232	2.07828e+07	1.25916e+08	1.2762e+08	-80.6277	0.0000000E+000	0.0000000E+000	0.0000000E+000	80.6277	0.0000000E+000	0.0000000E+000	0.0000000E+000	-80.6277	0.0000000E+000	0.0000000E+000	0.0000000E+000	-9.37232	0.0000000E+000	0.0000000E+000	0.0000000E+000	9.37232	6.05868	80.6277	-8.27357e-05	-1.30524e-06	56309.5
0.0100092	60.6706	15.2847	62.5663	-14.1403	674.437	0.271101	-0.00410332	1.04031e+06	62086.7	1	12	0.00481777	7.70026e-05	0	-0.000855615	0.0154988	0.0039046	0.015983	14.1403	6.20867e+07	2.46445e+08	2.54145e+08	-75.8597	0.0000000E+000	0.0000000E+000	0.0000000E+000	75.8597	0.0000000E+000	0.0000000E+000	0.0000000E+000	-75.8597	0.0000000E+000	0.0000000E+000	0.0000000E+000	-14.1403	0.0000000E+000	0.0000000E+000	0.0000000E+000	14.1403	3.96936	75.8597	-0.000406317	-1.11241e-06	66068.6