File: txt/16434_R270_UA640_SOC00_C05.mpt
EC-Lab ASCII FILE
Nb header lines : 63

Potentio Electrochemical Impedance Spectroscopy

Run on channel : 5 (SN 65912)
User :
CE vs. WE compliance from -10 V to 10 V
Electrode connection : standard
Potential control : Ewe
Ewe ctrl range : min = -10.00 V, max = 10.00 V
Safety Limits :
	Do not start on E overload
Acquisition started on : 09/15/2025 10:34:31.030
Loaded Setting File :  C:\Users\Celltest\OneDrive - store-dot.com\Documents\EC-Lab\Data\Gyutae\16432.mps
Saved on :
	File : 16434_R270-A001 HG-1800_C05.mpr
	Directory : C:\Users\Celltest\OneDrive - store-dot.com\Documents\EC-Lab\Data\Gyutae\
	Host : 169.254.61.224
Device : VMP-3e (SN .003165)
Address : USB
EC-LAB for windows v11.62 (software)
Internet server v27.00 (firmware)
Command interpretor v12.03 (firmware)
Electrode material :
Initial state :
Electrolyte :
Comments :
Electrode surface area : 0.001 cm²
Characteristic mass : 0.001 g
Equivalent Weight : 0.000 g/eq.
Density : 0.000 g/cm3
Volume (V) : 0.001 cm³
Cycle Definition : Charge/Discharge alternance
Mode                Single sine
E (V)               0.0000
vs.                 Eoc
tE (h:m:s)          0:00:0.0000
record              0
dI                  0.000
unit dI             mA
dt (s)              0.000
fi                  100.000
unit fi             kHz
ff                  10.000
unit ff             mHz
Nd                  6
Points              per decade
spacing             Logarithmic
Va (mV)             5.0
pw                  0.10
Na                  2
corr                0
E range min (V)     -10.000
E range max (V)     10.000
I Range             Auto
Bandwidth           5
nc cycles           0
goto Ns'            0
nr cycles           0
inc. cycle          0

freq/Hz	Re(Z)/Ohm	-Im(Z)/Ohm	|Z|/Ohm	Phase(Z)/deg	time/s	<Ewe>/V	<I>/mA	Cs/µF	Cp/µF	cycle number	I Range	|Ewe|/V	|I|/A	Ns	(Q-Qo)/mA.h	Re(Y)/Ohm-1	Im(Y)/Ohm-1	|Y|/Ohm-1	Phase(Y)/deg	Re(C)/nF	Im(C)/nF	|C|/nF	Phase(C)/deg	Re(M)	Im(M)	|M|	Phase(M)/deg	Re(Permittivity)	Im(Permittivity)	|Permittivity|	Phase(Permittivity)/deg	Re(Resistivity)/Ohm.cm	Im(Resistivity)/Ohm.cm	|Resistivity|/Ohm.cm	Phase(Resistivity)/deg	Re(Conductivity)/mS/cm	Im(Conductivity)/mS/cm	|Conductivity|/mS/cm	Phase(Conductivity)/deg	Tan(Delta)	Loss Angle(Delta)/deg	dq/mA.h	Pwe/W	Rwe/Ohm
100004	1.64875	0.314583	1.67849	-10.8022	2.22749	0.302101	-0.0147685	5.05905	0.177705	1	9	0.00492742	0.00293562	0	-9.05132e-06	0.585215	0.111659	0.595772	10.8022	177.705	931.364	948.166	-79.1978	0.0000000E+000	0.0000000E+000	0.0000000E+000	79.1978	0.0000000E+000	0.0000000E+000	0.0000000E+000	-79.1978	0.0000000E+000	0.0000000E+000	0.0000000E+000	-10.8022	0.0000000E+000	0.0000000E+000	0.0000000E+000	10.8022	5.24107	79.1978	-9.05132e-06	-4.46157e-06	20455.8
46420.4	1.80217	0.401366	1.84632	-12.5556	3.10148	0.302089	-0.0175428	8.54223	0.403681	1	9	0.00537374	0.00291051	0	-1.41582e-05	0.528665	0.117741	0.541618	12.5556	403.681	1812.56	1856.97	-77.4444	0.0000000E+000	0.0000000E+000	0.0000000E+000	77.4444	0.0000000E+000	0.0000000E+000	0.0000000E+000	-77.4444	0.0000000E+000	0.0000000E+000	0.0000000E+000	-12.5556	0.0000000E+000	0.0000000E+000	0.0000000E+000	12.5556	4.49008	77.4444	-5.70339e-07	-5.29949e-06	17220
21544.7	1.99539	0.520801	2.06224	-14.628	3.97648	0.302089	-0.0187159	14.1843	0.904635	1	9	0.00534657	0.0025926	0	-2.10421e-05	0.469192	0.12246	0.48491	14.628	904.635	3466.02	3582.13	-75.372	0.0000000E+000	0.0000000E+000	0.0000000E+000	75.372	0.0000000E+000	0.0000000E+000	0.0000000E+000	-75.372	0.0000000E+000	0.0000000E+000	0.0000000E+000	-14.628	0.0000000E+000	0.0000000E+000	0.0000000E+000	14.628	3.8314	75.372	-3.97916e-06	-5.65386e-06	16140.8
10002.2	2.24881	0.691009	2.35258	-17.081	4.85049	0.302079	-0.019498	23.0271	1.98664	1	9	0.00532226	0.00226231	0	-2.9334e-05	0.406316	0.124852	0.425065	17.081	1986.63	6465.28	6763.62	-72.919	0.0000000E+000	0.0000000E+000	0.0000000E+000	72.919	0.0000000E+000	0.0000000E+000	0.0000000E+000	-72.919	0.0000000E+000	0.0000000E+000	0.0000000E+000	-17.081	0.0000000E+000	0.0000000E+000	0.0000000E+000	17.081	3.25439	72.919	-2.38132e-06	-5.88993e-06	15492.9
4641.49	2.59353	0.926933	2.7542	-19.667	6.09971	0.30209	-0.0161464	36.9926	4.19007	1	9	0.00501594	0.0018212	0	-3.49132e-05	0.341902	0.122196	0.363082	19.667	4190.07	11723.7	12450	-70.333	0.0000000E+000	0.0000000E+000	0.0000000E+000	70.333	0.0000000E+000	0.0000000E+000	0.0000000E+000	-70.333	0.0000000E+000	0.0000000E+000	0.0000000E+000	-19.667	0.0000000E+000	0.0000000E+000	0.0000000E+000	19.667	2.79797	70.333	-4.8461e-06	-4.87767e-06	18709.5
2155.69	3.00791	1.22768	3.2488	-22.2029	7.03371	0.302095	-0.0130741	60.1378	8.58765	1	9	0.00514166	0.00158263	0	-4.00116e-05	0.284983	0.116316	0.307806	22.2029	8587.65	21040.3	22725.4	-67.7971	0.0000000E+000	0.0000000E+000	0.0000000E+000	67.7971	0.0000000E+000	0.0000000E+000	0.0000000E+000	-67.7971	0.0000000E+000	0.0000000E+000	0.0000000E+000	-22.2029	0.0000000E+000	0.0000000E+000	0.0000000E+000	22.2029	2.45007	67.7971	-3.62345e-06	-3.94961e-06	23106.3
1000.32	3.48325	1.74211	3.89461	-26.5714	8.22371	0.302097	-0.00997528	91.3283	18.2738	1	10	0.005109	0.00131181	0	-4.26759e-05	0.229645	0.114854	0.256765	26.5714	18273.8	36537.4	40852.4	-63.4286	0.0000000E+000	0.0000000E+000	0.0000000E+000	63.4286	0.0000000E+000	0.0000000E+000	0.0000000E+000	-63.4286	0.0000000E+000	0.0000000E+000	0.0000000E+000	-26.5714	0.0000000E+000	0.0000000E+000	0.0000000E+000	26.5714	1.99944	63.4286	-1.04904e-06	-3.0135e-06	30284.6
463.961	4.09866	2.70163	4.90895	-33.3908	9.15819	0.302105	-0.00968485	126.974	38.458	1	10	0.00499427	0.00101738	0	-4.47918e-05	0.170084	0.112111	0.20371	33.3908	38458.1	58345	69879.6	-56.6092	0.0000000E+000	0.0000000E+000	0.0000000E+000	56.6092	0.0000000E+000	0.0000000E+000	0.0000000E+000	-56.6092	0.0000000E+000	0.0000000E+000	0.0000000E+000	-33.3908	0.0000000E+000	0.0000000E+000	0.0000000E+000	33.3908	1.51711	56.6092	-1.64484e-06	-2.92584e-06	31193.6
215.345	5.13727	4.53855	6.85492	-41.4591	10.0925	0.302107	-0.0092362	162.843	71.3835	1	10	0.00493373	0.000719735	0	-4.74416e-05	0.109327	0.0965854	0.145881	41.4591	71383.5	80800.4	107816	-48.5409	0.0000000E+000	0.0000000E+000	0.0000000E+000	48.5409	0.0000000E+000	0.0000000E+000	0.0000000E+000	-48.5409	0.0000000E+000	0.0000000E+000	0.0000000E+000	-41.4591	0.0000000E+000	0.0000000E+000	0.0000000E+000	41.4591	1.13192	48.5409	-1.01476e-06	-2.79032e-06	32709
100.032	7.38347	7.66159	10.6403	-46.059	11.0237	0.302108	-0.00936653	207.664	107.67	1	10	0.00489714	0.000460245	0	-4.93219e-05	0.065216	0.0676726	0.0939825	46.059	107670	103761	149530	-43.941	0.0000000E+000	0.0000000E+000	0.0000000E+000	43.941	0.0000000E+000	0.0000000E+000	0.0000000E+000	-43.941	0.0000000E+000	0.0000000E+000	0.0000000E+000	-46.059	0.0000000E+000	0.0000000E+000	0.0000000E+000	46.059	0.9637	43.941	-8.5577e-07	-2.8297e-06	32254
46.4415	12.4233	11.574	16.9793	-42.9729	11.9575	0.302108	-0.0095285	296.095	137.58	1	10	0.00489107	0.000288061	0	-5.10967e-05	0.0430923	0.0401461	0.0588953	42.9729	137580	147677	201834	-47.0271	0.0000000E+000	0.0000000E+000	0.0000000E+000	47.0271	0.0000000E+000	0.0000000E+000	0.0000000E+000	-47.0271	0.0000000E+000	0.0000000E+000	0.0000000E+000	-42.9729	0.0000000E+000	0.0000000E+000	0.0000000E+000	42.9729	1.07339	47.0271	-8.96203e-07	-2.87864e-06	31705.8
21.5517	20.5382	13.5705	24.6165	-33.4544	13.0864	0.302128	-0.00565687	544.182	165.378	1	11	0.00488473	0.000198433	0	-5.25348e-05	0.0338928	0.0223944	0.0406231	33.4544	165378	250291	299993	-56.5456	0.0000000E+000	0.0000000E+000	0.0000000E+000	56.5456	0.0000000E+000	0.0000000E+000	0.0000000E+000	-56.5456	0.0000000E+000	0.0000000E+000	0.0000000E+000	-33.4544	0.0000000E+000	0.0000000E+000	0.0000000E+000	33.4544	1.51345	56.5456	-6.24247e-07	-1.7091e-06	53409
10.0032	28.4858	12.1642	30.9743	-23.1238	14.0337	0.302121	-0.00537726	1307.97	201.726	1	11	0.00488597	0.000157743	0	-5.503e-05	0.029691	0.0126789	0.0322848	23.1238	201726	472396	513665	-66.8762	0.0000000E+000	0.0000000E+000	0.0000000E+000	66.8762	0.0000000E+000	0.0000000E+000	0.0000000E+000	-66.8762	0.0000000E+000	0.0000000E+000	0.0000000E+000	-23.1238	0.0000000E+000	0.0000000E+000	0.0000000E+000	23.1238	2.34177	66.8762	-1.56626e-06	-1.62458e-06	56184.9
4.63925	34.14	9.44289	35.4218	-15.4611	14.8933	0.302123	-0.00523131	3633.02	258.187	1	11	0.00488397	0.00013788	0	-5.59858e-05	0.0272095	0.00752598	0.0282312	15.4611	258187	933455	968503	-74.5389	0.0000000E+000	0.0000000E+000	0.0000000E+000	74.5389	0.0000000E+000	0.0000000E+000	0.0000000E+000	-74.5389	0.0000000E+000	0.0000000E+000	0.0000000E+000	-15.4611	0.0000000E+000	0.0000000E+000	0.0000000E+000	15.4611	3.61542	74.5389	-2.019e-06	-1.5805e-06	57752.8
2.15577	37.9031	6.95024	38.535	-10.3908	16.6188	0.302132	-0.0041083	10622.3	345.547	1	11	0.00488704	0.000126821	0	-5.77241e-05	0.0255248	0.00468046	0.0259504	10.3908	345547	1.88444e+06	1.91585e+06	-79.6092	0.0000000E+000	0.0000000E+000	0.0000000E+000	79.6092	0.0000000E+000	0.0000000E+000	0.0000000E+000	-79.6092	0.0000000E+000	0.0000000E+000	0.0000000E+000	-10.3908	0.0000000E+000	0.0000000E+000	0.0000000E+000	10.3908	5.45349	79.6092	6.33156e-07	-1.24125e-06	73541.9
1.00006	40.4068	4.95742	40.7098	-6.99454	20.9641	0.302135	-0.00303245	32102.3	476.049	1	12	0.00488697	0.000120044	0	-5.87154e-05	0.0243813	0.00299129	0.0245641	6.99454	476049	3.88016e+06	3.90925e+06	-83.0055	0.0000000E+000	0.0000000E+000	0.0000000E+000	83.0055	0.0000000E+000	0.0000000E+000	0.0000000E+000	-83.0055	0.0000000E+000	0.0000000E+000	0.0000000E+000	-6.99454	0.0000000E+000	0.0000000E+000	0.0000000E+000	6.99454	8.15076	83.0055	-2.21027e-06	-9.16211e-07	99634.1
0.464091	41.9591	3.64686	42.1173	-4.96736	28.6488	0.302134	-0.0025996	94036.8	705.042	1	12	0.0048882	0.000116061	0	-7.63353e-05	0.023654	0.00205588	0.0237432	4.96736	705043	8.1119e+06	8.14248e+06	-85.0326	0.0000000E+000	0.0000000E+000	0.0000000E+000	85.0326	0.0000000E+000	0.0000000E+000	0.0000000E+000	-85.0326	0.0000000E+000	0.0000000E+000	0.0000000E+000	-4.96736	0.0000000E+000	0.0000000E+000	0.0000000E+000	4.96736	11.5055	85.0326	-1.10749e-05	-7.85427e-07	116223
0.215268	43.045	3.20505	43.1641	-4.25828	45.1288	0.302135	-0.00285528	230678	1271.83	1	12	0.00488893	0.000113264	0	-9.71478e-05	0.0231034	0.00172024	0.0231674	4.25828	1.27183e+06	1.70812e+07	1.71284e+07	-85.7417	0.0000000E+000	0.0000000E+000	0.0000000E+000	85.7417	0.0000000E+000	0.0000000E+000	0.0000000E+000	-85.7417	0.0000000E+000	0.0000000E+000	0.0000000E+000	-4.25828	0.0000000E+000	0.0000000E+000	0.0000000E+000	4.25828	13.4304	85.7417	-8.46906e-06	-8.62678e-07	105816
0.0999041	43.8612	3.78351	44.024	-4.93019	80.5343	0.302131	-0.00241637	421058	3109.94	1	12	0.00488905	0.000111054	0	-8.0305e-05	0.0226308	0.00195216	0.0227149	4.93019	3.10994e+06	3.60526e+07	3.61865e+07	-85.0698	0.0000000E+000	0.0000000E+000	0.0000000E+000	85.0698	0.0000000E+000	0.0000000E+000	0.0000000E+000	-85.0698	0.0000000E+000	0.0000000E+000	0.0000000E+000	-4.93019	0.0000000E+000	0.0000000E+000	0.0000000E+000	4.93019	11.5927	85.0698	1.53261e-05	-7.30062e-07	125035
0.0464052	45.1557	5.44139	45.4824	-6.87117	156.771	0.302128	-0.00075097	630295	9021.46	1	12	0.00488832	0.000107477	0	-3.09903e-05	0.0218286	0.00263041	0.0219865	6.87117	9.02146e+06	7.48652e+07	7.54068e+07	-83.1288	0.0000000E+000	0.0000000E+000	0.0000000E+000	83.1288	0.0000000E+000	0.0000000E+000	0.0000000E+000	-83.1288	0.0000000E+000	0.0000000E+000	0.0000000E+000	-6.87117	0.0000000E+000	0.0000000E+000	0.0000000E+000	6.87117	8.29856	83.1288	2.40901e-05	-2.26889e-07	402317
0.0215268	47.1451	8.82385	47.9637	-10.601	321.001	0.302126	0.000476773	837882	28357.8	1	12	0.00488819	0.000101914	0	-0.000123391	0.0204932	0.00383559	0.0208491	10.601	2.83578e+07	1.51514e+08	1.54144e+08	-79.399	0.0000000E+000	0.0000000E+000	0.0000000E+000	79.399	0.0000000E+000	0.0000000E+000	0.0000000E+000	-79.399	0.0000000E+000	0.0000000E+000	0.0000000E+000	-10.601	0.0000000E+000	0.0000000E+000	0.0000000E+000	10.601	5.34291	79.399	-8.21745e-05	1.44045e-07	633688
0.0100092	50.4318	13.9727	52.3316	-15.486	674.217	0.302132	-0.000269369	1.138e+06	81128.4	1	12	0.00488775	9.33996e-05	0	-0.000536918	0.0184152	0.00510212	0.0191089	15.486	8.11284e+07	2.92818e+08	3.03849e+08	-74.514	0.0000000E+000	0.0000000E+000	0.0000000E+000	74.514	0.0000000E+000	0.0000000E+000	0.0000000E+000	-74.514	0.0000000E+000	0.0000000E+000	0.0000000E+000	-15.486	0.0000000E+000	0.0000000E+000	0.0000000E+000	15.486	3.60932	74.514	-0.000238272	-8.13851e-08	1.12163e+06