File: txt/16433_R270_UA640_SOC00_C04.mpt
EC-Lab ASCII FILE
Nb header lines : 63

Potentio Electrochemical Impedance Spectroscopy

Run on channel : 4 (SN 66756)
User :
CE vs. WE compliance from -10 V to 10 V
Electrode connection : standard
Potential control : Ewe
Ewe ctrl range : min = -10.00 V, max = 10.00 V
Safety Limits :
	Do not start on E overload
Acquisition started on : 09/15/2025 10:34:20.380
Loaded Setting File :  C:\Users\Celltest\OneDrive - store-dot.com\Documents\EC-Lab\Data\Gyutae\16432.mps
Saved on :
	File : 16433_R270-A001 HG-1800_C04.mpr
	Directory : C:\Users\Celltest\OneDrive - store-dot.com\Documents\EC-Lab\Data\Gyutae\
	Host : 169.254.61.224
Device : VMP-3e (SN .003165)
Address : USB
EC-LAB for windows v11.62 (software)
Internet server v27.00 (firmware)
Command interpretor v12.03 (firmware)
Electrode material :
Initial state :
Electrolyte :
Comments :
Electrode surface area : 0.001 cm²
Characteristic mass : 0.001 g
Equivalent Weight : 0.000 g/eq.
Density : 0.000 g/cm3
Volume (V) : 0.001 cm³
Cycle Definition : Charge/Discharge alternance
Mode                Single sine
E (V)               0.0000
vs.                 Eoc
tE (h:m:s)          0:00:0.0000
record              0
dI                  0.000
unit dI             mA
dt (s)              0.000
fi                  100.000
unit fi             kHz
ff                  10.000
unit ff             mHz
Nd                  6
Points              per decade
spacing             Logarithmic
Va (mV)             5.0
pw                  0.10
Na                  2
corr                0
E range min (V)     -10.000
E range max (V)     10.000
I Range             Auto
Bandwidth           5
nc cycles           0
goto Ns'            0
nr cycles           0
inc. cycle          0

freq/Hz	Re(Z)/Ohm	-Im(Z)/Ohm	|Z|/Ohm	Phase(Z)/deg	time/s	<Ewe>/V	<I>/mA	Cs/µF	Cp/µF	cycle number	I Range	|Ewe|/V	|I|/A	Ns	(Q-Qo)/mA.h	Re(Y)/Ohm-1	Im(Y)/Ohm-1	|Y|/Ohm-1	Phase(Y)/deg	Re(C)/nF	Im(C)/nF	|C|/nF	Phase(C)/deg	Re(M)	Im(M)	|M|	Phase(M)/deg	Re(Permittivity)	Im(Permittivity)	|Permittivity|	Phase(Permittivity)/deg	Re(Resistivity)/Ohm.cm	Im(Resistivity)/Ohm.cm	|Resistivity|/Ohm.cm	Phase(Resistivity)/deg	Re(Conductivity)/mS/cm	Im(Conductivity)/mS/cm	|Conductivity|/mS/cm	Phase(Conductivity)/deg	Tan(Delta)	Loss Angle(Delta)/deg	dq/mA.h	Pwe/W	Rwe/Ohm
100004	1.38913	0.301344	1.42144	-12.2395	2.0675	0.310099	-0.0324899	5.2813	0.237361	1	9	0.00454527	0.00319765	0	-5.92153e-06	0.687521	0.149144	0.703512	12.2395	237.361	1094.18	1119.63	-77.7605	0.0000000E+000	0.0000000E+000	0.0000000E+000	77.7605	0.0000000E+000	0.0000000E+000	0.0000000E+000	-77.7605	0.0000000E+000	0.0000000E+000	0.0000000E+000	-12.2395	0.0000000E+000	0.0000000E+000	0.0000000E+000	12.2395	4.60978	77.7605	-5.92153e-06	-1.00751e-05	9544.49
46420.4	1.53796	0.364897	1.58065	-13.3473	3.22349	0.310109	-0.031315	9.39596	0.500736	1	9	0.005029	0.0031816	0	-1.43738e-05	0.615561	0.146049	0.63265	13.3473	500.736	2110.49	2169.08	-76.6527	0.0000000E+000	0.0000000E+000	0.0000000E+000	76.6527	0.0000000E+000	0.0000000E+000	0.0000000E+000	-76.6527	0.0000000E+000	0.0000000E+000	0.0000000E+000	-13.3473	0.0000000E+000	0.0000000E+000	0.0000000E+000	13.3473	4.21477	76.6527	2.92443e-07	-9.71108e-06	9902.89
21544.7	1.71847	0.465218	1.78032	-15.1479	4.23849	0.310098	-0.0316694	15.879	1.08427	1	9	0.00523514	0.00294056	0	-3.62565e-05	0.542179	0.146777	0.561696	15.1479	1084.27	4005.19	4149.36	-74.8521	0.0000000E+000	0.0000000E+000	0.0000000E+000	74.8521	0.0000000E+000	0.0000000E+000	0.0000000E+000	-74.8521	0.0000000E+000	0.0000000E+000	0.0000000E+000	-15.1479	0.0000000E+000	0.0000000E+000	0.0000000E+000	15.1479	3.69389	74.8521	-7.70684e-06	-9.82061e-06	9791.75
10002.2	1.93933	0.599805	2.02997	-17.186	4.97149	0.310094	-0.0315388	26.5285	2.31609	1	9	0.00504124	0.00248341	0	-4.06367e-05	0.470623	0.145557	0.492619	17.186	2316.09	7488.54	7838.52	-72.814	0.0000000E+000	0.0000000E+000	0.0000000E+000	72.814	0.0000000E+000	0.0000000E+000	0.0000000E+000	-72.814	0.0000000E+000	0.0000000E+000	0.0000000E+000	-17.186	0.0000000E+000	0.0000000E+000	0.0000000E+000	17.186	3.23327	72.814	-1.34933e-06	-9.78e-06	9832.13
4641.49	2.21904	0.798111	2.35821	-19.7819	5.82067	0.310102	-0.0136734	42.9635	4.92111	1	9	0.00481669	0.00204252	0	-4.55563e-05	0.399027	0.143516	0.424051	19.7819	4921.11	13682.5	14540.6	-70.2181	0.0000000E+000	0.0000000E+000	0.0000000E+000	70.2181	0.0000000E+000	0.0000000E+000	0.0000000E+000	-70.2181	0.0000000E+000	0.0000000E+000	0.0000000E+000	-19.7819	0.0000000E+000	0.0000000E+000	0.0000000E+000	19.7819	2.78037	70.2181	-5.74309e-07	-4.24016e-06	22679.2
2155.69	2.56628	1.07226	2.78128	-22.6765	6.75467	0.310104	-0.00876885	68.8547	10.234	1	9	0.00470345	0.00169111	0	-4.86699e-05	0.331752	0.138615	0.359547	22.6765	10234	24493.3	26545.4	-67.3235	0.0000000E+000	0.0000000E+000	0.0000000E+000	67.3235	0.0000000E+000	0.0000000E+000	0.0000000E+000	-67.3235	0.0000000E+000	0.0000000E+000	0.0000000E+000	-22.6765	0.0000000E+000	0.0000000E+000	0.0000000E+000	22.6765	2.39333	67.3235	-2.32995e-06	-2.71926e-06	35364.3
1000.32	2.99288	1.55124	3.37101	-27.3982	7.94468	0.310107	-0.01289	102.565	21.7191	1	10	0.00476162	0.00141252	0	-5.3514e-05	0.263372	0.136509	0.296647	27.3982	21719.1	41903.6	47197.8	-62.6018	0.0000000E+000	0.0000000E+000	0.0000000E+000	62.6018	0.0000000E+000	0.0000000E+000	0.0000000E+000	-62.6018	0.0000000E+000	0.0000000E+000	0.0000000E+000	-27.3982	0.0000000E+000	0.0000000E+000	0.0000000E+000	27.3982	1.92934	62.6018	-3.99936e-06	-3.99728e-06	24058
463.961	3.5405	2.45235	4.30687	-34.7087	8.87921	0.310107	-0.0133096	139.88	45.3521	1	10	0.00468975	0.0010889	0	-5.68888e-05	0.190871	0.132208	0.232187	34.7087	45352.1	65475.6	79648.4	-55.2913	0.0000000E+000	0.0000000E+000	0.0000000E+000	55.2913	0.0000000E+000	0.0000000E+000	0.0000000E+000	-55.2913	0.0000000E+000	0.0000000E+000	0.0000000E+000	-34.7087	0.0000000E+000	0.0000000E+000	0.0000000E+000	34.7087	1.44372	55.2913	-1.56549e-06	-4.12742e-06	23299.5
215.345	4.48351	4.18847	6.13556	-43.0514	9.81344	0.310111	-0.013401	176.454	82.2303	1	10	0.00464422	0.000756934	0	-6.12869e-05	0.119099	0.111262	0.162984	43.0514	82230.3	88022.9	120457	-46.9486	0.0000000E+000	0.0000000E+000	0.0000000E+000	46.9486	0.0000000E+000	0.0000000E+000	0.0000000E+000	-46.9486	0.0000000E+000	0.0000000E+000	0.0000000E+000	-43.0514	0.0000000E+000	0.0000000E+000	0.0000000E+000	43.0514	1.07044	46.9486	-2.18771e-06	-4.15581e-06	23140.8
100.032	6.62575	7.05982	9.68203	-46.8167	10.7447	0.310113	-0.013636	225.366	119.824	1	10	0.00462052	0.000477226	0	-6.37112e-05	0.070681	0.0753114	0.103284	46.8167	119824	112456	164329	-43.1833	0.0000000E+000	0.0000000E+000	0.0000000E+000	43.1833	0.0000000E+000	0.0000000E+000	0.0000000E+000	-43.1833	0.0000000E+000	0.0000000E+000	0.0000000E+000	-46.8167	0.0000000E+000	0.0000000E+000	0.0000000E+000	46.8167	0.938516	43.1833	-1.16028e-06	-4.22871e-06	22742.1
46.4415	11.3287	10.4627	15.421	-42.724	11.6785	0.310099	-0.0162733	327.546	150.775	1	10	0.00462053	0.000299626	0	-6.65167e-05	0.0476383	0.0439964	0.0648467	42.724	150775	163256	222229	-47.276	0.0000000E+000	0.0000000E+000	0.0000000E+000	47.276	0.0000000E+000	0.0000000E+000	0.0000000E+000	-47.276	0.0000000E+000	0.0000000E+000	0.0000000E+000	-42.724	0.0000000E+000	0.0000000E+000	0.0000000E+000	42.724	1.08278	47.276	-1.73561e-06	-5.04633e-06	19055.7
21.5517	18.7427	12.0681	22.2919	-32.7768	12.8073	0.310127	-0.00528002	611.925	179.342	1	11	0.00461869	0.000207191	0	-6.80063e-05	0.0377171	0.0242854	0.0448593	32.7768	179342	278533	331277	-57.2232	0.0000000E+000	0.0000000E+000	0.0000000E+000	57.2232	0.0000000E+000	0.0000000E+000	0.0000000E+000	-57.2232	0.0000000E+000	0.0000000E+000	0.0000000E+000	-32.7768	0.0000000E+000	0.0000000E+000	0.0000000E+000	32.7768	1.55308	57.2232	5.88579e-08	-1.63748e-06	58736
10.0032	25.6701	10.5131	27.7395	-22.2713	13.7537	0.310128	-0.00420314	1513.39	217.377	1	11	0.00461916	0.000166519	0	-7.0374e-05	0.0333604	0.0136626	0.0360497	22.2713	217377	530777	573565	-67.7287	0.0000000E+000	0.0000000E+000	0.0000000E+000	67.7287	0.0000000E+000	0.0000000E+000	0.0000000E+000	-67.7287	0.0000000E+000	0.0000000E+000	0.0000000E+000	-22.2713	0.0000000E+000	0.0000000E+000	0.0000000E+000	22.2713	2.44173	67.7287	-1.72722e-06	-1.30351e-06	73784.9
4.63925	30.4241	7.98046	31.4533	-14.698	14.6153	0.310137	-0.00374779	4298.77	276.737	1	11	0.00461034	0.000146577	0	-7.21797e-05	0.0307528	0.00806668	0.0317931	14.698	276737	1.05501e+06	1.0907e+06	-75.302	0.0000000E+000	0.0000000E+000	0.0000000E+000	75.302	0.0000000E+000	0.0000000E+000	0.0000000E+000	-75.302	0.0000000E+000	0.0000000E+000	0.0000000E+000	-14.698	0.0000000E+000	0.0000000E+000	0.0000000E+000	14.698	3.81232	75.302	-2.58933e-06	-1.16233e-06	82751.9
2.15577	33.54	5.66507	34.0151	-9.58705	16.3408	0.310144	-0.00256332	13032.1	361.477	1	11	0.00461512	0.000135679	0	-6.97225e-05	0.0289881	0.00489624	0.0293987	9.58705	361477	2.14012e+06	2.17044e+06	-80.4129	0.0000000E+000	0.0000000E+000	0.0000000E+000	80.4129	0.0000000E+000	0.0000000E+000	0.0000000E+000	-80.4129	0.0000000E+000	0.0000000E+000	0.0000000E+000	-9.58705	0.0000000E+000	0.0000000E+000	0.0000000E+000	9.58705	5.92049	80.4129	2.04629e-06	-7.94998e-07	120993
1.00006	35.4538	3.97046	35.6754	-6.38992	20.6862	0.310145	-0.0016083	40082.2	496.472	1	12	0.00461751	0.000129431	0	-7.61761e-05	0.0278563	0.00311963	0.0280305	6.38992	496472	4.43319e+06	4.4609e+06	-83.6101	0.0000000E+000	0.0000000E+000	0.0000000E+000	83.6101	0.0000000E+000	0.0000000E+000	0.0000000E+000	-83.6101	0.0000000E+000	0.0000000E+000	0.0000000E+000	-6.38992	0.0000000E+000	0.0000000E+000	0.0000000E+000	6.38992	8.92939	83.6101	-5.3759e-06	-4.98805e-07	192840
0.464091	36.6553	2.93812	36.7729	-4.58277	28.3709	0.310153	-0.00168431	116720	745.13	1	12	0.00461812	0.000125585	0	-8.81321e-05	0.027107	0.00217278	0.027194	4.58277	745130	9.29606e+06	9.32588e+06	-85.4172	0.0000000E+000	0.0000000E+000	0.0000000E+000	85.4172	0.0000000E+000	0.0000000E+000	0.0000000E+000	-85.4172	0.0000000E+000	0.0000000E+000	0.0000000E+000	-4.58277	0.0000000E+000	0.0000000E+000	0.0000000E+000	4.58277	12.4758	85.4172	-5.13987e-06	-5.22394e-07	184142
0.215268	37.4109	2.7493	37.5118	-4.20306	44.851	0.310145	-0.00213517	268918	1444.53	1	12	0.00461612	0.000123058	0	-7.86372e-05	0.0265866	0.00195382	0.0266583	4.20306	1.44453e+06	1.96564e+07	1.97094e+07	-85.7969	0.0000000E+000	0.0000000E+000	0.0000000E+000	85.7969	0.0000000E+000	0.0000000E+000	0.0000000E+000	-85.7969	0.0000000E+000	0.0000000E+000	0.0000000E+000	-4.20306	0.0000000E+000	0.0000000E+000	0.0000000E+000	4.20306	13.6074	85.7969	8.79732e-06	-6.6221e-07	145255
0.0999041	38.1844	3.33918	38.3302	-4.99773	80.2575	0.310147	-0.000926078	477086	3620.72	1	12	0.00461563	0.000120418	0	-4.61415e-05	0.0259899	0.00227278	0.0260891	4.99773	3.62072e+06	4.1404e+07	4.1562e+07	-85.0023	0.0000000E+000	0.0000000E+000	0.0000000E+000	85.0023	0.0000000E+000	0.0000000E+000	0.0000000E+000	-85.0023	0.0000000E+000	0.0000000E+000	0.0000000E+000	-4.99773	0.0000000E+000	0.0000000E+000	0.0000000E+000	4.99773	11.4353	85.0023	1.61357e-05	-2.8722e-07	334904
0.0464052	39.3317	5.19833	39.6737	-7.52895	156.494	0.31015	0.000279886	659766	11326.9	1	12	0.00461859	0.000116414	0	-7.75397e-05	0.0249883	0.00330262	0.0252056	7.52895	1.13269e+07	8.57019e+07	8.64472e+07	-82.4711	0.0000000E+000	0.0000000E+000	0.0000000E+000	82.4711	0.0000000E+000	0.0000000E+000	0.0000000E+000	-82.4711	0.0000000E+000	0.0000000E+000	0.0000000E+000	-7.52895	0.0000000E+000	0.0000000E+000	0.0000000E+000	7.52895	7.56621	82.4711	-3.49171e-05	8.68068e-08	1.10813e+06
0.0215268	41.23	8.1331	42.0245	-11.159	320.723	0.310149	-0.000418136	909044	34048	1	12	0.00461651	0.000109853	0	-0.000315356	0.0233457	0.00460522	0.0237956	11.159	3.4048e+07	1.72603e+08	1.75929e+08	-78.841	0.0000000E+000	0.0000000E+000	0.0000000E+000	78.841	0.0000000E+000	0.0000000E+000	0.0000000E+000	-78.841	0.0000000E+000	0.0000000E+000	0.0000000E+000	-11.159	0.0000000E+000	0.0000000E+000	0.0000000E+000	11.159	5.06941	78.841	-0.000144947	-1.29684e-07	741742
0.0100092	44.291	13.7017	46.362	-17.1897	673.939	0.310144	-0.00124334	1.16051e+06	101361	1	12	0.00461804	9.96083e-05	0	-0.000501049	0.0206059	0.00637455	0.0215694	17.1897	1.01361e+08	3.27653e+08	3.42973e+08	-72.8103	0.0000000E+000	0.0000000E+000	0.0000000E+000	72.8103	0.0000000E+000	0.0000000E+000	0.0000000E+000	-72.8103	0.0000000E+000	0.0000000E+000	0.0000000E+000	-17.1897	0.0000000E+000	0.0000000E+000	0.0000000E+000	17.1897	3.23253	72.8103	-3.93355e-05	-3.85613e-07	249444