File: txt/17155_C03.mpt
EC-Lab ASCII FILE
Nb header lines : 64

Potentio Electrochemical Impedance Spectroscopy

Run on channel : 3 (SN 65921)
User :
CE vs. WE compliance from -10 V to 10 V
Electrode connection : standard
Potential control : Ewe
Ewe ctrl range : min = -10.00 V, max = 10.00 V
Safety Limits :
	Do not start on E overload
Acquisition started on : 09/04/2025 09:44:33.410
Technique started on : 09/04/2025 09:44:35.393
Loaded Setting File :  C:\Users\Celltest\OneDrive - store-dot.com\Documents\EC-Lab\Data\Gyutae\R270\17154_C02.mpr
Saved on :
	File : 17155_C03.mpr
	Directory : C:\Users\Celltest\OneDrive - store-dot.com\Documents\EC-Lab\Data\Gyutae\R270\
	Host : 169.254.61.224
Device : VMP-3e (SN .003165)
Address : USB
EC-LAB for windows v11.62 (software)
Internet server v27.00 (firmware)
Command interpretor v12.03 (firmware)
Electrode material :
Initial state :
Electrolyte :
Comments :
Electrode surface area : 0.001 cm²
Characteristic mass : 0.001 g
Equivalent Weight : 0.000 g/eq.
Density : 0.000 g/cm3
Volume (V) : 0.001 cm³
Cycle Definition : Charge/Discharge alternance
Mode                Single sine
E (V)               0.0000
vs.                 Eoc
tE (h:m:s)          0:00:0.0000
record              0
dI                  0.000
unit dI             mA
dt (s)              0.000
fi                  100.000
unit fi             kHz
ff                  10.000
unit ff             mHz
Nd                  6
Points              per decade
spacing             Logarithmic
Va (mV)             5.0
pw                  0.10
Na                  2
corr                0
E range min (V)     -10.000
E range max (V)     10.000
I Range             Auto
Bandwidth           5
nc cycles           0
goto Ns'            0
nr cycles           0
inc. cycle          0

freq/Hz	Re(Z)/Ohm	-Im(Z)/Ohm	|Z|/Ohm	Phase(Z)/deg	time/s	<Ewe>/V	<I>/mA	Cs/µF	Cp/µF	cycle number	I Range	|Ewe|/V	|I|/A	Ns	(Q-Qo)/mA.h	Re(Y)/Ohm-1	Im(Y)/Ohm-1	|Y|/Ohm-1	Phase(Y)/deg	Re(C)/nF	Im(C)/nF	|C|/nF	Phase(C)/deg	Re(M)	Im(M)	|M|	Phase(M)/deg	Re(Permittivity)	Im(Permittivity)	|Permittivity|	Phase(Permittivity)/deg	Re(Resistivity)/Ohm.cm	Im(Resistivity)/Ohm.cm	|Resistivity|/Ohm.cm	Phase(Resistivity)/deg	Re(Conductivity)/mS/cm	Im(Conductivity)/mS/cm	|Conductivity|/mS/cm	Phase(Conductivity)/deg	Tan(Delta)	Loss Angle(Delta)/deg	dq/mA.h	Pwe/W	Rwe/Ohm
100004	3.64397	2.25885	4.2873	-31.7943	1.98347	0.296662	-0.031642	0.704557	0.19558	1	10	0.00529745	0.00123561	0	-7.73349e-06	0.198247	0.122891	0.233247	31.7943	195.58	315.509	371.211	-58.2057	0.0000000E+000	0.0000000E+000	0.0000000E+000	58.2057	0.0000000E+000	0.0000000E+000	0.0000000E+000	-58.2057	0.0000000E+000	0.0000000E+000	0.0000000E+000	-31.7943	0.0000000E+000	0.0000000E+000	0.0000000E+000	31.7943	1.6132	58.2058	-7.73349e-06	-9.38698e-06	9375.55
46420.4	1.57492	1.85433	2.43288	-49.6581	3.59349	0.296685	0.00892539	1.84895	1.07413	1	9	0.00507634	0.00208656	0	-3.65325e-06	0.266083	0.313289	0.411035	49.6581	1074.13	912.28	1409.26	-40.3419	0.0000000E+000	0.0000000E+000	0.0000000E+000	40.3419	0.0000000E+000	0.0000000E+000	0.0000000E+000	-40.3419	0.0000000E+000	0.0000000E+000	0.0000000E+000	-49.6581	0.0000000E+000	0.0000000E+000	0.0000000E+000	49.6581	0.849319	40.3419	4.01678e-06	2.64803e-06	33240.6
21544.7	3.52035	1.11126	3.69158	-17.5192	4.46749	0.296595	0.00627752	6.64761	0.60238	1	9	0.00484004	0.0013111	0	-4.8327e-07	0.258322	0.0815437	0.270887	17.5192	602.38	1908.28	2001.1	-72.4808	0.0000000E+000	0.0000000E+000	0.0000000E+000	72.4808	0.0000000E+000	0.0000000E+000	0.0000000E+000	-72.4808	0.0000000E+000	0.0000000E+000	0.0000000E+000	-17.5192	0.0000000E+000	0.0000000E+000	0.0000000E+000	17.5192	3.1679	72.4808	2.35503e-06	1.86188e-06	47247.1
10002.2	3.97058	1.2732	4.16972	-17.779	5.05948	0.296613	0.00734039	12.4976	1.16522	1	9	0.0053498	0.00128301	0	1.48265e-06	0.228371	0.0732293	0.239824	17.779	1165.22	3633.83	3816.08	-72.221	0.0000000E+000	0.0000000E+000	0.0000000E+000	72.221	0.0000000E+000	0.0000000E+000	0.0000000E+000	-72.221	0.0000000E+000	0.0000000E+000	0.0000000E+000	-17.779	0.0000000E+000	0.0000000E+000	0.0000000E+000	17.779	3.11857	72.221	-1.20626e-07	2.17725e-06	40408.4
4641.49	4.3596	1.93529	4.76985	-23.9372	6.3407	0.296665	-0.00951859	17.7181	2.91676	1	10	0.00510569	0.00107041	0	-1.29267e-06	0.191618	0.0850623	0.20965	23.9372	2916.76	6570.53	7188.84	-66.0628	0.0000000E+000	0.0000000E+000	0.0000000E+000	66.0628	0.0000000E+000	0.0000000E+000	0.0000000E+000	-66.0628	0.0000000E+000	0.0000000E+000	0.0000000E+000	-23.9372	0.0000000E+000	0.0000000E+000	0.0000000E+000	23.9372	2.25268	66.0628	-1.6552e-06	-2.82383e-06	31166.9
2155.69	5.29843	1.98262	5.65722	-20.5153	7.27467	0.296669	-0.00871688	37.2388	4.57368	1	10	0.00488434	0.000863381	0	-3.16215e-06	0.165554	0.0619487	0.176765	20.5153	4573.68	12222.9	13050.6	-69.4847	0.0000000E+000	0.0000000E+000	0.0000000E+000	69.4847	0.0000000E+000	0.0000000E+000	0.0000000E+000	-69.4847	0.0000000E+000	0.0000000E+000	0.0000000E+000	-20.5153	0.0000000E+000	0.0000000E+000	0.0000000E+000	20.5153	2.67245	69.4847	-9.1614e-07	-2.58603e-06	34033.9
1000.32	6.28847	2.49572	6.76561	-21.6468	8.21067	0.296669	-0.00811841	63.7507	8.67487	1	10	0.0048024	0.000709825	0	-5.27451e-06	0.137382	0.0545233	0.147806	21.6468	8674.87	21858.1	23516.6	-68.3532	0.0000000E+000	0.0000000E+000	0.0000000E+000	68.3532	0.0000000E+000	0.0000000E+000	0.0000000E+000	-68.3532	0.0000000E+000	0.0000000E+000	0.0000000E+000	-21.6468	0.0000000E+000	0.0000000E+000	0.0000000E+000	21.6468	2.5197	68.3532	-5.30102e-07	-2.40848e-06	36542.8
463.961	7.55798	3.1463	8.18671	-22.6014	9.14518	0.296679	-0.00723653	109.028	16.1035	1	10	0.0047585	0.000581246	0	-7.11701e-06	0.112768	0.0469441	0.122149	22.6014	16103.5	38683.5	41901.5	-67.3986	0.0000000E+000	0.0000000E+000	0.0000000E+000	67.3986	0.0000000E+000	0.0000000E+000	0.0000000E+000	-67.3986	0.0000000E+000	0.0000000E+000	0.0000000E+000	-22.6014	0.0000000E+000	0.0000000E+000	0.0000000E+000	22.6014	2.40218	67.3986	-7.80438e-07	-2.14693e-06	40997.4
215.345	9.21885	4.01389	10.0548	-23.5283	10.0795	0.29668	-0.00752552	184.129	29.3432	1	10	0.00474364	0.00047178	0	-8.47982e-06	0.0911869	0.0397028	0.0994553	23.5283	29343.2	67393.6	73504.5	-66.4717	0.0000000E+000	0.0000000E+000	0.0000000E+000	66.4717	0.0000000E+000	0.0000000E+000	0.0000000E+000	-66.4717	0.0000000E+000	0.0000000E+000	0.0000000E+000	-23.5283	0.0000000E+000	0.0000000E+000	0.0000000E+000	23.5283	2.29674	66.4717	-7.01961e-07	-2.23267e-06	39423.2
100.032	11.5148	4.95859	12.5371	-23.298	11.0107	0.296681	-0.00747705	320.865	50.1934	1	10	0.00474266	0.00037829	0	-1.10561e-05	0.0732595	0.0315475	0.0797634	23.298	50193.4	116559	126907	-66.702	0.0000000E+000	0.0000000E+000	0.0000000E+000	66.702	0.0000000E+000	0.0000000E+000	0.0000000E+000	-66.702	0.0000000E+000	0.0000000E+000	0.0000000E+000	-23.298	0.0000000E+000	0.0000000E+000	0.0000000E+000	23.298	2.32219	66.702	-1.31323e-06	-2.2183e-06	39678.9
46.4415	14.4777	5.53337	15.4991	-20.9169	11.9445	0.296663	-0.00846334	619.332	78.9391	1	10	0.00473571	0.000305548	0	-1.3421e-05	0.0602681	0.0230345	0.06452	20.9169	78939	206538	221110	-69.0831	0.0000000E+000	0.0000000E+000	0.0000000E+000	69.0831	0.0000000E+000	0.0000000E+000	0.0000000E+000	-69.0831	0.0000000E+000	0.0000000E+000	0.0000000E+000	-20.9169	0.0000000E+000	0.0000000E+000	0.0000000E+000	20.9169	2.61643	69.0831	-1.24834e-06	-2.51076e-06	35052.8
21.5517	17.6622	5.29502	18.4388	-16.6884	13.0744	0.296686	-0.0125536	1394.67	115.011	1	11	0.00473253	0.000256662	0	-1.80163e-05	0.0519492	0.0155741	0.0542335	16.6884	115011	383634	400503	-73.3116	0.0000000E+000	0.0000000E+000	0.0000000E+000	73.3116	0.0000000E+000	0.0000000E+000	0.0000000E+000	-73.3116	0.0000000E+000	0.0000000E+000	0.0000000E+000	-16.6884	0.0000000E+000	0.0000000E+000	0.0000000E+000	16.6884	3.33562	73.3116	-2.19038e-06	-3.72448e-06	23633.5
10.0032	20.2922	4.50581	20.7864	-12.5192	14.0217	0.296688	-0.0121775	3531.08	165.919	1	11	0.00473404	0.000227747	0	-1.92145e-05	0.0469645	0.0104283	0.0481084	12.5192	165919	747224	765423	-77.4808	0.0000000E+000	0.0000000E+000	0.0000000E+000	77.4808	0.0000000E+000	0.0000000E+000	0.0000000E+000	-77.4808	0.0000000E+000	0.0000000E+000	0.0000000E+000	-12.5192	0.0000000E+000	0.0000000E+000	0.0000000E+000	12.5192	4.50356	77.4808	1.61366e-07	-3.61294e-06	24363.5
4.63925	22.2595	3.58906	22.547	-9.1594	14.8813	0.296684	-0.0119799	9558.53	242.202	1	11	0.00473086	0.000209822	0	-2.10766e-05	0.0437864	0.00706	0.0443519	9.1594	242202	1.50214e+06	1.52154e+06	-80.8406	0.0000000E+000	0.0000000E+000	0.0000000E+000	80.8406	0.0000000E+000	0.0000000E+000	0.0000000E+000	-80.8406	0.0000000E+000	0.0000000E+000	0.0000000E+000	-9.1594	0.0000000E+000	0.0000000E+000	0.0000000E+000	9.1594	6.20203	80.8406	1.3771e-06	-3.55425e-06	24765.1
2.15577	23.765	2.74721	23.9233	-6.59406	16.6068	0.296699	-0.010102	26873.6	354.379	1	11	0.00473856	0.000198073	0	-3.15707e-05	0.0415237	0.00480009	0.0418002	6.59406	354379	3.06559e+06	3.08601e+06	-83.4059	0.0000000E+000	0.0000000E+000	0.0000000E+000	83.4059	0.0000000E+000	0.0000000E+000	0.0000000E+000	-83.4059	0.0000000E+000	0.0000000E+000	0.0000000E+000	-6.59406	0.0000000E+000	0.0000000E+000	0.0000000E+000	6.59406	8.65061	83.4059	-6.90697e-06	-2.99724e-06	29370.4
1.00006	24.7893	2.1118	24.8791	-4.86926	21.2702	0.296704	-0.009465	75359.8	542.969	1	12	0.00473616	0.000190367	0	-3.95642e-05	0.0400493	0.00341179	0.0401944	4.86926	542969	6.37364e+06	6.39672e+06	-85.1307	0.0000000E+000	0.0000000E+000	0.0000000E+000	85.1307	0.0000000E+000	0.0000000E+000	0.0000000E+000	-85.1307	0.0000000E+000	0.0000000E+000	0.0000000E+000	-4.86926	0.0000000E+000	0.0000000E+000	0.0000000E+000	4.86926	11.7385	85.1307	-2.85935e-06	-2.8083e-06	31347.5
0.464091	25.4387	1.77785	25.5008	-3.99776	28.9549	0.296703	-0.00789711	192895	937.575	1	12	0.00474001	0.000185877	0	-4.27581e-05	0.039119	0.00273394	0.0392145	3.99776	937575	1.34155e+07	1.34482e+07	-86.0022	0.0000000E+000	0.0000000E+000	0.0000000E+000	86.0022	0.0000000E+000	0.0000000E+000	0.0000000E+000	-86.0022	0.0000000E+000	0.0000000E+000	0.0000000E+000	-3.99776	0.0000000E+000	0.0000000E+000	0.0000000E+000	3.99776	14.3087	86.0022	-3.91561e-06	-2.3431e-06	37571.1
0.215268	25.9624	1.96271	26.0365	-4.32323	45.4349	0.29671	-0.00505459	376691	2140.59	1	12	0.00473696	0.000181936	0	-9.20451e-05	0.0382984	0.00289529	0.0384077	4.32323	2.14059e+06	2.83153e+07	2.83961e+07	-85.6768	0.0000000E+000	0.0000000E+000	0.0000000E+000	85.6768	0.0000000E+000	0.0000000E+000	0.0000000E+000	-85.6768	0.0000000E+000	0.0000000E+000	0.0000000E+000	-4.32323	0.0000000E+000	0.0000000E+000	0.0000000E+000	4.32323	13.2278	85.6768	-3.3869e-05	-1.49975e-06	58701.1
0.0999041	26.64	2.74424	26.781	-5.8814	80.8414	0.296718	-0.00409341	580518	6095.45	1	12	0.004732	0.000176692	0	-0.000209624	0.0371434	0.00382621	0.0373399	5.8814	6.09545e+06	5.91723e+07	5.94854e+07	-84.1186	0.0000000E+000	0.0000000E+000	0.0000000E+000	84.1186	0.0000000E+000	0.0000000E+000	0.0000000E+000	-84.1186	0.0000000E+000	0.0000000E+000	0.0000000E+000	-5.8814	0.0000000E+000	0.0000000E+000	0.0000000E+000	5.8814	9.70762	84.1186	-6.34255e-05	-1.21459e-06	72486.8
0.0464052	27.7128	4.50399	28.0765	-9.23121	157.078	0.296713	-0.00403047	761475	19596	1	12	0.00473618	0.000168689	0	-0.000281042	0.0351558	0.00571364	0.035617	9.23121	1.9596e+07	1.20573e+08	1.22155e+08	-80.7688	0.0000000E+000	0.0000000E+000	0.0000000E+000	80.7688	0.0000000E+000	0.0000000E+000	0.0000000E+000	-80.7688	0.0000000E+000	0.0000000E+000	0.0000000E+000	-9.23121	0.0000000E+000	0.0000000E+000	0.0000000E+000	9.23121	6.15295	80.7688	-1.31402e-05	-1.19589e-06	73617.3
0.0215268	29.2679	7.25451	30.1536	-13.9211	321.307	0.296714	-0.00139558	1.01914e+06	58989	1	12	0.00473618	0.000157068	0	-5.04348e-05	0.0321895	0.00797866	0.0331635	13.9211	5.8989e+07	2.37988e+08	2.4519e+08	-76.0789	0.0000000E+000	0.0000000E+000	0.0000000E+000	76.0789	0.0000000E+000	0.0000000E+000	0.0000000E+000	-76.0789	0.0000000E+000	0.0000000E+000	0.0000000E+000	-13.9211	0.0000000E+000	0.0000000E+000	0.0000000E+000	13.9211	4.03445	76.0789	0.000157922	-4.14089e-07	212610
0.0100092	31.9841	12.7243	34.4222	-21.6943	674.521	0.296706	0.00015982	1.24965e+06	170757	1	12	0.00473692	0.000137612	0	0.000114334	0.0269933	0.0107388	0.029051	21.6943	1.70757e+08	4.29218e+08	4.61937e+08	-68.3057	0.0000000E+000	0.0000000E+000	0.0000000E+000	68.3057	0.0000000E+000	0.0000000E+000	0.0000000E+000	-68.3057	0.0000000E+000	0.0000000E+000	0.0000000E+000	-21.6943	0.0000000E+000	0.0000000E+000	0.0000000E+000	21.6943	2.51362	68.3057	6.24772e-07	4.74196e-08	1.8565e+06