File: txt/17156_R270_UA618_SOC00_C04.mpt
EC-Lab ASCII FILE
Nb header lines : 63

Potentio Electrochemical Impedance Spectroscopy

Run on channel : 4 (SN 66756)
User :
CE vs. WE compliance from -10 V to 10 V
Electrode connection : standard
Potential control : Ewe
Ewe ctrl range : min = -10.00 V, max = 10.00 V
Safety Limits :
	Do not start on E overload
Acquisition started on : 09/04/2025 09:44:47.877
Loaded Setting File :  C:\Users\Celltest\OneDrive - store-dot.com\Documents\EC-Lab\Data\Gyutae\R270\17155_C03.mpr
Saved on :
	File : 17156_C04.mpr
	Directory : C:\Users\Celltest\OneDrive - store-dot.com\Documents\EC-Lab\Data\Gyutae\R270\
	Host : 169.254.61.224
Device : VMP-3e (SN .003165)
Address : USB
EC-LAB for windows v11.62 (software)
Internet server v27.00 (firmware)
Command interpretor v12.03 (firmware)
Electrode material :
Initial state :
Electrolyte :
Comments :
Electrode surface area : 0.001 cm²
Characteristic mass : 0.001 g
Equivalent Weight : 0.000 g/eq.
Density : 0.000 g/cm3
Volume (V) : 0.001 cm³
Cycle Definition : Charge/Discharge alternance
Mode                Single sine
E (V)               0.0000
vs.                 Eoc
tE (h:m:s)          0:00:0.0000
record              0
dI                  0.000
unit dI             mA
dt (s)              0.000
fi                  100.000
unit fi             kHz
ff                  10.000
unit ff             mHz
Nd                  6
Points              per decade
spacing             Logarithmic
Va (mV)             5.0
pw                  0.10
Na                  2
corr                0
E range min (V)     -10.000
E range max (V)     10.000
I Range             Auto
Bandwidth           5
nc cycles           0
goto Ns'            0
nr cycles           0
inc. cycle          0

freq/Hz	Re(Z)/Ohm	-Im(Z)/Ohm	|Z|/Ohm	Phase(Z)/deg	time/s	<Ewe>/V	<I>/mA	Cs/µF	Cp/µF	cycle number	I Range	|Ewe|/V	|I|/A	Ns	(Q-Qo)/mA.h	Re(Y)/Ohm-1	Im(Y)/Ohm-1	|Y|/Ohm-1	Phase(Y)/deg	Re(C)/nF	Im(C)/nF	|C|/nF	Phase(C)/deg	Re(M)	Im(M)	|M|	Phase(M)/deg	Re(Permittivity)	Im(Permittivity)	|Permittivity|	Phase(Permittivity)/deg	Re(Resistivity)/Ohm.cm	Im(Resistivity)/Ohm.cm	|Resistivity|/Ohm.cm	Phase(Resistivity)/deg	Re(Conductivity)/mS/cm	Im(Conductivity)/mS/cm	|Conductivity|/mS/cm	Phase(Conductivity)/deg	Tan(Delta)	Loss Angle(Delta)/deg	dq/mA.h	Pwe/W	Rwe/Ohm
100004	3.10835	0.544197	3.15563	-9.93045	2.1745	0.290374	-0.0850605	2.92447	0.0869736	1	9	0.00452375	0.00143355	0	-1.6849e-05	0.312146	0.0546492	0.316894	9.93045	86.9736	496.777	504.333	-80.0696	0.0000000E+000	0.0000000E+000	0.0000000E+000	80.0696	0.0000000E+000	0.0000000E+000	0.0000000E+000	-80.0696	0.0000000E+000	0.0000000E+000	0.0000000E+000	-9.93045	0.0000000E+000	0.0000000E+000	0.0000000E+000	9.93045	5.71181	80.0696	-1.6849e-05	-2.46993e-05	3413.73
46420.4	3.37464	0.653501	3.43734	-10.9597	3.33048	0.290394	-0.0798575	5.24645	0.189633	1	9	0.00501229	0.00145819	0	-4.57089e-05	0.285617	0.0553099	0.290923	10.9597	189.633	979.255	997.447	-79.0403	0.0000000E+000	0.0000000E+000	0.0000000E+000	79.0403	0.0000000E+000	0.0000000E+000	0.0000000E+000	-79.0403	0.0000000E+000	0.0000000E+000	0.0000000E+000	-10.9597	0.0000000E+000	0.0000000E+000	0.0000000E+000	10.9597	5.16394	79.0403	-1.50388e-05	-2.31901e-05	3636.4
21544.7	3.69262	0.820402	3.78266	-12.5261	4.06348	0.290393	-0.0770975	9.00437	0.423558	1	9	0.00487433	0.0012886	0	-5.8333e-05	0.258072	0.0573367	0.264364	12.5261	423.558	1906.43	1952.91	-77.4738	0.0000000E+000	0.0000000E+000	0.0000000E+000	77.4738	0.0000000E+000	0.0000000E+000	0.0000000E+000	-77.4738	0.0000000E+000	0.0000000E+000	0.0000000E+000	-12.5261	0.0000000E+000	0.0000000E+000	0.0000000E+000	12.5261	4.50099	77.4738	-6.69045e-06	-2.23886e-05	3766.57
10002.2	4.09403	1.03075	4.22179	-14.1316	4.79749	0.290389	-0.0774891	15.4372	0.920205	1	9	0.00495107	0.00117274	0	-7.30818e-05	0.229698	0.057831	0.236866	14.1316	920.205	3654.95	3769.01	-75.8684	0.0000000E+000	0.0000000E+000	0.0000000E+000	75.8684	0.0000000E+000	0.0000000E+000	0.0000000E+000	-75.8684	0.0000000E+000	0.0000000E+000	0.0000000E+000	-14.1316	0.0000000E+000	0.0000000E+000	0.0000000E+000	14.1316	3.97188	75.8684	-9.22109e-06	-2.2502e-05	3747.48
4641.49	4.62681	1.35861	4.82215	-16.3643	5.85567	0.290556	-0.0172748	25.2387	2.00344	1	10	0.00487121	0.00101017	0	-7.99428e-05	0.198975	0.0584271	0.207376	16.3643	2003.44	6822.8	7110.86	-73.6357	0.0000000E+000	0.0000000E+000	0.0000000E+000	73.6357	0.0000000E+000	0.0000000E+000	0.0000000E+000	-73.6357	0.0000000E+000	0.0000000E+000	0.0000000E+000	-16.3643	0.0000000E+000	0.0000000E+000	0.0000000E+000	16.3643	3.40553	73.6357	-3.12209e-06	-5.0193e-06	16819.6
2155.69	5.30245	1.77483	5.5916	-18.5063	6.78969	0.290554	-0.0176068	41.5985	4.19099	1	10	0.00484205	0.00086595	0	-8.48243e-05	0.169592	0.0567653	0.17884	18.5063	4190.99	12521	13203.8	-71.4937	0.0000000E+000	0.0000000E+000	0.0000000E+000	71.4937	0.0000000E+000	0.0000000E+000	0.0000000E+000	-71.4937	0.0000000E+000	0.0000000E+000	0.0000000E+000	-18.5063	0.0000000E+000	0.0000000E+000	0.0000000E+000	18.5063	2.98759	71.4937	-2.01634e-06	-5.11572e-06	16502.4
1000.32	6.19901	2.31494	6.61715	-20.4775	7.72671	0.290556	-0.016982	68.7291	8.41162	1	10	0.00479366	0.00072443	0	-8.93478e-05	0.141573	0.0528687	0.151122	20.4775	8411.62	22524.8	24044.2	-69.5225	0.0000000E+000	0.0000000E+000	0.0000000E+000	69.5225	0.0000000E+000	0.0000000E+000	0.0000000E+000	-69.5225	0.0000000E+000	0.0000000E+000	0.0000000E+000	-20.4775	0.0000000E+000	0.0000000E+000	0.0000000E+000	20.4775	2.67782	69.5225	-1.79718e-06	-4.93423e-06	17109.6
463.961	7.35102	3.03871	7.95432	-22.4589	8.66119	0.290551	-0.0166444	112.889	16.4749	1	10	0.00476626	0.000599204	0	-9.36651e-05	0.116183	0.0480267	0.125718	22.4589	16474.9	39854.8	43125.7	-67.5411	0.0000000E+000	0.0000000E+000	0.0000000E+000	67.5411	0.0000000E+000	0.0000000E+000	0.0000000E+000	-67.5411	0.0000000E+000	0.0000000E+000	0.0000000E+000	-22.4589	0.0000000E+000	0.0000000E+000	0.0000000E+000	22.4589	2.41913	67.5411	-1.97688e-06	-4.83606e-06	17456.4
215.345	8.84272	4.0694	9.73415	-24.7118	9.59546	0.290543	-0.0168701	181.617	31.741	1	10	0.00474406	0.000487363	0	-9.74313e-05	0.0933232	0.0429471	0.102731	24.7118	31741	68972.5	75925.6	-65.2882	0.0000000E+000	0.0000000E+000	0.0000000E+000	65.2882	0.0000000E+000	0.0000000E+000	0.0000000E+000	-65.2882	0.0000000E+000	0.0000000E+000	0.0000000E+000	-24.7118	0.0000000E+000	0.0000000E+000	0.0000000E+000	24.7118	2.17298	65.2882	-1.99213e-06	-4.90149e-06	17222.3
100.032	11.1422	5.38346	12.3746	-25.788	10.5267	0.290543	-0.0166724	295.543	55.9348	1	10	0.00473917	0.000382976	0	-0.000102306	0.0727629	0.0351561	0.0808109	25.788	55934.8	115769	128573	-64.2121	0.0000000E+000	0.0000000E+000	0.0000000E+000	64.2121	0.0000000E+000	0.0000000E+000	0.0000000E+000	-64.2121	0.0000000E+000	0.0000000E+000	0.0000000E+000	-25.788	0.0000000E+000	0.0000000E+000	0.0000000E+000	25.788	2.06971	64.2121	-2.44469e-06	-4.84405e-06	17426.6
46.4415	14.5531	6.28652	15.8528	-23.363	11.4605	0.290533	-0.0189217	545.134	85.7254	1	10	0.00473905	0.00029894	0	-0.000106921	0.0579083	0.0250147	0.0630802	23.363	85725.4	198452	216176	-66.637	0.0000000E+000	0.0000000E+000	0.0000000E+000	66.637	0.0000000E+000	0.0000000E+000	0.0000000E+000	-66.637	0.0000000E+000	0.0000000E+000	0.0000000E+000	-23.363	0.0000000E+000	0.0000000E+000	0.0000000E+000	23.363	2.31497	66.637	-2.53336e-06	-5.49739e-06	15354.5
21.5517	18.3165	6.18808	19.3335	-18.6672	12.5894	0.290552	-0.0144622	1193.39	122.257	1	11	0.00473316	0.000244816	0	-0.000112431	0.0490027	0.0165552	0.0517236	18.6672	122257	361874	381968	-71.3328	0.0000000E+000	0.0000000E+000	0.0000000E+000	71.3328	0.0000000E+000	0.0000000E+000	0.0000000E+000	-71.3328	0.0000000E+000	0.0000000E+000	0.0000000E+000	-18.6672	0.0000000E+000	0.0000000E+000	0.0000000E+000	18.6672	2.95996	71.3328	-2.14451e-06	-4.20203e-06	20090.4
10.0032	21.4195	5.26659	22.0575	-13.8137	13.5357	0.290552	-0.0139114	3021.01	172.226	1	11	0.00473068	0.00021447	0	-0.000113995	0.0440248	0.0108247	0.045336	13.8137	172226	700452	721314	-76.1863	0.0000000E+000	0.0000000E+000	0.0000000E+000	76.1863	0.0000000E+000	0.0000000E+000	0.0000000E+000	-76.1863	0.0000000E+000	0.0000000E+000	0.0000000E+000	-13.8137	0.0000000E+000	0.0000000E+000	0.0000000E+000	13.8137	4.06706	76.1863	-1.01898e-07	-4.04198e-06	20885.9
4.63925	23.7673	4.21524	24.1382	-10.0571	14.3953	0.290576	-0.0128266	8138.61	248.191	1	11	0.00473566	0.00019619	0	-0.000116528	0.0407916	0.00723459	0.0414282	10.0571	248191	1.3994e+06	1.42124e+06	-79.9429	0.0000000E+000	0.0000000E+000	0.0000000E+000	79.9429	0.0000000E+000	0.0000000E+000	0.0000000E+000	-79.9429	0.0000000E+000	0.0000000E+000	0.0000000E+000	-10.0571	0.0000000E+000	0.0000000E+000	0.0000000E+000	10.0571	5.63841	79.9429	1.08903e-06	-3.72712e-06	22654.1
2.15577	25.5465	3.2753	25.7556	-7.306	16.1208	0.290581	-0.0110212	22540.7	364.524	1	11	0.0047406	0.000184061	0	-0.000125979	0.0385113	0.0049375	0.0388265	7.306	364524	2.84319e+06	2.86646e+06	-82.694	0.0000000E+000	0.0000000E+000	0.0000000E+000	82.694	0.0000000E+000	0.0000000E+000	0.0000000E+000	-82.694	0.0000000E+000	0.0000000E+000	0.0000000E+000	-7.306	0.0000000E+000	0.0000000E+000	0.0000000E+000	7.306	7.79974	82.694	-6.93604e-06	-3.20255e-06	26365.7
1.00006	26.7882	2.5222	26.9067	-5.37874	20.7842	0.290584	-0.0100858	63097.6	554.437	1	12	0.00473848	0.000176108	0	-0.000139138	0.0370019	0.00348385	0.0371655	5.37874	554437	5.88865e+06	5.9147e+06	-84.6213	0.0000000E+000	0.0000000E+000	0.0000000E+000	84.6213	0.0000000E+000	0.0000000E+000	0.0000000E+000	-84.6213	0.0000000E+000	0.0000000E+000	0.0000000E+000	-5.37874	0.0000000E+000	0.0000000E+000	0.0000000E+000	5.37874	10.621	84.6213	-6.04036e-06	-2.93077e-06	28811.3
0.464091	27.5976	2.06875	27.6751	-4.28693	28.4689	0.290589	-0.00866359	165772	926.291	1	12	0.0047409	0.000171306	0	-0.000141476	0.0360325	0.00270104	0.0361336	4.28693	926292	1.2357e+07	1.23916e+07	-85.7131	0.0000000E+000	0.0000000E+000	0.0000000E+000	85.7131	0.0000000E+000	0.0000000E+000	0.0000000E+000	-85.7131	0.0000000E+000	0.0000000E+000	0.0000000E+000	-4.28693	0.0000000E+000	0.0000000E+000	0.0000000E+000	4.28693	13.3403	85.7131	-2.0915e-06	-2.51755e-06	33541.5
0.215268	28.2367	2.18017	28.3207	-4.41509	44.949	0.290591	-0.00593658	339117	2009.67	1	12	0.00474191	0.000167436	0	-0.000181783	0.0352051	0.00271821	0.0353099	4.41509	2.00967e+06	2.60283e+07	2.61058e+07	-85.5849	0.0000000E+000	0.0000000E+000	0.0000000E+000	85.5849	0.0000000E+000	0.0000000E+000	0.0000000E+000	-85.5849	0.0000000E+000	0.0000000E+000	0.0000000E+000	-4.41509	0.0000000E+000	0.0000000E+000	0.0000000E+000	4.41509	12.9516	85.5849	-2.87677e-05	-1.72512e-06	48949.2
0.0999041	28.9766	2.88602	29.12	-5.6878	80.3555	0.290589	-0.00441307	551998	5421.94	1	12	0.00473922	0.000162748	0	-0.000302173	0.0341716	0.00340344	0.0343407	5.6878	5.42194e+06	5.44381e+07	5.47074e+07	-84.3122	0.0000000E+000	0.0000000E+000	0.0000000E+000	84.3122	0.0000000E+000	0.0000000E+000	0.0000000E+000	-84.3122	0.0000000E+000	0.0000000E+000	0.0000000E+000	-5.6878	0.0000000E+000	0.0000000E+000	0.0000000E+000	5.6878	10.0403	84.3122	-6.99803e-05	-1.28239e-06	65847.5
0.0464052	30.2068	4.54232	30.5465	-8.55172	156.592	0.290593	-0.00400294	755050	16695.9	1	12	0.00474021	0.000155181	0	-0.000426461	0.0323731	0.00486807	0.032737	8.55172	1.66959e+07	1.11029e+08	1.12278e+08	-81.4483	0.0000000E+000	0.0000000E+000	0.0000000E+000	81.4483	0.0000000E+000	0.0000000E+000	0.0000000E+000	-81.4483	0.0000000E+000	0.0000000E+000	0.0000000E+000	-8.55172	0.0000000E+000	0.0000000E+000	0.0000000E+000	8.55172	6.65008	81.4483	-4.89241e-05	-1.16323e-06	72594.8
0.0215268	31.7493	7.17916	32.5509	-12.7414	320.821	0.290588	-0.00212466	1.02983e+06	50094.3	1	12	0.00474217	0.000145685	0	-0.000277931	0.0299646	0.0067756	0.0307211	12.7414	5.00944e+07	2.21539e+08	2.27132e+08	-77.2586	0.0000000E+000	0.0000000E+000	0.0000000E+000	77.2586	0.0000000E+000	0.0000000E+000	0.0000000E+000	-77.2586	0.0000000E+000	0.0000000E+000	0.0000000E+000	-12.7414	0.0000000E+000	0.0000000E+000	0.0000000E+000	12.7414	4.42243	77.2586	0.000123705	-6.17401e-07	136770
0.0100092	34.4212	12.0652	36.4745	-19.3164	674.037	0.290591	-3.86808e-05	1.31791e+06	144204	1	12	0.00474028	0.000129961	0	4.93332e-05	0.025873	0.00906893	0.0274164	19.3164	1.44204e+08	4.11405e+08	4.35946e+08	-70.6836	0.0000000E+000	0.0000000E+000	0.0000000E+000	70.6836	0.0000000E+000	0.0000000E+000	0.0000000E+000	-70.6836	0.0000000E+000	0.0000000E+000	0.0000000E+000	-19.3164	0.0000000E+000	0.0000000E+000	0.0000000E+000	19.3164	2.85293	70.6836	0.000131531	-1.12403e-08	7.51254e+06