File: txt/17153_C01.mpt
EC-Lab ASCII FILE
Nb header lines : 64

Potentio Electrochemical Impedance Spectroscopy

Run on channel : 1 (SN 66354)
User :
CE vs. WE compliance from -10 V to 10 V
Electrode connection : standard
Potential control : Ewe
Ewe ctrl range : min = -10.00 V, max = 10.00 V
Safety Limits :
	Do not start on E overload
Acquisition started on : 09/04/2025 09:43:57.907
Technique started on : 09/04/2025 09:43:59.623
Loaded Setting File :  C:\Users\Celltest\OneDrive - store-dot.com\Documents\EC-Lab\Data\Gyutae\EIS_SOC0_C01.mpr
Saved on :
	File : 17153_C01.mpr
	Directory : C:\Users\Celltest\OneDrive - store-dot.com\Documents\EC-Lab\Data\Gyutae\R270\
	Host : 169.254.61.224
Device : VMP-3e (SN .003165)
Address : USB
EC-LAB for windows v11.62 (software)
Internet server v27.00 (firmware)
Command interpretor v12.03 (firmware)
Electrode material :
Initial state :
Electrolyte :
Comments :
Electrode surface area : 0.001 cm²
Characteristic mass : 0.001 g
Equivalent Weight : 0.000 g/eq.
Density : 0.000 g/cm3
Volume (V) : 0.001 cm³
Cycle Definition : Charge/Discharge alternance
Mode                Single sine
E (V)               0.0000
vs.                 Eoc
tE (h:m:s)          0:00:0.0000
record              0
dI                  0.000
unit dI             mA
dt (s)              0.000
fi                  100.000
unit fi             kHz
ff                  10.000
unit ff             mHz
Nd                  6
Points              per decade
spacing             Logarithmic
Va (mV)             5.0
pw                  0.10
Na                  2
corr                0
E range min (V)     -10.000
E range max (V)     10.000
I Range             Auto
Bandwidth           5
nc cycles           0
goto Ns'            0
nr cycles           0
inc. cycle          0

freq/Hz	Re(Z)/Ohm	-Im(Z)/Ohm	|Z|/Ohm	Phase(Z)/deg	time/s	<Ewe>/V	<I>/mA	Cs/µF	Cp/µF	cycle number	I Range	|Ewe|/V	|I|/A	Ns	(Q-Qo)/mA.h	Re(Y)/Ohm-1	Im(Y)/Ohm-1	|Y|/Ohm-1	Phase(Y)/deg	Re(C)/nF	Im(C)/nF	|C|/nF	Phase(C)/deg	Re(M)	Im(M)	|M|	Phase(M)/deg	Re(Permittivity)	Im(Permittivity)	|Permittivity|	Phase(Permittivity)/deg	Re(Resistivity)/Ohm.cm	Im(Resistivity)/Ohm.cm	|Resistivity|/Ohm.cm	Phase(Resistivity)/deg	Re(Conductivity)/mS/cm	Im(Conductivity)/mS/cm	|Conductivity|/mS/cm	Phase(Conductivity)/deg	Tan(Delta)	Loss Angle(Delta)/deg	dq/mA.h	Pwe/W	Rwe/Ohm
100004	1.09017	0.23127	1.11443	-11.9772	1.71649	0.279787	0.0805021	6.88151	0.296358	1	9	0.00468393	0.00420298	0	1.53585e-05	0.877784	0.186214	0.897318	11.9772	296.358	1396.98	1428.07	-78.0228	0.0000000E+000	0.0000000E+000	0.0000000E+000	78.0228	0.0000000E+000	0.0000000E+000	0.0000000E+000	-78.0228	0.0000000E+000	0.0000000E+000	0.0000000E+000	-11.9772	0.0000000E+000	0.0000000E+000	0.0000000E+000	11.9772	4.71384	78.0228	1.53585e-05	2.25235e-05	3475.53
46420.4	1.2253	0.343778	1.27262	-15.6723	2.59148	0.279801	0.0828305	9.97317	0.727771	1	9	0.00513867	0.00403788	0	3.09303e-05	0.756569	0.212267	0.785783	15.6723	727.772	2593.94	2694.1	-74.3277	0.0000000E+000	0.0000000E+000	0.0000000E+000	74.3277	0.0000000E+000	0.0000000E+000	0.0000000E+000	-74.3277	0.0000000E+000	0.0000000E+000	0.0000000E+000	-15.6723	0.0000000E+000	0.0000000E+000	0.0000000E+000	15.6723	3.56423	74.3277	1.07215e-05	2.3176e-05	3377.99
21544.7	1.40452	0.456185	1.47675	-17.9937	3.46548	0.279793	0.0817501	16.1934	1.54528	1	9	0.00532702	0.00360727	0	4.12393e-05	0.644044	0.209184	0.677164	17.9937	1545.28	4757.69	5002.35	-72.0063	0.0000000E+000	0.0000000E+000	0.0000000E+000	72.0063	0.0000000E+000	0.0000000E+000	0.0000000E+000	-72.0063	0.0000000E+000	0.0000000E+000	0.0000000E+000	-17.9937	0.0000000E+000	0.0000000E+000	0.0000000E+000	17.9937	3.07884	72.0063	5.49546e-06	2.28731e-05	3422.54
10002.2	1.63467	0.593204	1.73898	-19.9453	4.3395	0.279796	0.0850471	26.8237	3.12133	1	9	0.00537792	0.00309257	0	5.95766e-05	0.540558	0.196162	0.57505	19.9453	3121.33	8601.33	9150.17	-70.0547	0.0000000E+000	0.0000000E+000	0.0000000E+000	70.0547	0.0000000E+000	0.0000000E+000	0.0000000E+000	-70.0547	0.0000000E+000	0.0000000E+000	0.0000000E+000	-19.9453	0.0000000E+000	0.0000000E+000	0.0000000E+000	19.9453	2.75567	70.0547	7.4335e-06	2.37959e-05	3289.9
4641.49	1.9343	0.768735	2.08146	-21.674	5.76469	0.27979	0.0723061	44.6053	6.08419	1	9	0.00518361	0.00249037	0	8.78058e-05	0.446465	0.177435	0.480431	21.674	6084.19	15309.1	16473.8	-68.326	0.0000000E+000	0.0000000E+000	0.0000000E+000	68.326	0.0000000E+000	0.0000000E+000	0.0000000E+000	-68.326	0.0000000E+000	0.0000000E+000	0.0000000E+000	-21.674	0.0000000E+000	0.0000000E+000	0.0000000E+000	21.674	2.51622	68.326	1.66952e-05	2.02305e-05	3869.52
2155.69	2.31126	1.00191	2.51907	-23.4364	7.14471	0.27979	0.0751747	73.6893	11.6569	1	9	0.0051297	0.00203634	0	0.000115553	0.364222	0.157887	0.396971	23.4364	11656.9	26890.6	29308.5	-66.5636	0.0000000E+000	0.0000000E+000	0.0000000E+000	66.5636	0.0000000E+000	0.0000000E+000	0.0000000E+000	-66.5636	0.0000000E+000	0.0000000E+000	0.0000000E+000	-23.4364	0.0000000E+000	0.0000000E+000	0.0000000E+000	23.4364	2.30685	66.5636	1.62504e-05	2.10331e-05	3721.86
1000.32	2.77148	1.31957	3.06958	-25.4602	8.0817	0.279786	0.0768325	120.573	22.282	1	9	0.00512237	0.00166875	0	0.000134527	0.294139	0.140047	0.325777	25.4602	22282	46798.7	51832.4	-64.5398	0.0000000E+000	0.0000000E+000	0.0000000E+000	64.5398	0.0000000E+000	0.0000000E+000	0.0000000E+000	-64.5398	0.0000000E+000	0.0000000E+000	0.0000000E+000	-25.4602	0.0000000E+000	0.0000000E+000	0.0000000E+000	25.4602	2.10029	64.5398	7.83649e-06	2.14967e-05	3641.51
463.961	3.41322	1.83376	3.87463	-28.247	9.27022	0.279799	-0.00166078	187.066	41.9007	1	10	0.00498444	0.00128643	0	0.000139484	0.227355	0.122147	0.258089	28.247	41900.7	77990.7	88533.7	-61.753	0.0000000E+000	0.0000000E+000	0.0000000E+000	61.753	0.0000000E+000	0.0000000E+000	0.0000000E+000	-61.753	0.0000000E+000	0.0000000E+000	0.0000000E+000	-28.247	0.0000000E+000	0.0000000E+000	0.0000000E+000	28.247	1.86132	61.753	-2.607e-07	-4.64685e-07	168474
215.345	4.42623	2.57799	5.12226	-30.218	10.2044	0.279784	-0.00182105	286.685	72.618	1	10	0.00488248	0.000953188	0	0.000137695	0.168698	0.0982558	0.195226	30.218	72618	124680	144286	-59.782	0.0000000E+000	0.0000000E+000	0.0000000E+000	59.782	0.0000000E+000	0.0000000E+000	0.0000000E+000	-59.782	0.0000000E+000	0.0000000E+000	0.0000000E+000	-30.218	0.0000000E+000	0.0000000E+000	0.0000000E+000	30.218	1.71693	59.782	-8.58586e-07	-5.09499e-07	153639
100.032	6.0579	3.26986	6.88405	-28.3588	11.1357	0.279797	-0.00188069	486.577	109.78	1	10	0.00482437	0.000700804	0	0.000138461	0.12783	0.0689988	0.145263	28.3588	109780	203383	231120	-61.6412	0.0000000E+000	0.0000000E+000	0.0000000E+000	61.6412	0.0000000E+000	0.0000000E+000	0.0000000E+000	-61.6412	0.0000000E+000	0.0000000E+000	0.0000000E+000	-28.3588	0.0000000E+000	0.0000000E+000	0.0000000E+000	28.3588	1.85265	61.6412	5.4996e-07	-5.2621e-07	148774
46.4415	8.12503	3.3774	8.79903	-22.5716	12.0695	0.279796	-0.00216394	1014.68	149.495	1	10	0.00481405	0.000547112	0	0.000139018	0.104943	0.0436227	0.113649	22.5716	149495	359641	389474	-67.4284	0.0000000E+000	0.0000000E+000	0.0000000E+000	67.4284	0.0000000E+000	0.0000000E+000	0.0000000E+000	-67.4284	0.0000000E+000	0.0000000E+000	0.0000000E+000	-22.5716	0.0000000E+000	0.0000000E+000	0.0000000E+000	22.5716	2.40571	67.4284	1.03777e-07	-6.05461e-07	129300
21.5517	9.85791	2.8701	10.2672	-16.2328	12.9544	0.279792	-0.00456409	2573	201.062	1	10	0.00479146	0.000466676	0	0.000138492	0.0935145	0.0272265	0.0973973	16.2328	201062	690585	719259	-73.7672	0.0000000E+000	0.0000000E+000	0.0000000E+000	73.7672	0.0000000E+000	0.0000000E+000	0.0000000E+000	-73.7672	0.0000000E+000	0.0000000E+000	0.0000000E+000	-16.2328	0.0000000E+000	0.0000000E+000	0.0000000E+000	16.2328	3.43469	73.7672	6.99104e-08	-1.277e-06	61303
10.0032	11.1813	2.20469	11.3966	-11.1543	13.8997	0.279786	-0.00277143	7216.6	270.072	1	10	0.00481049	0.0004221	0	0.000140255	0.0860881	0.0169746	0.0877456	11.1543	270072	1.3697e+06	1.39607e+06	-78.8457	0.0000000E+000	0.0000000E+000	0.0000000E+000	78.8457	0.0000000E+000	0.0000000E+000	0.0000000E+000	-78.8457	0.0000000E+000	0.0000000E+000	0.0000000E+000	-11.1543	0.0000000E+000	0.0000000E+000	0.0000000E+000	11.1543	5.07159	78.8457	1.26094e-06	-7.75409e-07	100954
4.63925	12.0668	1.61085	12.1738	-7.60371	14.9643	0.279809	-0.00429259	21296.9	372.883	1	11	0.00480921	0.000395044	0	0.000141205	0.081421	0.0108693	0.0821433	7.60371	372882	2.79324e+06	2.81802e+06	-82.3963	0.0000000E+000	0.0000000E+000	0.0000000E+000	82.3963	0.0000000E+000	0.0000000E+000	0.0000000E+000	-82.3963	0.0000000E+000	0.0000000E+000	0.0000000E+000	-7.60371	0.0000000E+000	0.0000000E+000	0.0000000E+000	7.60371	7.49095	82.3963	6.91051e-07	-1.20111e-06	65184.3
2.15577	12.6363	1.18484	12.6917	-5.3567	16.6898	0.279815	-0.00288984	62309.9	543.051	1	11	0.00480744	0.000378787	0	0.00013162	0.0784476	0.00735567	0.0787917	5.3567	543051	5.79159e+06	5.817e+06	-84.6433	0.0000000E+000	0.0000000E+000	0.0000000E+000	84.6433	0.0000000E+000	0.0000000E+000	0.0000000E+000	-84.6433	0.0000000E+000	0.0000000E+000	0.0000000E+000	-5.3567	0.0000000E+000	0.0000000E+000	0.0000000E+000	5.3567	10.6649	84.6433	-2.22494e-06	-8.08621e-07	96827.3
1.00006	13.0013	0.950257	13.0359	-4.18029	20.3032	0.279817	-0.00366185	167476	889.916	1	11	0.00481105	0.00036906	0	0.000148565	0.076507	0.00559187	0.076711	4.18029	889917	1.21757e+07	1.22082e+07	-85.8197	0.0000000E+000	0.0000000E+000	0.0000000E+000	85.8197	0.0000000E+000	0.0000000E+000	0.0000000E+000	-85.8197	0.0000000E+000	0.0000000E+000	0.0000000E+000	-4.18029	0.0000000E+000	0.0000000E+000	0.0000000E+000	4.18029	13.6818	85.8197	1.01131e-05	-1.02465e-06	76414.1
0.464091	13.2861	0.895405	13.3163	-3.85556	27.9878	0.279812	-3.96766e-05	382999	1731.69	1	11	0.00481139	0.000361316	0	0.000147446	0.0749261	0.00504956	0.075096	3.85556	1.7317e+06	2.56951e+07	2.57534e+07	-86.1444	0.0000000E+000	0.0000000E+000	0.0000000E+000	86.1444	0.0000000E+000	0.0000000E+000	0.0000000E+000	-86.1444	0.0000000E+000	0.0000000E+000	0.0000000E+000	-3.85556	0.0000000E+000	0.0000000E+000	0.0000000E+000	3.85556	14.8381	86.1444	-7.87493e-06	-1.1102e-08	7.05232e+06
0.215268	13.5197	1.13397	13.5672	-4.79448	44.4678	0.279816	0.000270589	651988	4554.74	1	11	0.0048133	0.000354776	0	7.47449e-05	0.0734494	0.00616059	0.0737073	4.79448	4.55474e+06	5.43037e+07	5.44943e+07	-85.2055	0.0000000E+000	0.0000000E+000	0.0000000E+000	85.2055	0.0000000E+000	0.0000000E+000	0.0000000E+000	-85.2055	0.0000000E+000	0.0000000E+000	0.0000000E+000	-4.79448	0.0000000E+000	0.0000000E+000	0.0000000E+000	4.79448	11.9225	85.2055	-4.49642e-05	7.57152e-08	1.0341e+06
0.0999041	13.924	1.83144	14.0439	-7.49317	79.8733	0.279812	-0.00325436	869850	14792.9	1	11	0.00481116	0.00034258	0	6.43761e-06	0.0705972	0.00928574	0.0712053	7.49317	1.47929e+07	1.12467e+08	1.13435e+08	-82.5068	0.0000000E+000	0.0000000E+000	0.0000000E+000	82.5068	0.0000000E+000	0.0000000E+000	0.0000000E+000	-82.5068	0.0000000E+000	0.0000000E+000	0.0000000E+000	-7.49317	0.0000000E+000	0.0000000E+000	0.0000000E+000	7.49317	7.60275	82.5068	-1.9651e-05	-9.10609e-07	85980.6
0.0464052	14.47	3.14696	14.8082	-12.2697	156.11	0.279815	-0.00147842	1.08984e+06	49219.7	1	11	0.0048115	0.000324921	0	0.000217085	0.0659876	0.0143511	0.0675301	12.2697	4.92197e+07	2.26316e+08	2.31607e+08	-77.7303	0.0000000E+000	0.0000000E+000	0.0000000E+000	77.7303	0.0000000E+000	0.0000000E+000	0.0000000E+000	-77.7303	0.0000000E+000	0.0000000E+000	0.0000000E+000	-12.2697	0.0000000E+000	0.0000000E+000	0.0000000E+000	12.2697	4.59808	77.7303	0.000169246	-4.13683e-07	189267
0.0215268	15.5935	5.58199	16.5625	-19.6958	366.894	0.279811	0.000326678	1.3245e+06	150446	1	12	0.00481042	0.000290441	0	0.000703324	0.0568451	0.0203488	0.0603774	19.6958	1.50446e+08	4.20275e+08	4.46391e+08	-70.3042	0.0000000E+000	0.0000000E+000	0.0000000E+000	70.3042	0.0000000E+000	0.0000000E+000	0.0000000E+000	-70.3042	0.0000000E+000	0.0000000E+000	0.0000000E+000	-19.6958	0.0000000E+000	0.0000000E+000	0.0000000E+000	19.6958	2.79354	70.3042	0.000216509	9.1408e-08	856535
0.0100092	17.5246	9.83835	20.0974	-29.31	720.111	0.279807	0.000720035	1.61622e+06	387317	1	12	0.00481237	0.000239453	0	4.70028e-05	0.043388	0.0243582	0.0497578	29.31	3.87317e+08	6.89909e+08	7.91194e+08	-60.69	0.0000000E+000	0.0000000E+000	0.0000000E+000	60.69	0.0000000E+000	0.0000000E+000	0.0000000E+000	-60.69	0.0000000E+000	0.0000000E+000	0.0000000E+000	-29.31	0.0000000E+000	0.0000000E+000	0.0000000E+000	29.31	1.78125	60.69	-0.000555709	2.01471e-07	388602