File: txt/17154_R270_UA618_SOC00_C02.mpt
EC-Lab ASCII FILE
Nb header lines : 63

Potentio Electrochemical Impedance Spectroscopy

Run on channel : 2 (SN 66139)
User :
CE vs. WE compliance from -10 V to 10 V
Electrode connection : standard
Potential control : Ewe
Ewe ctrl range : min = -10.00 V, max = 10.00 V
Safety Limits :
	Do not start on E overload
Acquisition started on : 09/04/2025 09:44:15.486
Loaded Setting File :  C:\Users\Celltest\OneDrive - store-dot.com\Documents\EC-Lab\Data\Gyutae\R270\17153_C01.mpr
Saved on :
	File : 17154_C02.mpr
	Directory : C:\Users\Celltest\OneDrive - store-dot.com\Documents\EC-Lab\Data\Gyutae\R270\
	Host : 169.254.61.224
Device : VMP-3e (SN .003165)
Address : USB
EC-LAB for windows v11.62 (software)
Internet server v27.00 (firmware)
Command interpretor v12.03 (firmware)
Electrode material :
Initial state :
Electrolyte :
Comments :
Electrode surface area : 0.001 cm²
Characteristic mass : 0.001 g
Equivalent Weight : 0.000 g/eq.
Density : 0.000 g/cm3
Volume (V) : 0.001 cm³
Cycle Definition : Charge/Discharge alternance
Mode                Single sine
E (V)               0.0000
vs.                 Eoc
tE (h:m:s)          0:00:0.0000
record              0
dI                  0.000
unit dI             mA
dt (s)              0.000
fi                  100.000
unit fi             kHz
ff                  10.000
unit ff             mHz
Nd                  6
Points              per decade
spacing             Logarithmic
Va (mV)             5.0
pw                  0.10
Na                  2
corr                0
E range min (V)     -10.000
E range max (V)     10.000
I Range             Auto
Bandwidth           5
nc cycles           0
goto Ns'            0
nr cycles           0
inc. cycle          0

freq/Hz	Re(Z)/Ohm	-Im(Z)/Ohm	|Z|/Ohm	Phase(Z)/deg	time/s	<Ewe>/V	<I>/mA	Cs/µF	Cp/µF	cycle number	I Range	|Ewe|/V	|I|/A	Ns	(Q-Qo)/mA.h	Re(Y)/Ohm-1	Im(Y)/Ohm-1	|Y|/Ohm-1	Phase(Y)/deg	Re(C)/nF	Im(C)/nF	|C|/nF	Phase(C)/deg	Re(M)	Im(M)	|M|	Phase(M)/deg	Re(Permittivity)	Im(Permittivity)	|Permittivity|	Phase(Permittivity)/deg	Re(Resistivity)/Ohm.cm	Im(Resistivity)/Ohm.cm	|Resistivity|/Ohm.cm	Phase(Resistivity)/deg	Re(Conductivity)/mS/cm	Im(Conductivity)/mS/cm	|Conductivity|/mS/cm	Phase(Conductivity)/deg	Tan(Delta)	Loss Angle(Delta)/deg	dq/mA.h	Pwe/W	Rwe/Ohm
100004	1.73252	0.467731	1.79455	-15.1081	1.86448	0.299842	-0.0307442	3.40258	0.231148	1	9	0.00462918	0.00257958	0	-1.32981e-05	0.537983	0.14524	0.557244	15.1081	231.148	856.196	886.849	-74.8919	0.0000000E+000	0.0000000E+000	0.0000000E+000	74.8919	0.0000000E+000	0.0000000E+000	0.0000000E+000	-74.8919	0.0000000E+000	0.0000000E+000	0.0000000E+000	-15.1081	0.0000000E+000	0.0000000E+000	0.0000000E+000	15.1081	3.70409	74.8919	-1.32981e-05	-9.2184e-06	9752.79
46420.4	1.97526	0.603128	2.06529	-16.9796	3.0205	0.299836	-0.0309677	5.68463	0.484798	1	9	0.00506072	0.00245037	0	-2.53874e-05	0.463088	0.1414	0.484194	16.9796	484.798	1587.72	1660.09	-73.0204	0.0000000E+000	0.0000000E+000	0.0000000E+000	73.0204	0.0000000E+000	0.0000000E+000	0.0000000E+000	-73.0204	0.0000000E+000	0.0000000E+000	0.0000000E+000	-16.9796	0.0000000E+000	0.0000000E+000	0.0000000E+000	16.9796	3.27502	73.0204	-1.00331e-05	-9.28524e-06	9682.24
21544.7	2.28511	0.786282	2.4166	-18.9878	3.89448	0.299836	-0.0283977	9.39511	0.994599	1	9	0.00528997	0.00218901	0	-3.17221e-05	0.391288	0.134638	0.413804	18.9878	994.599	2890.53	3056.86	-71.0122	0.0000000E+000	0.0000000E+000	0.0000000E+000	71.0122	0.0000000E+000	0.0000000E+000	0.0000000E+000	-71.0122	0.0000000E+000	0.0000000E+000	0.0000000E+000	-18.9878	0.0000000E+000	0.0000000E+000	0.0000000E+000	18.9878	2.90622	71.0122	-3.36608e-06	-8.51466e-06	10558.5
10002.2	2.67866	1.00898	2.86239	-20.6401	4.62849	0.299839	-0.0261257	15.7703	1.95952	1	9	0.00506703	0.00177021	0	-4.06649e-05	0.326934	0.123148	0.349359	20.6401	1959.52	5202.16	5558.98	-69.3599	0.0000000E+000	0.0000000E+000	0.0000000E+000	69.3599	0.0000000E+000	0.0000000E+000	0.0000000E+000	-69.3599	0.0000000E+000	0.0000000E+000	0.0000000E+000	-20.6401	0.0000000E+000	0.0000000E+000	0.0000000E+000	20.6401	2.65481	69.3599	-2.98669e-06	-7.83351e-06	11476.8
4641.49	3.18831	1.30213	3.44396	-22.2155	5.47768	0.299871	0.00607334	26.3335	3.76445	1	9	0.00486315	0.00141208	0	-4.20505e-05	0.268809	0.109784	0.290363	22.2155	3764.45	9217.38	9956.46	-67.7845	0.0000000E+000	0.0000000E+000	0.0000000E+000	67.7845	0.0000000E+000	0.0000000E+000	0.0000000E+000	-67.7845	0.0000000E+000	0.0000000E+000	0.0000000E+000	-22.2155	0.0000000E+000	0.0000000E+000	0.0000000E+000	22.2155	2.44853	67.7845	1.05764e-06	1.82122e-06	49375
2155.69	3.83729	1.6716	4.18558	-23.5389	6.66571	0.299857	-0.0234798	44.1674	7.04458	1	10	0.00486731	0.00116288	0	-4.89891e-05	0.219035	0.095416	0.238916	23.5389	7044.58	16171.4	17639.2	-66.4611	0.0000000E+000	0.0000000E+000	0.0000000E+000	66.4611	0.0000000E+000	0.0000000E+000	0.0000000E+000	-66.4611	0.0000000E+000	0.0000000E+000	0.0000000E+000	-23.5389	0.0000000E+000	0.0000000E+000	0.0000000E+000	23.5389	2.29558	66.4611	-3.73233e-06	-7.04058e-06	12770.8
1000.32	4.70529	2.15425	5.17499	-24.6	7.60171	0.299854	-0.023463	73.856	12.7985	1	10	0.00475875	0.000919568	0	-5.47903e-05	0.175698	0.0804409	0.193237	24.6	12798.5	27954.3	30744.8	-65.4	0.0000000E+000	0.0000000E+000	0.0000000E+000	65.4	0.0000000E+000	0.0000000E+000	0.0000000E+000	-65.4	0.0000000E+000	0.0000000E+000	0.0000000E+000	-24.6	0.0000000E+000	0.0000000E+000	0.0000000E+000	24.6	2.18419	65.4	-3.19044e-06	-7.03548e-06	12779.8
463.961	5.85846	2.74715	6.47058	-25.1228	8.53621	0.299851	-0.0221723	124.869	22.5079	1	10	0.00470547	0.00072721	0	-6.0373e-05	0.139926	0.065614	0.154546	25.1228	22507.9	47999.4	53014.6	-64.8772	0.0000000E+000	0.0000000E+000	0.0000000E+000	64.8772	0.0000000E+000	0.0000000E+000	0.0000000E+000	-64.8772	0.0000000E+000	0.0000000E+000	0.0000000E+000	-25.1228	0.0000000E+000	0.0000000E+000	0.0000000E+000	25.1228	2.13256	64.8772	-3.13963e-06	-6.64838e-06	13523.7
215.345	7.40002	3.40117	8.14422	-24.6843	9.47043	0.299846	-0.0221853	217.299	37.898	1	10	0.00468113	0.00057478	0	-6.61492e-05	0.111567	0.0512778	0.122787	24.6843	37898	82455.7	90748	-65.3157	0.0000000E+000	0.0000000E+000	0.0000000E+000	65.3157	0.0000000E+000	0.0000000E+000	0.0000000E+000	-65.3157	0.0000000E+000	0.0000000E+000	0.0000000E+000	-24.6843	0.0000000E+000	0.0000000E+000	0.0000000E+000	24.6843	2.17573	65.3157	-2.61215e-06	-6.65217e-06	13515.5
100.032	9.37798	3.88196	10.1497	-22.4868	10.4017	0.299854	-0.0214309	409.855	59.9552	1	10	0.00466979	0.000460092	0	-7.12332e-05	0.0910341	0.037683	0.0985252	22.4868	59955.2	144839	156758	-67.5132	0.0000000E+000	0.0000000E+000	0.0000000E+000	67.5132	0.0000000E+000	0.0000000E+000	0.0000000E+000	-67.5132	0.0000000E+000	0.0000000E+000	0.0000000E+000	-22.4868	0.0000000E+000	0.0000000E+000	0.0000000E+000	22.4868	2.41579	67.5132	-2.52489e-06	-6.42616e-06	13991.6
46.4415	11.6359	3.92043	12.2786	-18.62	11.3345	0.299848	-0.0234426	874.137	89.115	1	10	0.00466385	0.000379836	0	-7.60387e-05	0.0771796	0.0260038	0.0814426	18.62	89115	264494	279103	-71.38	0.0000000E+000	0.0000000E+000	0.0000000E+000	71.38	0.0000000E+000	0.0000000E+000	0.0000000E+000	-71.38	0.0000000E+000	0.0000000E+000	0.0000000E+000	-18.62	0.0000000E+000	0.0000000E+000	0.0000000E+000	18.62	2.96801	71.38	-2.49875e-06	-7.0292e-06	12790.7
21.5517	13.6686	3.41453	14.0886	-14.0259	12.2204	0.299841	-0.0264321	2162.75	127.038	1	10	0.00466148	0.000330869	0	-8.11007e-05	0.0688632	0.0172026	0.0709794	14.0259	127038	508540	524168	-75.9741	0.0000000E+000	0.0000000E+000	0.0000000E+000	75.9741	0.0000000E+000	0.0000000E+000	0.0000000E+000	-75.9741	0.0000000E+000	0.0000000E+000	0.0000000E+000	-14.0259	0.0000000E+000	0.0000000E+000	0.0000000E+000	14.0259	4.00306	75.9741	-1.96788e-06	-7.92541e-06	11343.8
10.0032	15.2597	2.70887	15.4983	-10.0662	13.4257	0.299874	-0.0166545	5873.44	179.433	1	11	0.00466404	0.000300939	0	-8.94316e-05	0.06353	0.0112777	0.0645232	10.0662	179433	1.01079e+06	1.02659e+06	-79.9338	0.0000000E+000	0.0000000E+000	0.0000000E+000	79.9338	0.0000000E+000	0.0000000E+000	0.0000000E+000	-79.9338	0.0000000E+000	0.0000000E+000	0.0000000E+000	-10.0662	0.0000000E+000	0.0000000E+000	0.0000000E+000	10.0662	5.63324	79.9338	-4.47524e-06	-4.99425e-06	18005.6
4.63925	16.3629	2.01369	16.4864	-7.01578	14.2853	0.299874	-0.0158309	17036.5	254.164	1	11	0.00466671	0.000283065	0	-9.42842e-05	0.060202	0.00740871	0.0606562	7.01578	254164	2.0653e+06	2.08088e+06	-82.9842	0.0000000E+000	0.0000000E+000	0.0000000E+000	82.9842	0.0000000E+000	0.0000000E+000	0.0000000E+000	-82.9842	0.0000000E+000	0.0000000E+000	0.0000000E+000	-7.01578	0.0000000E+000	0.0000000E+000	0.0000000E+000	7.01578	8.12585	82.9842	-6.27797e-06	-4.74727e-06	18942.3
2.15577	17.1073	1.47573	17.1709	-4.93031	16.0128	0.299897	-0.0140995	50027.7	369.523	1	11	0.00466902	0.000271915	0	-9.47366e-05	0.0580226	0.00500522	0.0582381	4.93031	369523	4.28367e+06	4.29958e+06	-85.0697	0.0000000E+000	0.0000000E+000	0.0000000E+000	85.0697	0.0000000E+000	0.0000000E+000	0.0000000E+000	-85.0697	0.0000000E+000	0.0000000E+000	0.0000000E+000	-4.93031	0.0000000E+000	0.0000000E+000	0.0000000E+000	4.93031	11.5924	85.0697	1.7469e-06	-4.2284e-06	21270
1.00006	17.576	1.13357	17.6125	-3.69022	20.6762	0.2999	-0.0111199	140392	581.569	1	12	0.0046684	0.000265062	0	-0.000112544	0.0566602	0.00365434	0.0567779	3.69022	581568	9.01718e+06	9.03591e+06	-86.3098	0.0000000E+000	0.0000000E+000	0.0000000E+000	86.3098	0.0000000E+000	0.0000000E+000	0.0000000E+000	-86.3098	0.0000000E+000	0.0000000E+000	0.0000000E+000	-3.69022	0.0000000E+000	0.0000000E+000	0.0000000E+000	3.69022	15.5049	86.3098	-1.57416e-05	-3.33485e-06	26969.8
0.464091	17.8963	1.06819	17.9281	-3.41582	28.361	0.299896	-0.0101227	321047	1139.72	1	12	0.0046666	0.000260295	0	-0.000158898	0.0556792	0.00332338	0.0557783	3.41582	1.13972e+06	1.90946e+07	1.91286e+07	-86.5842	0.0000000E+000	0.0000000E+000	0.0000000E+000	86.5842	0.0000000E+000	0.0000000E+000	0.0000000E+000	-86.5842	0.0000000E+000	0.0000000E+000	0.0000000E+000	-3.41582	0.0000000E+000	0.0000000E+000	0.0000000E+000	3.41582	16.7538	86.5842	-2.49633e-05	-3.03575e-06	29626.1
0.215268	18.1949	1.43641	18.2515	-4.51389	44.8409	0.299896	-0.00973133	514710	3188.02	1	12	0.00466907	0.000255818	0	-0.000183207	0.05462	0.00431201	0.0547899	4.51389	3.18802e+06	4.03824e+07	4.05081e+07	-85.4861	0.0000000E+000	0.0000000E+000	0.0000000E+000	85.4861	0.0000000E+000	0.0000000E+000	0.0000000E+000	-85.4861	0.0000000E+000	0.0000000E+000	0.0000000E+000	-4.51389	0.0000000E+000	0.0000000E+000	0.0000000E+000	4.51389	12.6669	85.4861	-4.91554e-06	-2.91839e-06	30817.6
0.0999041	18.6227	2.21473	18.7539	-6.78213	80.2476	0.29989	-0.00522558	719310	10031.7	1	12	0.00466791	0.000248904	0	-0.000139718	0.0529491	0.00629705	0.0533222	6.78213	1.00317e+07	8.4352e+07	8.49464e+07	-83.2179	0.0000000E+000	0.0000000E+000	0.0000000E+000	83.2179	0.0000000E+000	0.0000000E+000	0.0000000E+000	-83.2179	0.0000000E+000	0.0000000E+000	0.0000000E+000	-6.78213	0.0000000E+000	0.0000000E+000	0.0000000E+000	6.78213	8.40856	83.2179	2.84373e-05	-1.5671e-06	57388.8
0.0464052	19.4796	3.86888	19.8601	-11.2334	156.483	0.299885	-0.000827708	886480	33641.5	1	12	0.00466906	0.000235098	0	-0.000165208	0.0493876	0.00980894	0.0503522	11.2334	3.36415e+07	1.69383e+08	1.72692e+08	-78.7666	0.0000000E+000	0.0000000E+000	0.0000000E+000	78.7666	0.0000000E+000	0.0000000E+000	0.0000000E+000	-78.7666	0.0000000E+000	0.0000000E+000	0.0000000E+000	-11.2334	0.0000000E+000	0.0000000E+000	0.0000000E+000	11.2334	5.03496	78.7666	-4.37045e-05	-2.48217e-07	362308
0.0215268	20.7813	6.55745	21.7913	-17.5129	320.713	0.299885	-0.000957471	1.12747e+06	102096	1	12	0.00466944	0.00021428	0	-0.000653011	0.0437628	0.0138092	0.0458898	17.5129	1.02096e+08	3.23553e+08	3.39279e+08	-72.4871	0.0000000E+000	0.0000000E+000	0.0000000E+000	72.4871	0.0000000E+000	0.0000000E+000	0.0000000E+000	-72.4871	0.0000000E+000	0.0000000E+000	0.0000000E+000	-17.5129	0.0000000E+000	0.0000000E+000	0.0000000E+000	17.5129	3.16911	72.4871	-0.000315539	-2.87131e-07	313205
0.0100092	23.2609	11.6719	26.025	-26.6466	673.931	0.299885	-0.00132368	1.36233e+06	274018	1	12	0.00466859	0.000179389	0	-0.00113643	0.0343435	0.0172329	0.0384246	26.6466	2.74018e+08	5.46093e+08	6.10986e+08	-63.3534	0.0000000E+000	0.0000000E+000	0.0000000E+000	63.3534	0.0000000E+000	0.0000000E+000	0.0000000E+000	-63.3534	0.0000000E+000	0.0000000E+000	0.0000000E+000	-26.6466	0.0000000E+000	0.0000000E+000	0.0000000E+000	26.6466	1.99291	63.3534	-0.000137882	-3.96953e-07	226553