File: txt/17225_R278_UC78_50SOC_C04.mpt
EC-Lab ASCII FILE
Nb header lines : 65

Potentio Electrochemical Impedance Spectroscopy

Run on channel : 4 (SN 66756)
User :
CE vs. WE compliance from -10 V to 10 V
Electrode connection : standard
Potential control : Ewe
Ewe ctrl range : min = -10.00 V, max = 10.00 V
Safety Limits :
	Do not start on E overload
Acquisition started on : 09/02/2025 16:41:37.792
Technique started on : 09/02/2025 16:41:40.027
Loaded Setting File :  C:\Users\Celltest\OneDrive - store-dot.com\Documents\EC-Lab\Data\Michael\R278\UC74_NCMA_16706_EIS_50_SOC.mps
Saved on :
	File : UC79_17225_EIS_50SOC_C04.mpr
	Directory : C:\Users\Celltest\OneDrive - store-dot.com\Documents\EC-Lab\Data\Michael\R278\
	Host : 169.254.61.224
Device : VMP-3e (SN .003165)
Address : USB
EC-LAB for windows v11.62 (software)
Internet server v27.00 (firmware)
Command interpretor v12.03 (firmware)
Electrode material :
Initial state :
Electrolyte :
Comments :
Electrode surface area : 0.001 cm²
Characteristic mass : 0.001 g
Equivalent Weight : 0.000 g/eq.
Density : 0.000 g/cm3
Volume (V) : 0.001 cm³
Record Ece
Cycle Definition : Charge/Discharge alternance
Mode                Multi sine
E (V)               0.0000
vs.                 Eoc
tE (h:m:s)          0:00:0.0000
record              0
dI                  0.000
unit dI             mA
dt (s)              0.000
fi                  1.000
unit fi             MHz
ff                  0.100
unit ff             mHz
Nd                  10
Points              per decade
spacing             Logarithmic
Va (mV)             5.0
pw                  0.10
Na                  2
corr                0
E range min (V)     -10.000
E range max (V)     10.000
I Range             Auto
Bandwidth           5
nc cycles           0
goto Ns'            0
nr cycles           0
inc. cycle          0

freq/Hz	Re(Z)/Ohm	-Im(Z)/Ohm	|Z|/Ohm	Phase(Z)/deg	time/s	<Ewe>/V	<I>/mA	Cs/µF	Cp/µF	cycle number	I Range	|Ewe|/V	|I|/A	Ns	(Q-Qo)/mA.h	<Ece>/V	|Ece|/V	Phase(Zce)/deg	|Zce|/Ohm	Re(Zce)/Ohm	-Im(Zce)/Ohm	Phase(Zwe-ce)/deg	|Zwe-ce|/Ohm	Re(Zwe-ce)/Ohm	-Im(Zwe-ce)/Ohm	Re(Y)/Ohm-1	Im(Y)/Ohm-1	|Y|/Ohm-1	Phase(Y)/deg	Re(C)/nF	Im(C)/nF	|C|/nF	Phase(C)/deg	Re(M)	Im(M)	|M|	Phase(M)/deg	Re(Permittivity)	Im(Permittivity)	|Permittivity|	Phase(Permittivity)/deg	Re(Resistivity)/Ohm.cm	Im(Resistivity)/Ohm.cm	|Resistivity|/Ohm.cm	Phase(Resistivity)/deg	Re(Conductivity)/mS/cm	Im(Conductivity)/mS/cm	|Conductivity|/mS/cm	Phase(Conductivity)/deg	Tan(Delta)	Loss Angle(Delta)/deg	dq/mA.h	Pwe/W	Pce/W	Pwe-ce/W	<Ewe-Ece>/V	Rwe/Ohm	Rce/Ohm	Rwe-ce/Ohm		Ewe-Ece/V
1.00002e+06	0.900542	-0.503055	1.03152	29.1883	2.23454	3.78505	0.0788984	-0.316371	-0.0752436	1	9	0.000215982	0.000209382	0	-9.06785e-06	-9.16548e-05	0.000185668	1.11805	0.886747	0.886578	-0.0173025	16.234	1.86134	1.78712	-0.520358	0.846342	-0.472778	0.96944	-29.1883	-75.2436	134.697	154.288	-119.188	0.0000000E+000	0.0000000E+000	0.0000000E+000	119.188	0.0000000E+000	0.0000000E+000	0.0000000E+000	-119.188	0.0000000E+000	0.0000000E+000	0.0000000E+000	29.1883	0.0000000E+000	0.0000000E+000	0.0000000E+000	-29.1883	1.79015	60.8117	-9.06785e-06	0.000298634	-7.23142e-09	0.000298641	3.78514	47973.7	1.16168	47974.8
251206	0.875412	0.312435	0.929495	-19.6415	4.53256	3.78368	-0.129183	2.02782	0.229116	1	9	0.00243414	0.00261878	0	-6.92767e-05	-7.25448e-05	4.77396e-05	83.9903	0.0182297	0.0019086	-0.0181295	-18.5445	0.925369	0.87732	0.294306	1.01325	0.361631	1.07585	19.6415	229.116	641.96	681.62	-70.3585	0.0000000E+000	0.0000000E+000	0.0000000E+000	70.3585	0.0000000E+000	0.0000000E+000	0.0000000E+000	-70.3585	0.0000000E+000	0.0000000E+000	0.0000000E+000	-19.6415	0.0000000E+000	0.0000000E+000	0.0000000E+000	19.6415	2.8019	70.3585	-1.55765e-05	-0.000488788	9.37157e-09	-0.000488797	3.78375	29289.3	0.561566	29289.8
63093.8	1.4305	0.716231	1.59978	-26.5966	6.83253	3.78357	-0.114488	3.52192	0.705935	1	9	0.00543835	0.00339943	0	-0.00015295	-0.000206315	1.75924e-05	87.8935	0.0051751	0.000190224	-0.00517161	-26.4277	1.59764	1.43069	0.71106	0.558939	0.279854	0.625085	26.5966	705.935	1409.93	1576.78	-63.4034	0.0000000E+000	0.0000000E+000	0.0000000E+000	63.4034	0.0000000E+000	0.0000000E+000	0.0000000E+000	-63.4034	0.0000000E+000	0.0000000E+000	0.0000000E+000	-26.5966	0.0000000E+000	0.0000000E+000	0.0000000E+000	26.5966	1.99725	63.4034	-9.61442e-06	-0.000433173	2.36205e-08	-0.000433197	3.78377	33047.7	1.80206	33049.5
15847.7	2.19213	0.72748	2.30969	-18.3589	9.13454	3.78357	-0.107513	13.8049	1.36952	1	9	0.00488628	0.00211556	0	-0.000227733	-0.000282754	1.33131e-05	-125.719	0.00629292	-0.00367387	0.00510916	-18.5081	2.30782	2.18845	0.732589	0.410922	0.136369	0.432959	18.3589	1369.52	4126.81	4348.12	-71.6411	0.0000000E+000	0.0000000E+000	0.0000000E+000	71.6411	0.0000000E+000	0.0000000E+000	0.0000000E+000	-71.6411	0.0000000E+000	0.0000000E+000	0.0000000E+000	-18.3589	0.0000000E+000	0.0000000E+000	0.0000000E+000	18.3589	3.01332	71.6411	-1.16228e-05	-0.000406785	3.03999e-08	-0.000406815	3.78385	35191.6	2.62994	35194.2
3983.6	2.73484	0.76137	2.83884	-15.557	10.8591	3.78332	-0.185092	52.4745	3.77448	1	9	0.00460362	0.00162166	0	-0.00028325	-0.000301864	5.74267e-06	-12.3405	0.00354124	0.00345942	0.000756837	-15.553	2.84238	2.7383	0.762127	0.339351	0.0944742	0.352256	15.557	3774.48	13557.9	14073.5	-74.443	0.0000000E+000	0.0000000E+000	0.0000000E+000	74.443	0.0000000E+000	0.0000000E+000	0.0000000E+000	-74.443	0.0000000E+000	0.0000000E+000	0.0000000E+000	-15.557	0.0000000E+000	0.0000000E+000	0.0000000E+000	15.557	3.592	74.443	-1.57842e-05	-0.000700262	5.58726e-08	-0.000700318	3.78363	20440.3	1.63089	20441.9
1000.32	3.47195	1.10914	3.64481	-17.7165	13.7339	3.78348	-0.0971771	143.448	13.2837	1	10	0.00456763	0.00125319	0	-0.000348183	0.000175885	5.43851e-06	-78.5201	0.00433974	0.000863713	0.00425292	-17.776	3.64693	3.47281	1.11339	0.261351	0.0834906	0.274363	17.7165	13283.7	41582	43652.2	-72.2835	0.0000000E+000	0.0000000E+000	0.0000000E+000	72.2835	0.0000000E+000	0.0000000E+000	0.0000000E+000	-72.2835	0.0000000E+000	0.0000000E+000	0.0000000E+000	-17.7165	0.0000000E+000	0.0000000E+000	0.0000000E+000	17.7165	3.1303	72.2835	-1.11743e-05	-0.000367668	-1.70919e-08	-0.00036765	3.7833	38933.9	1.80994	38932.1
251.044	4.82946	1.30055	5.00151	-15.0719	16.435	3.78348	-0.096528	487.466	32.9604	1	10	0.00450386	0.000900499	0	-0.000420985	-0.000225424	9.42794e-06	-5.42625	0.0104697	0.0104228	0.000990058	-15.0518	5.01183	4.83988	1.30154	0.193062	0.0519904	0.19994	15.0719	32960.4	122396	126756	-74.9281	0.0000000E+000	0.0000000E+000	0.0000000E+000	74.9281	0.0000000E+000	0.0000000E+000	0.0000000E+000	-74.9281	0.0000000E+000	0.0000000E+000	0.0000000E+000	-15.0719	0.0000000E+000	0.0000000E+000	0.0000000E+000	15.0719	3.71341	74.9281	-1.12876e-05	-0.000365212	2.17598e-08	-0.000365234	3.78371	39195.7	2.33533	39198
63.0823	5.83216	0.701711	5.87422	-6.86071	19.372	3.78349	-0.0867997	3595.46	51.3063	1	10	0.00498021	0.000847808	0	-0.000494408	-0.000206315	1.3056e-05	22.129	0.0153997	0.0142654	-0.00580097	-6.78808	5.8877	5.84642	0.69591	0.169016	0.0203356	0.170235	6.86071	51306.3	426424	429499	-83.1393	0.0000000E+000	0.0000000E+000	0.0000000E+000	83.1393	0.0000000E+000	0.0000000E+000	0.0000000E+000	-83.1393	0.0000000E+000	0.0000000E+000	0.0000000E+000	-6.86071	0.0000000E+000	0.0000000E+000	0.0000000E+000	6.86071	8.31134	83.1393	-1.15175e-05	-0.000328406	1.7908e-08	-0.000328424	3.7837	43588.8	2.3769	43591.1
15.8576	6.12198	0.275325	6.12817	-2.57504	22.03	3.78345	-0.0947823	36453.4	73.5813	1	10	0.00498994	0.000814264	0	-0.000559487	4.21149e-05	1.85556e-05	61.2633	0.0227882	0.0109562	-0.0199816	-2.38412	6.13825	6.13293	0.255343	0.163016	0.00733135	0.163181	2.57504	73581.2	1.63612e+06	1.63777e+06	-87.425	0.0000000E+000	0.0000000E+000	0.0000000E+000	87.425	0.0000000E+000	0.0000000E+000	0.0000000E+000	-87.425	0.0000000E+000	0.0000000E+000	0.0000000E+000	-2.57504	0.0000000E+000	0.0000000E+000	0.0000000E+000	2.57504	22.2355	87.425	-1.06731e-05	-0.000358604	-3.99175e-09	-0.0003586	3.78341	39917.3	0.444333	39916.9
3.97785	6.21764	0.195936	6.22072	-1.80496	24.9423	3.78352	-0.0837951	204200	202.584	1	10	0.00498328	0.000801077	0	-0.000617257	-5.34349e-05	7.85697e-06	-75.0349	0.009808	0.00253272	0.00947535	-1.89142	6.22356	6.22017	0.205412	0.160673	0.0050633	0.160753	1.80496	202584	6.42858e+06	6.43177e+06	-88.195	0.0000000E+000	0.0000000E+000	0.0000000E+000	88.195	0.0000000E+000	0.0000000E+000	0.0000000E+000	-88.195	0.0000000E+000	0.0000000E+000	0.0000000E+000	-1.80496	0.0000000E+000	0.0000000E+000	0.0000000E+000	1.80496	31.7329	88.195	-3.26959e-06	-0.00031704	4.47758e-09	-0.000317045	3.78357	45152	0.637685	45152.7
1.00469	6.35671	0.248238	6.36155	-2.23634	240.199	3.7835	-0.058488	638144	971.69	1	11	0.00506314	0.000795897	0	-0.00743483	-0.000110765	4.16228e-07	-1.27888	0.000522967	0.000522837	1.1672e-05	-2.23626	6.36208	6.35723	0.248249	0.157075	0.00613396	0.157194	2.23634	971689	2.48824e+07	2.49014e+07	-87.7637	0.0000000E+000	0.0000000E+000	0.0000000E+000	87.7637	0.0000000E+000	0.0000000E+000	0.0000000E+000	-87.7637	0.0000000E+000	0.0000000E+000	0.0000000E+000	-2.23634	0.0000000E+000	0.0000000E+000	0.0000000E+000	2.23634	25.6074	87.7637	-0.00671918	-0.000221289	6.47841e-09	-0.000221296	3.78361	64688.4	1.8938	64690.3
0.251173	6.57868	0.5136	6.5987	-4.46405	240.203	3.7835	-0.058488	1.23373e+06	7474.03	1	11	0.0050906	0.000771455	0	-0.00743483	-0.000110765	5.34104e-07	-15.3227	0.000692333	0.000667723	0.000182952	-4.46518	6.59938	6.57935	0.513783	0.151085	0.0117953	0.151545	4.46405	7.47404e+06	9.57346e+07	9.60259e+07	-85.5359	0.0000000E+000	0.0000000E+000	0.0000000E+000	85.5359	0.0000000E+000	0.0000000E+000	0.0000000E+000	-85.5359	0.0000000E+000	0.0000000E+000	0.0000000E+000	-4.46405	0.0000000E+000	0.0000000E+000	0.0000000E+000	4.46405	12.809	85.5359	0.000000000000000E+000	-0.000221289	6.47841e-09	-0.000221296	3.78361	64688.4	1.8938	64690.3
0.0602816	7.11799	1.02613	7.19157	-8.20326	240.206	3.7835	-0.058488	2.57296e+06	52383	1	11	0.00508237	0.000706713	0	-0.00743483	-0.000110765	3.74227e-07	-29.2581	0.000529532	0.000461978	0.000258806	-8.20478	7.19206	7.11845	1.02639	0.137629	0.0198406	0.139052	8.20326	5.2383e+07	3.63367e+08	3.67123e+08	-81.7967	0.0000000E+000	0.0000000E+000	0.0000000E+000	81.7967	0.0000000E+000	0.0000000E+000	0.0000000E+000	-81.7967	0.0000000E+000	0.0000000E+000	0.0000000E+000	-8.20326	0.0000000E+000	0.0000000E+000	0.0000000E+000	8.20326	6.93672	81.7967	0.000000000000000E+000	-0.000221289	6.47841e-09	-0.000221296	3.78361	64688.4	1.8938	64690.3
0.00796479	9.51054	1.83226	9.68543	-10.9048	20329.1	3.78349	0.0014479	1.09058e+07	390297	1	11	0.00507506	0.000523989	0	-0.0441876	-9.16548e-05	4.58088e-07	-24.717	0.000874231	0.000794138	0.000365548	-10.906	9.68628	9.51133	1.83263	0.101384	0.0195321	0.103248	10.9048	3.90297e+08	2.02588e+09	2.06313e+09	-79.0952	0.0000000E+000	0.0000000E+000	0.0000000E+000	79.0952	0.0000000E+000	0.0000000E+000	0.0000000E+000	-79.0952	0.0000000E+000	0.0000000E+000	0.0000000E+000	-10.9048	0.0000000E+000	0.0000000E+000	0.0000000E+000	10.9048	5.1906	79.0952	-0.0367528	5.4781e-06	-1.32707e-10	5.47823e-06	3.78358	2.6131e+06	63.3021	2.61316e+06
0.0019912	10.8343	2.63243	11.1495	-13.6567	20329.1	3.78349	0.0014479	3.03633e+07	1.69259e+06	1	11	0.00508856	0.000456394	0	-0.0441876	-9.16548e-05	6.98302e-07	-60.8098	0.00153004	0.000746218	0.00133573	-13.6624	11.1505	10.835	2.63377	0.0871545	0.0211761	0.0896902	13.6567	1.69259e+09	6.9662e+09	7.16887e+09	-76.3433	0.0000000E+000	0.0000000E+000	0.0000000E+000	76.3433	0.0000000E+000	0.0000000E+000	0.0000000E+000	-76.3433	0.0000000E+000	0.0000000E+000	0.0000000E+000	-13.6567	0.0000000E+000	0.0000000E+000	0.0000000E+000	13.6567	4.11569	76.3433	0.000000000000000E+000	5.4781e-06	-1.32707e-10	5.47823e-06	3.78358	2.6131e+06	63.3021	2.61316e+06
0.000497799	11.3016	6.55073	13.0629	-30.0977	20329.1	3.78349	0.0014479	4.88063e+07	1.22737e+07	1	11	0.00509003	0.000389656	0	-0.0441876	-9.16548e-05	2.904e-06	13.7242	0.00745274	0.00723995	-0.00176815	-30.0751	13.0683	11.3089	6.54896	0.0662312	0.0383894	0.0765527	30.0977	1.22737e+10	2.11753e+10	2.44752e+10	-59.9023	0.0000000E+000	0.0000000E+000	0.0000000E+000	59.9023	0.0000000E+000	0.0000000E+000	0.0000000E+000	-59.9023	0.0000000E+000	0.0000000E+000	0.0000000E+000	-30.0977	0.0000000E+000	0.0000000E+000	0.0000000E+000	30.0977	1.72525	59.9023	0.000000000000000E+000	5.4781e-06	-1.32707e-10	5.47823e-06	3.78358	2.6131e+06	63.3021	2.61316e+06
9.95598e-05	13.6226	34.1783	36.7931	-68.269	20329.1	3.78349	0.0014479	4.67719e+07	4.03602e+07	1	11	0.0050851	0.000138208	0	-0.0441876	-9.16548e-05	1.3555e-06	55.7552	0.00980773	0.00551909	-0.00810747	-68.2563	36.7877	13.6282	34.1702	0.010063	0.0252474	0.027179	68.269	4.03602e+10	1.60866e+10	4.34479e+10	-21.731	0.0000000E+000	0.0000000E+000	0.0000000E+000	21.731	0.0000000E+000	0.0000000E+000	0.0000000E+000	-21.731	0.0000000E+000	0.0000000E+000	0.0000000E+000	-68.269	0.0000000E+000	0.0000000E+000	0.0000000E+000	68.269	0.398575	21.731	0.000000000000000E+000	5.4781e-06	-1.32707e-10	5.47823e-06	3.78358	2.6131e+06	63.3021	2.61316e+06