File: txt/17221_R278_UC78_50SOC_C01.mpt
EC-Lab ASCII FILE
Nb header lines : 64

Potentio Electrochemical Impedance Spectroscopy

Run on channel : 1 (SN 66354)
User :
CE vs. WE compliance from -10 V to 10 V
Electrode connection : standard
Potential control : Ewe
Ewe ctrl range : min = -10.00 V, max = 10.00 V
Safety Limits :
	Do not start on E overload
Acquisition started on : 09/02/2025 16:40:31.254
Loaded Setting File :  C:\Users\Celltest\OneDrive - store-dot.com\Documents\EC-Lab\Data\Michael\R278\UC74_NCMA_16706_EIS_50_SOC.mps
Saved on :
	File : UC78_17221_EIS_50SOC_C01.mpr
	Directory : C:\Users\Celltest\OneDrive - store-dot.com\Documents\EC-Lab\Data\Michael\R278\
	Host : 169.254.61.224
Device : VMP-3e (SN .003165)
Address : USB
EC-LAB for windows v11.62 (software)
Internet server v27.00 (firmware)
Command interpretor v12.03 (firmware)
Electrode material :
Initial state :
Electrolyte :
Comments :
Electrode surface area : 0.001 cm²
Characteristic mass : 0.001 g
Equivalent Weight : 0.000 g/eq.
Density : 0.000 g/cm3
Volume (V) : 0.001 cm³
Record Ece
Cycle Definition : Charge/Discharge alternance
Mode                Multi sine
E (V)               0.0000
vs.                 Eoc
tE (h:m:s)          0:00:0.0000
record              0
dI                  0.000
unit dI             mA
dt (s)              0.000
fi                  1.000
unit fi             MHz
ff                  0.100
unit ff             mHz
Nd                  10
Points              per decade
spacing             Logarithmic
Va (mV)             5.0
pw                  0.10
Na                  2
corr                0
E range min (V)     -10.000
E range max (V)     10.000
I Range             Auto
Bandwidth           5
nc cycles           0
goto Ns'            0
nr cycles           0
inc. cycle          0

freq/Hz	Re(Z)/Ohm	-Im(Z)/Ohm	|Z|/Ohm	Phase(Z)/deg	time/s	<Ewe>/V	<I>/mA	Cs/µF	Cp/µF	cycle number	I Range	|Ewe|/V	|I|/A	Ns	(Q-Qo)/mA.h	<Ece>/V	|Ece|/V	Phase(Zce)/deg	|Zce|/Ohm	Re(Zce)/Ohm	-Im(Zce)/Ohm	Phase(Zwe-ce)/deg	|Zwe-ce|/Ohm	Re(Zwe-ce)/Ohm	-Im(Zwe-ce)/Ohm	Re(Y)/Ohm-1	Im(Y)/Ohm-1	|Y|/Ohm-1	Phase(Y)/deg	Re(C)/nF	Im(C)/nF	|C|/nF	Phase(C)/deg	Re(M)	Im(M)	|M|	Phase(M)/deg	Re(Permittivity)	Im(Permittivity)	|Permittivity|	Phase(Permittivity)/deg	Re(Resistivity)/Ohm.cm	Im(Resistivity)/Ohm.cm	|Resistivity|/Ohm.cm	Phase(Resistivity)/deg	Re(Conductivity)/mS/cm	Im(Conductivity)/mS/cm	|Conductivity|/mS/cm	Phase(Conductivity)/deg	Tan(Delta)	Loss Angle(Delta)/deg	dq/mA.h	Pwe/W	Pce/W	Pwe-ce/W	<Ewe-Ece>/V	Rwe/Ohm	Rce/Ohm	Rwe-ce/Ohm		Ewe-Ece/V
1.00002e+06	1.01663	-0.27987	1.05445	15.3919	2.72652	3.7853	0.14376	-0.568663	-0.0400609	1	9	0.000215065	0.00020396	0	2.98436e-05	-0.0003018	0.000185626	-6.67759	0.910111	0.903937	0.10583	5.17798	1.92843	1.92056	-0.174041	0.914351	-0.251715	0.948366	-15.3919	-40.0609	145.521	150.934	-105.392	0.0000000E+000	0.0000000E+000	0.0000000E+000	105.392	0.0000000E+000	0.0000000E+000	0.0000000E+000	-105.392	0.0000000E+000	0.0000000E+000	0.0000000E+000	15.3919	0.0000000E+000	0.0000000E+000	0.0000000E+000	-15.3919	3.63249	74.6081	2.98436e-05	0.000544174	-4.33868e-08	0.000544218	3.7856	26330.7	2.09934	26332.8
251206	0.733527	0.254617	0.776461	-19.1426	5.02854	3.78502	0.106282	2.48829	0.267571	1	9	0.00201315	0.00259272	0	9.33517e-05	-0.000111027	6.13351e-05	112.738	0.0236566	-0.00914383	-0.021818	-17.8162	0.760872	0.724383	0.232799	1.21668	0.422327	1.28789	19.1426	267.571	770.844	815.962	-70.8574	0.0000000E+000	0.0000000E+000	0.0000000E+000	70.8574	0.0000000E+000	0.0000000E+000	0.0000000E+000	-70.8574	0.0000000E+000	0.0000000E+000	0.0000000E+000	-19.1426	0.0000000E+000	0.0000000E+000	0.0000000E+000	19.1426	2.8809	70.8574	1.09521e-05	0.000402279	-1.18002e-08	0.000402291	3.78513	35612.9	1.04465	35614
63093.8	1.14096	0.406935	1.21136	-19.6292	7.33056	3.78493	0.0928706	6.19881	0.699538	1	9	0.00533051	0.00440043	0	0.000142392	0.000175132	2.76005e-05	90.4789	0.00627224	-5.24215e-05	-0.00627202	-19.3501	1.20922	1.14091	0.400663	0.777544	0.277318	0.825518	19.6292	699.538	1961.36	2082.38	-70.3708	0.0000000E+000	0.0000000E+000	0.0000000E+000	70.3708	0.0000000E+000	0.0000000E+000	0.0000000E+000	-70.3708	0.0000000E+000	0.0000000E+000	0.0000000E+000	-19.6292	0.0000000E+000	0.0000000E+000	0.0000000E+000	19.6292	2.8038	70.3708	-5.37602e-06	0.000351508	1.62646e-08	0.000351492	3.78475	40754.9	1.88577	40753
15847.7	1.47715	0.459272	1.5469	-17.2713	9.50652	3.78494	0.0928333	21.8668	1.92751	1	9	0.0053951	0.00348768	0	0.000192693	-0.000187337	1.16635e-05	-93.8958	0.00334422	-0.000227212	0.00333649	-17.3918	1.54768	1.47693	0.462608	0.617304	0.19193	0.646453	17.2713	1927.51	6199.45	6492.19	-72.7287	0.0000000E+000	0.0000000E+000	0.0000000E+000	72.7287	0.0000000E+000	0.0000000E+000	0.0000000E+000	-72.7287	0.0000000E+000	0.0000000E+000	0.0000000E+000	-17.2713	0.0000000E+000	0.0000000E+000	0.0000000E+000	17.2713	3.21629	72.7287	4.18136e-06	0.000351368	-1.73911e-08	0.000351385	3.78512	40771.3	2.01799	40773.4
3983.6	1.87989	0.676281	1.99783	-19.786	11.1051	3.78477	0.00174639	59.0768	6.76946	1	9	0.00488257	0.00244394	0	0.000229586	0.000232364	4.26529e-06	-21.474	0.00174525	0.00162411	0.000638901	-19.7874	1.99958	1.88151	0.67692	0.470993	0.169438	0.500543	19.786	6769.46	18817.3	19998	-70.214	0.0000000E+000	0.0000000E+000	0.0000000E+000	70.214	0.0000000E+000	0.0000000E+000	0.0000000E+000	-70.214	0.0000000E+000	0.0000000E+000	0.0000000E+000	-19.786	0.0000000E+000	0.0000000E+000	0.0000000E+000	19.786	2.77974	70.214	2.60401e-06	6.60967e-06	4.05798e-10	6.60926e-06	3.78454	2.1672e+06	133.054	2.16707e+06
1000.32	2.60803	1.14634	2.84884	-23.7276	13.7338	3.78479	0.0485378	138.793	22.4729	1	9	0.00472972	0.00166022	0	0.000262418	0.000384983	1.62265e-05	-3.28089	0.00977367	0.00975765	0.000559357	-23.6591	2.858	2.61779	1.1469	0.321348	0.141246	0.35102	23.7276	22472.8	51127.7	55848.6	-66.2724	0.0000000E+000	0.0000000E+000	0.0000000E+000	66.2724	0.0000000E+000	0.0000000E+000	0.0000000E+000	-66.2724	0.0000000E+000	0.0000000E+000	0.0000000E+000	-23.7276	0.0000000E+000	0.0000000E+000	0.0000000E+000	23.7276	2.27509	66.2724	4.93887e-06	0.000183705	1.86862e-08	0.000183687	3.78441	77976.1	7.9316	77968.2
251.044	4.09092	1.43012	4.33369	-19.2689	16.679	3.78483	-0.0105626	443.299	48.2756	1	10	0.00470468	0.00108561	0	0.000264271	0.0001179	5.6114e-06	-20.3282	0.0051689	0.00484698	0.00179566	-19.2701	4.33886	4.09577	1.43192	0.217824	0.0761479	0.23075	19.2689	48275.6	138094	146289	-70.7311	0.0000000E+000	0.0000000E+000	0.0000000E+000	70.7311	0.0000000E+000	0.0000000E+000	0.0000000E+000	-70.7311	0.0000000E+000	0.0000000E+000	0.0000000E+000	-19.2689	0.0000000E+000	0.0000000E+000	0.0000000E+000	19.2689	2.86054	70.7311	-7.9991e-07	-3.99775e-05	-1.24533e-09	-3.99763e-05	3.78471	358324	11.1621	358313
63.0823	5.23378	0.796792	5.29408	-8.65626	19.3999	3.78484	-0.00748786	3166.41	71.726	1	10	0.0046941	0.00088667	0	0.000259789	0.000213287	1.00069e-05	5.57738	0.0112859	0.0112325	-0.00109688	-8.62629	5.30502	5.24501	0.795695	0.186739	0.0284291	0.18889	8.65626	71725.9	471136	476565	-81.3437	0.0000000E+000	0.0000000E+000	0.0000000E+000	81.3437	0.0000000E+000	0.0000000E+000	0.0000000E+000	-81.3437	0.0000000E+000	0.0000000E+000	0.0000000E+000	-8.65626	0.0000000E+000	0.0000000E+000	0.0000000E+000	8.65626	6.56856	81.3437	-1.23157e-06	-2.83403e-05	-1.59706e-09	-2.83387e-05	3.78462	505463	28.4844	505435
15.8576	5.55201	0.319462	5.56119	-3.29316	22.058	3.78485	-0.012918	31417	103.673	1	10	0.00468528	0.000842496	0	0.000247787	3.43655e-06	7.77374e-06	-51.8778	0.00922704	0.00569622	0.00725887	-3.36437	5.5673	5.55771	0.326721	0.179521	0.0103296	0.179818	3.29316	103673	1.80176e+06	1.80474e+06	-86.7068	0.0000000E+000	0.0000000E+000	0.0000000E+000	86.7068	0.0000000E+000	0.0000000E+000	0.0000000E+000	-86.7068	0.0000000E+000	0.0000000E+000	0.0000000E+000	-3.29316	0.0000000E+000	0.0000000E+000	0.0000000E+000	3.29316	17.3793	86.7068	-3.38334e-06	-4.88927e-05	-4.43934e-11	-4.88927e-05	3.78484	292990	0.266028	292990
3.97785	5.67271	0.209534	5.67658	-2.11539	24.9714	3.78487	0.000362936	190949	260.168	1	10	0.00468043	0.000824516	0	0.000256004	0.000327751	3.12992e-06	-37.6581	0.00379607	0.00300524	0.0023192	-2.13765	5.67967	5.67571	0.211853	0.176042	0.00650252	0.176163	2.11539	260168	7.04351e+06	7.04831e+06	-87.8846	0.0000000E+000	0.0000000E+000	0.0000000E+000	87.8846	0.0000000E+000	0.0000000E+000	0.0000000E+000	-87.8846	0.0000000E+000	0.0000000E+000	0.0000000E+000	-2.11539	0.0000000E+000	0.0000000E+000	0.0000000E+000	2.11539	27.0729	87.8846	6.53674e-06	1.37366e-06	1.18953e-10	1.37354e-06	3.78454	1.04285e+07	903.054	1.04276e+07
1.00469	5.79498	0.267273	5.80114	-2.64069	240.226	3.78486	-0.00288868	592695	1258.1	1	11	0.00500855	0.000863373	0	-0.00287741	-0.000111027	4.98587e-07	-6.86117	0.000577487	0.000573352	6.8989e-05	-2.64111	5.80172	5.79556	0.267342	0.172197	0.00794196	0.17238	2.64069	1.2581e+06	2.72779e+07	2.73069e+07	-87.3593	0.0000000E+000	0.0000000E+000	0.0000000E+000	87.3593	0.0000000E+000	0.0000000E+000	0.0000000E+000	-87.3593	0.0000000E+000	0.0000000E+000	0.0000000E+000	-2.64069	0.0000000E+000	0.0000000E+000	0.0000000E+000	2.64069	21.6819	87.3593	-0.00315772	-1.09332e-05	3.20722e-10	-1.09335e-05	3.78497	1.31024e+06	38.4354	1.31028e+06
0.251173	6.03426	0.542612	6.0586	-5.13833	240.228	3.78486	-0.00288868	1.16777e+06	9366.79	1	11	0.00503606	0.000831225	0	-0.00287741	-0.000111027	4.85259e-07	-27.0067	0.000583788	0.000520128	0.000265095	-5.14038	6.05914	6.03478	0.542877	0.164391	0.0147824	0.165055	5.13833	9.36679e+06	1.04166e+08	1.04586e+08	-84.8617	0.0000000E+000	0.0000000E+000	0.0000000E+000	84.8617	0.0000000E+000	0.0000000E+000	0.0000000E+000	-84.8617	0.0000000E+000	0.0000000E+000	0.0000000E+000	-5.13833	0.0000000E+000	0.0000000E+000	0.0000000E+000	5.13833	11.1208	84.8617	0.000000000000000E+000	-1.09332e-05	3.20722e-10	-1.09335e-05	3.78497	1.31024e+06	38.4354	1.31028e+06
0.0602816	6.59433	1.05851	6.67875	-9.11925	240.231	3.78486	-0.00288868	2.49424e+06	62653	1	11	0.00502956	0.00075307	0	-0.00287741	-0.000111027	5.19431e-07	91.1699	0.000689752	-1.40822e-05	-0.000689608	-9.11343	6.67862	6.59432	1.05782	0.147836	0.0237305	0.149729	9.11925	6.26529e+07	3.90316e+08	3.95312e+08	-80.8808	0.0000000E+000	0.0000000E+000	0.0000000E+000	80.8808	0.0000000E+000	0.0000000E+000	0.0000000E+000	-80.8808	0.0000000E+000	0.0000000E+000	0.0000000E+000	-9.11925	0.0000000E+000	0.0000000E+000	0.0000000E+000	9.11925	6.2298	80.8808	0.000000000000000E+000	-1.09332e-05	3.20722e-10	-1.09335e-05	3.78497	1.31024e+06	38.4354	1.31028e+06
0.00796479	8.96247	1.81457	9.14432	-11.4455	20329.1	3.78484	0.00199074	1.10122e+07	433626	1	11	0.00502145	0.000549133	0	-0.031333	0.000175132	5.43012e-07	-14.9828	0.000988852	0.000955234	0.000255647	-11.4459	9.14531	8.96343	1.81482	0.107183	0.0217005	0.109358	11.4455	4.33626e+08	2.14176e+09	2.18522e+09	-78.5545	0.0000000E+000	0.0000000E+000	0.0000000E+000	78.5545	0.0000000E+000	0.0000000E+000	0.0000000E+000	-78.5545	0.0000000E+000	0.0000000E+000	0.0000000E+000	-11.4455	0.0000000E+000	0.0000000E+000	0.0000000E+000	11.4455	4.93919	78.5545	-0.0284556	7.53464e-06	3.48643e-10	7.53429e-06	3.78467	1.90122e+06	87.9734	1.90113e+06
0.0019912	10.1958	2.66282	10.5378	-14.6369	20329.1	3.78484	0.00199074	3.00168e+07	1.91668e+06	1	11	0.00503531	0.000477833	0	-0.031333	0.000175132	5.54849e-07	-33.2319	0.00116118	0.000971277	0.000636359	-14.6389	10.5389	10.1968	2.66346	0.0918168	0.0239796	0.0948965	14.6369	1.91667e+09	7.33885e+09	7.58501e+09	-75.3631	0.0000000E+000	0.0000000E+000	0.0000000E+000	75.3631	0.0000000E+000	0.0000000E+000	0.0000000E+000	-75.3631	0.0000000E+000	0.0000000E+000	0.0000000E+000	-14.6369	0.0000000E+000	0.0000000E+000	0.0000000E+000	14.6369	3.82895	75.3631	0.000000000000000E+000	7.53464e-06	3.48643e-10	7.53429e-06	3.78467	1.90122e+06	87.9734	1.90113e+06
0.000497799	10.3187	6.71099	12.3091	-33.0388	20329.1	3.78484	0.00199074	4.76408e+07	1.41612e+07	1	11	0.00503212	0.000408814	0	-0.031333	0.000175132	8.31613e-07	-10.3502	0.00203421	0.00200111	0.000365476	-33.0351	12.311	10.3207	6.71136	0.0681043	0.044293	0.0812408	33.0388	1.41612e+10	2.17741e+10	2.59741e+10	-56.9612	0.0000000E+000	0.0000000E+000	0.0000000E+000	56.9612	0.0000000E+000	0.0000000E+000	0.0000000E+000	-56.9612	0.0000000E+000	0.0000000E+000	0.0000000E+000	-33.0388	0.0000000E+000	0.0000000E+000	0.0000000E+000	33.0388	1.53759	56.9612	0.000000000000000E+000	7.53464e-06	3.48643e-10	7.53429e-06	3.78467	1.90122e+06	87.9734	1.90113e+06
9.95598e-05	12.2056	35.5608	37.5971	-71.0562	20329.1	3.78484	0.00199074	4.49536e+07	4.02159e+07	1	11	0.00503491	0.000133917	0	-0.031333	0.000175132	1.47287e-06	-89.0585	0.0109984	0.000180721	0.0109969	-71.0613	37.6076	12.2058	35.5718	0.00863473	0.0251572	0.0265978	71.0562	4.02159e+10	1.38034e+10	4.25188e+10	-18.9438	0.0000000E+000	0.0000000E+000	0.0000000E+000	18.9438	0.0000000E+000	0.0000000E+000	0.0000000E+000	-18.9438	0.0000000E+000	0.0000000E+000	0.0000000E+000	-71.0562	0.0000000E+000	0.0000000E+000	0.0000000E+000	71.0562	0.343232	18.9438	0.000000000000000E+000	7.53464e-06	3.48643e-10	7.53429e-06	3.78467	1.90122e+06	87.9734	1.90113e+06