File: txt/17226_R278_UC78_50SOC_C05.mpt
EC-Lab ASCII FILE
Nb header lines : 65

Potentio Electrochemical Impedance Spectroscopy

Run on channel : 5 (SN 65912)
User :
CE vs. WE compliance from -10 V to 10 V
Electrode connection : standard
Potential control : Ewe
Ewe ctrl range : min = -10.00 V, max = 10.00 V
Safety Limits :
	Do not start on E overload
Acquisition started on : 09/02/2025 16:41:54.104
Technique started on : 09/02/2025 16:41:54.991
Loaded Setting File :  C:\Users\Celltest\OneDrive - store-dot.com\Documents\EC-Lab\Data\Michael\R278\UC74_NCMA_16706_EIS_50_SOC.mps
Saved on :
	File : UC79_17226_EIS_50SOC_C05.mpr
	Directory : C:\Users\Celltest\OneDrive - store-dot.com\Documents\EC-Lab\Data\Michael\R278\
	Host : 169.254.61.224
Device : VMP-3e (SN .003165)
Address : USB
EC-LAB for windows v11.62 (software)
Internet server v27.00 (firmware)
Command interpretor v12.03 (firmware)
Electrode material :
Initial state :
Electrolyte :
Comments :
Electrode surface area : 0.001 cm²
Characteristic mass : 0.001 g
Equivalent Weight : 0.000 g/eq.
Density : 0.000 g/cm3
Volume (V) : 0.001 cm³
Record Ece
Cycle Definition : Charge/Discharge alternance
Mode                Multi sine
E (V)               0.0000
vs.                 Eoc
tE (h:m:s)          0:00:0.0000
record              0
dI                  0.000
unit dI             mA
dt (s)              0.000
fi                  1.000
unit fi             MHz
ff                  0.100
unit ff             mHz
Nd                  10
Points              per decade
spacing             Logarithmic
Va (mV)             5.0
pw                  0.10
Na                  2
corr                0
E range min (V)     -10.000
E range max (V)     10.000
I Range             Auto
Bandwidth           5
nc cycles           0
goto Ns'            0
nr cycles           0
inc. cycle          0

freq/Hz	Re(Z)/Ohm	-Im(Z)/Ohm	|Z|/Ohm	Phase(Z)/deg	time/s	<Ewe>/V	<I>/mA	Cs/µF	Cp/µF	cycle number	I Range	|Ewe|/V	|I|/A	Ns	(Q-Qo)/mA.h	<Ece>/V	|Ece|/V	Phase(Zce)/deg	|Zce|/Ohm	Re(Zce)/Ohm	-Im(Zce)/Ohm	Phase(Zwe-ce)/deg	|Zwe-ce|/Ohm	Re(Zwe-ce)/Ohm	-Im(Zwe-ce)/Ohm	Re(Y)/Ohm-1	Im(Y)/Ohm-1	|Y|/Ohm-1	Phase(Y)/deg	Re(C)/nF	Im(C)/nF	|C|/nF	Phase(C)/deg	Re(M)	Im(M)	|M|	Phase(M)/deg	Re(Permittivity)	Im(Permittivity)	|Permittivity|	Phase(Permittivity)/deg	Re(Resistivity)/Ohm.cm	Im(Resistivity)/Ohm.cm	|Resistivity|/Ohm.cm	Phase(Resistivity)/deg	Re(Conductivity)/mS/cm	Im(Conductivity)/mS/cm	|Conductivity|/mS/cm	Phase(Conductivity)/deg	Tan(Delta)	Loss Angle(Delta)/deg	dq/mA.h	Pwe/W	Pce/W	Pwe-ce/W	<Ewe-Ece>/V	Rwe/Ohm	Rce/Ohm	Rwe-ce/Ohm		Ewe-Ece/V
1.00002e+06	-79.8337	-392.797	400.828	101.489	0.886547	3.78432	-0.0434448	-0.000405176	-0.000389103	1	12	0.000172038	4.29207e-07	0	-2.30784e-06	0.000109745	0.000159503	106.394	371.622	-104.885	-356.514	103.848	771.743	-184.718	-749.311	-0.000496901	-0.00244485	0.00249484	-101.489	-0.389103	-0.0790828	0.397058	168.511	0.0000000E+000	0.0000000E+000	0.0000000E+000	-168.511	0.0000000E+000	0.0000000E+000	0.0000000E+000	168.511	0.0000000E+000	0.0000000E+000	0.0000000E+000	101.489	0.0000000E+000	0.0000000E+000	0.0000000E+000	-101.489	0.203244	11.4885	-2.30784e-06	-0.000164409	-4.76783e-09	-0.000164404	3.78421	87106.2	2.52607	87103.7
251206	1.0008	0.271167	1.03689	-15.1603	4.51956	3.78458	-0.00948046	2.33643	0.159795	1	9	0.00208539	0.0020112	0	2.7546e-05	-0.00011935	5.8839e-05	86.0387	0.0292556	0.00202106	-0.0291857	-13.5661	1.03161	1.00282	0.241981	0.93086	0.252216	0.964424	15.1603	159.795	589.758	611.023	-74.8397	0.0000000E+000	0.0000000E+000	0.0000000E+000	74.8397	0.0000000E+000	0.0000000E+000	0.0000000E+000	-74.8397	0.0000000E+000	0.0000000E+000	0.0000000E+000	-15.1603	0.0000000E+000	0.0000000E+000	0.0000000E+000	15.1603	3.69073	74.8397	1.54921e-06	-3.58795e-05	1.13149e-09	-3.58807e-05	3.7847	399198	12.5891	399210
63093.8	1.43041	0.534258	1.52692	-20.4807	6.81755	3.78434	-0.0415067	4.72152	0.57803	1	9	0.00532304	0.00348612	0	9.46671e-06	-6.20764e-05	2.13451e-05	57.0736	0.00612287	0.00332816	-0.00513935	-20.2566	1.52825	1.43373	0.529119	0.613515	0.229149	0.654912	20.4807	578.03	1547.6	1652.02	-69.5193	0.0000000E+000	0.0000000E+000	0.0000000E+000	69.5193	0.0000000E+000	0.0000000E+000	0.0000000E+000	-69.5193	0.0000000E+000	0.0000000E+000	0.0000000E+000	-20.4807	0.0000000E+000	0.0000000E+000	0.0000000E+000	20.4807	2.67737	69.5193	-9.23933e-06	-0.000157075	2.57658e-09	-0.000157078	3.78441	91174.4	1.49558	91175.9
15847.7	1.94061	0.549996	2.01704	-15.8235	9.11551	3.78431	-0.0291803	18.2597	1.35764	1	9	0.0052259	0.00259087	0	-1.0735e-05	3.33797e-05	5.04417e-06	32.6067	0.0019469	0.00164005	-0.00104913	-15.7822	2.01833	1.94225	0.548947	0.476989	0.135186	0.495776	15.8235	1357.64	4790.3	4978.98	-74.1765	0.0000000E+000	0.0000000E+000	0.0000000E+000	74.1765	0.0000000E+000	0.0000000E+000	0.0000000E+000	-74.1765	0.0000000E+000	0.0000000E+000	0.0000000E+000	-15.8235	0.0000000E+000	0.0000000E+000	0.0000000E+000	15.8235	3.5284	74.1765	-3.94223e-06	-0.000110427	-9.74028e-10	-0.000110426	3.78428	129687	1.14391	129686
3983.6	2.38554	0.653685	2.47349	-15.324	11.4811	3.78431	-0.0126831	61.119	4.26869	1	9	0.0050328	0.0020347	0	-3.08044e-05	0.000281565	6.08777e-06	-18.767	0.00299197	0.0028329	0.000962581	-15.3281	2.47647	2.38838	0.654647	0.389914	0.106844	0.404288	15.324	4268.69	15578.1	16152.3	-74.676	0.0000000E+000	0.0000000E+000	0.0000000E+000	74.676	0.0000000E+000	0.0000000E+000	0.0000000E+000	-74.676	0.0000000E+000	0.0000000E+000	0.0000000E+000	-15.324	0.0000000E+000	0.0000000E+000	0.0000000E+000	15.324	3.64938	74.676	2.70941e-06	-4.79967e-05	-3.57112e-09	-4.79931e-05	3.78403	298375	22.2001	298352
1000.32	3.01346	1.0231	3.1824	-18.7529	14.3238	3.78431	-0.0413205	155.511	16.0727	1	9	0.00531921	0.00167144	0	-5.90188e-05	7.15621e-05	7.56534e-06	45.5379	0.00452623	0.00317034	-0.00323043	-18.6795	3.18437	3.01663	1.01987	0.297547	0.10102	0.314228	18.7529	16072.7	47340.9	49994.9	-71.2471	0.0000000E+000	0.0000000E+000	0.0000000E+000	71.2471	0.0000000E+000	0.0000000E+000	0.0000000E+000	-71.2471	0.0000000E+000	0.0000000E+000	0.0000000E+000	-18.7529	0.0000000E+000	0.0000000E+000	0.0000000E+000	18.7529	2.94541	71.2471	-5.35378e-06	-0.000156369	-2.95698e-09	-0.000156366	3.78424	91584.3	1.73188	91582.5
251.044	4.31957	1.40495	4.54231	-18.0173	17.2711	3.7843	-0.0321687	451.24	43.1696	1	10	0.00518474	0.00114143	0	-8.60634e-05	0.000338839	1.33644e-05	-55.9471	0.0117085	0.00655626	0.00970072	-18.1079	4.55155	4.32613	1.41465	0.209357	0.0680939	0.220152	18.0173	43169.6	132726	139570	-71.9827	0.0000000E+000	0.0000000E+000	0.0000000E+000	71.9827	0.0000000E+000	0.0000000E+000	0.0000000E+000	-71.9827	0.0000000E+000	0.0000000E+000	0.0000000E+000	-18.0173	0.0000000E+000	0.0000000E+000	0.0000000E+000	18.0173	3.07453	71.9827	-3.08086e-06	-0.000121736	-1.09e-08	-0.000121725	3.78396	117639	10.5332	117629
63.0823	5.56416	0.848206	5.62844	-8.6675	19.993	3.78436	-0.0269149	2974.48	67.552	1	10	0.00513311	0.000911996	0	-0.000105215	-8.11676e-05	9.55468e-06	-8.65055	0.0104767	0.0103575	0.00157577	-8.66747	5.63891	5.57452	0.849782	0.17564	0.0267748	0.177669	8.6675	67552	443135	448255	-81.3325	0.0000000E+000	0.0000000E+000	0.0000000E+000	81.3325	0.0000000E+000	0.0000000E+000	0.0000000E+000	-81.3325	0.0000000E+000	0.0000000E+000	0.0000000E+000	-8.6675	0.0000000E+000	0.0000000E+000	0.0000000E+000	8.6675	6.55991	81.3325	-3.90049e-06	-0.000101856	2.18462e-09	-0.000101858	3.78444	140604	3.01571	140607
15.8576	5.91072	0.325245	5.91966	-3.14959	22.6511	3.7843	-0.032057	30858.4	93.1535	1	10	0.00512281	0.000865388	0	-0.000131767	0.000186109	1.95486e-05	-47.2414	0.0225894	0.0153362	0.0165856	-3.30131	5.93591	5.92606	0.34183	0.168673	0.00928146	0.168929	3.14959	93153.6	1.69289e+06	1.69545e+06	-86.8504	0.0000000E+000	0.0000000E+000	0.0000000E+000	86.8504	0.0000000E+000	0.0000000E+000	0.0000000E+000	-86.8504	0.0000000E+000	0.0000000E+000	0.0000000E+000	-3.14959	0.0000000E+000	0.0000000E+000	0.0000000E+000	3.14959	18.1732	86.8504	-5.44968e-06	-0.000121313	-5.9661e-09	-0.000121307	3.78412	118049	5.80558	118043
3.97785	6.03091	0.211039	6.0346	-2.00412	25.5644	3.78431	-0.026753	189587	231.866	1	10	0.00512015	0.000848465	0	-0.000142897	1.42885e-05	1.2085e-05	-63.8147	0.0142433	0.00628524	0.0127816	-2.12319	6.04134	6.03719	0.22382	0.16561	0.00579515	0.165711	2.00412	231866	6.62609e+06	6.63015e+06	-87.9959	0.0000000E+000	0.0000000E+000	0.0000000E+000	87.9959	0.0000000E+000	0.0000000E+000	0.0000000E+000	-87.9959	0.0000000E+000	0.0000000E+000	0.0000000E+000	-2.00412	0.0000000E+000	0.0000000E+000	0.0000000E+000	2.00412	28.5773	87.9959	3.04493e-06	-0.000101242	-3.82259e-10	-0.000101241	3.7843	141454	0.534088	141453
1.00469	6.16188	0.255007	6.16716	-2.36981	240.818	3.78431	-0.0235197	621204	1062.11	1	11	0.00507488	0.000822888	0	-0.00458878	0.000109745	8.68584e-07	-0.818496	0.00105553	0.00105542	1.50782e-05	-2.36955	6.16821	6.16294	0.255022	0.162011	0.00670475	0.162149	2.36981	1.06211e+06	2.56643e+07	2.56863e+07	-87.6302	0.0000000E+000	0.0000000E+000	0.0000000E+000	87.6302	0.0000000E+000	0.0000000E+000	0.0000000E+000	-87.6302	0.0000000E+000	0.0000000E+000	0.0000000E+000	-2.36981	0.0000000E+000	0.0000000E+000	0.0000000E+000	2.36981	24.1636	87.6302	-0.00442598	-8.90058e-05	-2.58116e-09	-8.90032e-05	3.7842	160899	4.66606	160895
0.251173	6.3817	0.511903	6.4022	-4.58612	240.821	3.78431	-0.0235197	1.23782e+06	7913.63	1	11	0.00510337	0.000797128	0	-0.00458878	0.000109745	9.48636e-07	-14.7383	0.00119007	0.00115091	0.000302759	-4.58799	6.40337	6.38285	0.512206	0.155696	0.0124891	0.156196	4.58612	7.91364e+06	9.86562e+07	9.89731e+07	-85.4139	0.0000000E+000	0.0000000E+000	0.0000000E+000	85.4139	0.0000000E+000	0.0000000E+000	0.0000000E+000	-85.4139	0.0000000E+000	0.0000000E+000	0.0000000E+000	-4.58612	0.0000000E+000	0.0000000E+000	0.0000000E+000	4.58612	12.4666	85.4139	0.000000000000000E+000	-8.90058e-05	-2.58116e-09	-8.90032e-05	3.7842	160899	4.66606	160895
0.0602816	6.91883	1.04127	6.99675	-8.5587	240.825	3.78431	-0.0235197	2.53554e+06	56157.5	1	11	0.00509385	0.000728031	0	-0.00458878	0.000109745	9.94535e-07	-1.96173	0.00136606	0.00136526	4.6763e-05	-8.55741	6.99811	6.9202	1.04132	0.141332	0.0212702	0.142924	8.5587	5.61575e+07	3.73143e+08	3.77345e+08	-81.4413	0.0000000E+000	0.0000000E+000	0.0000000E+000	81.4413	0.0000000E+000	0.0000000E+000	0.0000000E+000	-81.4413	0.0000000E+000	0.0000000E+000	0.0000000E+000	-8.5587	0.0000000E+000	0.0000000E+000	0.0000000E+000	8.5587	6.64458	81.4413	0.000000000000000E+000	-8.90058e-05	-2.58116e-09	-8.90032e-05	3.7842	160899	4.66606	160895
0.00796479	9.37769	1.82589	9.55379	-11.018	20329.7	3.78431	0.0011196	1.09439e+07	399732	1	11	0.00508769	0.000532531	0	-0.0392306	0.000205201	4.38139e-07	-50.7329	0.000822748	0.000520747	0.000636974	-11.0211	9.55443	9.37821	1.82653	0.102741	0.0200043	0.10467	11.018	3.99732e+08	2.05301e+09	2.09156e+09	-78.982	0.0000000E+000	0.0000000E+000	0.0000000E+000	78.982	0.0000000E+000	0.0000000E+000	0.0000000E+000	-78.982	0.0000000E+000	0.0000000E+000	0.0000000E+000	-11.018	0.0000000E+000	0.0000000E+000	0.0000000E+000	11.018	5.13596	78.982	-0.0346419	4.23691e-06	2.29743e-10	4.23668e-06	3.7841	3.38005e+06	183.28	3.37986e+06
0.0019912	10.6623	2.6635	10.9899	-14.0258	20329.7	3.78431	0.0011196	3.00091e+07	1.76266e+06	1	11	0.00510026	0.000464085	0	-0.0392306	0.000205201	4.20325e-07	-27.3824	0.000905705	0.000804227	0.000416558	-14.0269	10.9908	10.6631	2.66392	0.0882797	0.0220528	0.0909924	14.0258	1.76266e+09	7.05613e+09	7.27296e+09	-75.9742	0.0000000E+000	0.0000000E+000	0.0000000E+000	75.9742	0.0000000E+000	0.0000000E+000	0.0000000E+000	-75.9742	0.0000000E+000	0.0000000E+000	0.0000000E+000	-14.0258	0.0000000E+000	0.0000000E+000	0.0000000E+000	14.0258	4.00311	75.9742	0.000000000000000E+000	4.23691e-06	2.29743e-10	4.23668e-06	3.7841	3.38005e+06	183.28	3.37986e+06
0.000497799	10.9498	6.75443	12.8655	-31.6684	20329.7	3.78431	0.0011196	4.73345e+07	1.30467e+07	1	11	0.00510038	0.000396438	0	-0.0392306	0.000205201	7.79748e-07	7.35681	0.00196688	0.00195069	-0.000251856	-31.6629	12.867	10.9518	6.75417	0.0661537	0.040807	0.0777272	31.6684	1.30467e+10	2.11505e+10	2.48507e+10	-58.3316	0.0000000E+000	0.0000000E+000	0.0000000E+000	58.3316	0.0000000E+000	0.0000000E+000	0.0000000E+000	-58.3316	0.0000000E+000	0.0000000E+000	0.0000000E+000	-31.6684	0.0000000E+000	0.0000000E+000	0.0000000E+000	31.6684	1.62114	58.3316	0.000000000000000E+000	4.23691e-06	2.29743e-10	4.23668e-06	3.7841	3.38005e+06	183.28	3.37986e+06
9.95598e-05	12.6198	35.0979	37.2977	-70.2234	20329.7	3.78431	0.0011196	4.55465e+07	4.03322e+07	1	11	0.00509984	0.000136733	0	-0.0392306	0.000205201	1.05033e-06	-66.0645	0.00768163	0.0031165	0.00702103	-70.2225	37.3054	12.6229	35.1049	0.0090717	0.0252299	0.0268113	70.2234	4.03322e+10	1.45019e+10	4.28602e+10	-19.7766	0.0000000E+000	0.0000000E+000	0.0000000E+000	19.7766	0.0000000E+000	0.0000000E+000	0.0000000E+000	-19.7766	0.0000000E+000	0.0000000E+000	0.0000000E+000	-70.2234	0.0000000E+000	0.0000000E+000	0.0000000E+000	70.2234	0.359561	19.7766	0.000000000000000E+000	4.23691e-06	2.29743e-10	4.23668e-06	3.7841	3.38005e+06	183.28	3.37986e+06