File: txt/17227_R278_UC79_50SOC_C06.mpt
EC-Lab ASCII FILE
Nb header lines : 64

Potentio Electrochemical Impedance Spectroscopy

Run on channel : 6 (SN 65795)
User :
CE vs. WE compliance from -10 V to 10 V
Electrode connection : standard
Potential control : Ewe
Ewe ctrl range : min = -10.00 V, max = 10.00 V
Safety Limits :
	Do not start on E overload
Acquisition started on : 09/02/2025 16:42:06.820
Loaded Setting File :  C:\Users\Celltest\OneDrive - store-dot.com\Documents\EC-Lab\Data\Michael\R278\UC74_NCMA_16706_EIS_50_SOC.mps
Saved on :
	File : UC79_17227_EIS_50SOC_C06.mpr
	Directory : C:\Users\Celltest\OneDrive - store-dot.com\Documents\EC-Lab\Data\Michael\R278\
	Host : 169.254.61.224
Device : VMP-3e (SN .003165)
Address : USB
EC-LAB for windows v11.62 (software)
Internet server v27.00 (firmware)
Command interpretor v12.03 (firmware)
Electrode material :
Initial state :
Electrolyte :
Comments :
Electrode surface area : 0.001 cm²
Characteristic mass : 0.001 g
Equivalent Weight : 0.000 g/eq.
Density : 0.000 g/cm3
Volume (V) : 0.001 cm³
Record Ece
Cycle Definition : Charge/Discharge alternance
Mode                Multi sine
E (V)               0.0000
vs.                 Eoc
tE (h:m:s)          0:00:0.0000
record              0
dI                  0.000
unit dI             mA
dt (s)              0.000
fi                  1.000
unit fi             MHz
ff                  0.100
unit ff             mHz
Nd                  10
Points              per decade
spacing             Logarithmic
Va (mV)             5.0
pw                  0.10
Na                  2
corr                0
E range min (V)     -10.000
E range max (V)     10.000
I Range             Auto
Bandwidth           5
nc cycles           0
goto Ns'            0
nr cycles           0
inc. cycle          0

freq/Hz	Re(Z)/Ohm	-Im(Z)/Ohm	|Z|/Ohm	Phase(Z)/deg	time/s	<Ewe>/V	<I>/mA	Cs/µF	Cp/µF	cycle number	I Range	|Ewe|/V	|I|/A	Ns	(Q-Qo)/mA.h	<Ece>/V	|Ece|/V	Phase(Zce)/deg	|Zce|/Ohm	Re(Zce)/Ohm	-Im(Zce)/Ohm	Phase(Zwe-ce)/deg	|Zwe-ce|/Ohm	Re(Zwe-ce)/Ohm	-Im(Zwe-ce)/Ohm	Re(Y)/Ohm-1	Im(Y)/Ohm-1	|Y|/Ohm-1	Phase(Y)/deg	Re(C)/nF	Im(C)/nF	|C|/nF	Phase(C)/deg	Re(M)	Im(M)	|M|	Phase(M)/deg	Re(Permittivity)	Im(Permittivity)	|Permittivity|	Phase(Permittivity)/deg	Re(Resistivity)/Ohm.cm	Im(Resistivity)/Ohm.cm	|Resistivity|/Ohm.cm	Phase(Resistivity)/deg	Re(Conductivity)/mS/cm	Im(Conductivity)/mS/cm	|Conductivity|/mS/cm	Phase(Conductivity)/deg	Tan(Delta)	Loss Angle(Delta)/deg	dq/mA.h	Pwe/W	Pce/W	Pwe-ce/W	<Ewe-Ece>/V	Rwe/Ohm	Rce/Ohm	Rwe-ce/Ohm		Ewe-Ece/V
1.00002e+06	2.61664	2.75261	3.79785	-46.4506	2.23454	3.78485	-0.0022888	0.0578185	0.0303725	1	10	0.000189936	5.00115e-05	0	-1.9946e-05	0.000183937	0.000202872	-62.3146	4.05652	1.88472	3.59209	-54.6455	7.7793	4.50137	6.34471	0.181413	0.19084	0.263307	46.4506	30.3725	28.8722	41.9058	-43.5494	0.0000000E+000	0.0000000E+000	0.0000000E+000	43.5494	0.0000000E+000	0.0000000E+000	0.0000000E+000	-43.5494	0.0000000E+000	0.0000000E+000	0.0000000E+000	-46.4506	0.0000000E+000	0.0000000E+000	0.0000000E+000	46.4506	0.950603	43.5494	-1.9946e-05	-8.66275e-06	-4.20995e-10	-8.66232e-06	3.78467	1.65364e+06	80.3642	1.65356e+06
251206	0.76221	0.235203	0.797674	-17.1492	4.94656	3.78463	0.0376529	2.69368	0.234197	1	9	0.00150807	0.00189059	0	2.06055e-06	0.000183937	8.15281e-05	66.7409	0.0431232	0.0170289	-0.0396185	-14.0899	0.803409	0.779239	0.195585	1.19791	0.369651	1.25364	17.1492	234.197	758.95	794.263	-72.8508	0.0000000E+000	0.0000000E+000	0.0000000E+000	72.8508	0.0000000E+000	0.0000000E+000	0.0000000E+000	-72.8508	0.0000000E+000	0.0000000E+000	0.0000000E+000	-17.1492	0.0000000E+000	0.0000000E+000	0.0000000E+000	17.1492	3.24064	72.8508	2.03955e-06	0.000142502	6.92576e-09	0.000142495	3.78444	100514	4.88508	100509
63093.8	1.23902	0.543754	1.35308	-23.6947	7.12256	3.78453	0.0230509	4.63907	0.749179	1	9	0.00539029	0.0039837	0	2.7763e-06	0.000260329	3.48438e-05	31.4282	0.00874659	0.00746341	-0.00456073	-23.3919	1.35811	1.24648	0.539193	0.67675	0.296997	0.739052	23.6947	749.179	1707.11	1864.27	-66.3053	0.0000000E+000	0.0000000E+000	0.0000000E+000	66.3053	0.0000000E+000	0.0000000E+000	0.0000000E+000	-66.3053	0.0000000E+000	0.0000000E+000	0.0000000E+000	-23.6947	0.0000000E+000	0.0000000E+000	0.0000000E+000	23.6947	2.27864	66.3053	-5.48062e-06	8.72369e-05	6.00084e-09	8.72309e-05	3.78427	164181	11.2937	164170
15847.7	1.74451	0.499439	1.8146	-15.976	9.42253	3.7845	0.0239077	20.1081	1.52327	1	9	0.0052651	0.00290152	0	1.49243e-05	-8.34353e-05	5.56588e-06	-26.3169	0.00191826	0.00171944	0.000850432	-15.9868	1.81649	1.74623	0.50029	0.529802	0.151678	0.551086	15.976	1523.27	5320.69	5534.44	-74.024	0.0000000E+000	0.0000000E+000	0.0000000E+000	74.024	0.0000000E+000	0.0000000E+000	0.0000000E+000	-74.024	0.0000000E+000	0.0000000E+000	0.0000000E+000	-15.976	0.0000000E+000	0.0000000E+000	0.0000000E+000	15.976	3.49294	74.024	3.56837e-06	9.04786e-05	-1.99474e-09	9.04806e-05	3.78459	158297	3.4899	158300
3983.6	2.11422	0.545622	2.18349	-14.4707	11.7901	3.78449	0.0313204	73.2238	4.57228	1	9	0.00517237	0.00236885	0	2.72073e-05	-2.61412e-05	8.36415e-06	-63.5026	0.00353089	0.00157533	0.00315999	-14.5406	2.18581	2.1158	0.548782	0.443453	0.114443	0.457982	14.4707	4572.28	17717.1	18297.5	-75.5293	0.0000000E+000	0.0000000E+000	0.0000000E+000	75.5293	0.0000000E+000	0.0000000E+000	0.0000000E+000	-75.5293	0.0000000E+000	0.0000000E+000	0.0000000E+000	-14.4707	0.0000000E+000	0.0000000E+000	0.0000000E+000	14.4707	3.87488	75.5293	6.95127e-07	0.000118532	-8.18751e-10	0.000118533	3.78452	120832	0.834638	120833
1000.32	2.61044	0.888647	2.75755	-18.7996	14.8098	3.78449	0.0283404	179.041	18.5936	1	9	0.00529135	0.00191886	0	4.48827e-05	-8.34353e-05	1.18906e-05	-112.387	0.0061967	-0.00236007	0.00572967	-18.9281	2.75717	2.60808	0.894377	0.343294	0.116864	0.36264	18.7996	18593.6	54619.5	57697.5	-71.2004	0.0000000E+000	0.0000000E+000	0.0000000E+000	71.2004	0.0000000E+000	0.0000000E+000	0.0000000E+000	-71.2004	0.0000000E+000	0.0000000E+000	0.0000000E+000	-18.7996	0.0000000E+000	0.0000000E+000	0.0000000E+000	18.7996	2.93754	71.2004	4.42263e-06	0.000107254	-2.36459e-09	0.000107256	3.78457	133537	2.94404	133540
251.044	3.80761	1.27956	4.01686	-18.575	17.7561	3.78449	-0.0411679	495.462	50.2754	1	10	0.00513081	0.00127732	0	2.27592e-05	0.00035582	1.07527e-05	107.171	0.00841818	-0.00248524	-0.00804297	-18.4775	4.01195	3.80513	1.27151	0.235982	0.0793023	0.248951	18.575	50275.4	149606	157828	-71.425	0.0000000E+000	0.0000000E+000	0.0000000E+000	71.425	0.0000000E+000	0.0000000E+000	0.0000000E+000	-71.425	0.0000000E+000	0.0000000E+000	0.0000000E+000	-18.575	0.0000000E+000	0.0000000E+000	0.0000000E+000	18.575	2.97573	71.425	-5.82958e-06	-0.0001558	-1.46484e-08	-0.000155785	3.78413	91928.1	8.64312	91919.4
63.0823	4.96273	0.768252	5.02184	-8.79979	20.476	3.78449	-0.0390811	3284.04	76.8583	1	10	0.00506849	0.00100929	0	-9.08677e-06	0.000241231	4.4593e-06	-51.7171	0.00441825	0.0027373	0.00346816	-8.83409	5.02508	4.96547	0.77172	0.196786	0.0304634	0.19913	8.79979	76858.3	496486	502400	-81.2002	0.0000000E+000	0.0000000E+000	0.0000000E+000	81.2002	0.0000000E+000	0.0000000E+000	0.0000000E+000	-81.2002	0.0000000E+000	0.0000000E+000	0.0000000E+000	-8.79979	0.0000000E+000	0.0000000E+000	0.0000000E+000	8.79979	6.45976	81.2002	-4.6926e-06	-0.000147902	-9.42758e-09	-0.000147893	3.78425	96836.9	6.17259	96830.7
15.8576	5.27264	0.303882	5.28138	-3.29852	23.1341	3.78449	-0.0394947	33027.7	109.343	1	10	0.00505406	0.000956958	0	-4.59286e-05	0.000164839	5.39168e-06	0.383754	0.00563419	0.00563406	-3.77362e-05	-3.2946	5.28701	5.27827	0.303844	0.189031	0.0108945	0.189344	3.29852	109343	1.89721e+06	1.90036e+06	-86.7015	0.0000000E+000	0.0000000E+000	0.0000000E+000	86.7015	0.0000000E+000	0.0000000E+000	0.0000000E+000	-86.7015	0.0000000E+000	0.0000000E+000	0.0000000E+000	-3.29852	0.0000000E+000	0.0000000E+000	0.0000000E+000	3.29852	17.351	86.7015	-8.86465e-06	-0.000149467	-6.51028e-09	-0.000149461	3.78433	95822.7	4.1737	95818.5
3.97785	5.38782	0.177995	5.39076	-1.89217	26.0474	3.78451	-0.033413	224783	245.064	1	10	0.00506085	0.000938801	0	-7.19616e-05	-4.52392e-05	8.10567e-06	79.0941	0.00863407	0.00163353	-0.00847813	-1.80156	5.39212	5.38945	0.169517	0.185401	0.00612504	0.185503	1.89217	245065	7.41796e+06	7.42201e+06	-88.1078	0.0000000E+000	0.0000000E+000	0.0000000E+000	88.1078	0.0000000E+000	0.0000000E+000	0.0000000E+000	-88.1078	0.0000000E+000	0.0000000E+000	0.0000000E+000	-1.89217	0.0000000E+000	0.0000000E+000	0.0000000E+000	1.89217	30.2694	88.1078	-1.08819e-05	-0.000126452	1.51158e-09	-0.000126453	3.78456	113265	1.35394	113266
1.00469	5.48559	0.213787	5.48976	-2.23183	241.405	3.7845	-0.0328768	740978	1123.73	1	11	0.00500579	0.000911842	0	-0.0055542	5.0251e-05	7.56745e-07	0.193315	0.000829908	0.000829904	-2.80009e-06	-2.23146	5.49059	5.48642	0.213784	0.182019	0.00709373	0.182157	2.23183	1.12373e+06	2.88339e+07	2.88558e+07	-87.7682	0.0000000E+000	0.0000000E+000	0.0000000E+000	87.7682	0.0000000E+000	0.0000000E+000	0.0000000E+000	-87.7682	0.0000000E+000	0.0000000E+000	0.0000000E+000	-2.23183	0.0000000E+000	0.0000000E+000	0.0000000E+000	2.23183	25.6592	87.7682	-0.00542506	-0.000124422	-1.65209e-09	-0.000124421	3.78445	115112	1.52846	115110
0.251173	5.66133	0.443082	5.67864	-4.47511	241.406	3.7845	-0.0328768	1.43009e+06	8706.46	1	11	0.00503338	0.00088637	0	-0.0055542	5.0251e-05	7.42237e-07	9.32593	0.00083739	0.000826321	-0.000135699	-4.4731	5.67945	5.66215	0.442946	0.175562	0.0137403	0.176098	4.47511	8.70646e+06	1.11244e+08	1.11584e+08	-85.5249	0.0000000E+000	0.0000000E+000	0.0000000E+000	85.5249	0.0000000E+000	0.0000000E+000	0.0000000E+000	-85.5249	0.0000000E+000	0.0000000E+000	0.0000000E+000	-4.47511	0.0000000E+000	0.0000000E+000	0.0000000E+000	4.47511	12.7772	85.5249	0.000000000000000E+000	-0.000124422	-1.65209e-09	-0.000124421	3.78445	115112	1.52846	115110
0.0602816	6.15663	0.936969	6.22752	-8.65336	241.407	3.7845	-0.0328768	2.8178e+06	63786.6	1	11	0.00502556	0.000806991	0	-0.0055542	5.0251e-05	6.55915e-07	-26.6699	0.000812791	0.000726316	0.00036482	-8.65568	6.2283	6.15736	0.937334	0.15875	0.0241599	0.160577	8.65336	6.37867e+07	4.19129e+08	4.23955e+08	-81.3466	0.0000000E+000	0.0000000E+000	0.0000000E+000	81.3466	0.0000000E+000	0.0000000E+000	0.0000000E+000	-81.3466	0.0000000E+000	0.0000000E+000	0.0000000E+000	-8.65336	0.0000000E+000	0.0000000E+000	0.0000000E+000	8.65336	6.57079	81.3466	0.000000000000000E+000	-0.000124422	-1.65209e-09	-0.000124421	3.78445	115112	1.52846	115110
0.00796479	8.34331	1.63332	8.50168	-11.0764	20330.3	3.78446	0.00258182	1.22342e+07	451552	1	11	0.0050186	0.000590307	0	-0.0428596	0.000126643	1.93041e-07	82.8549	0.000327018	4.06753e-05	-0.000324478	-11.0742	8.50166	8.34335	1.633	0.115433	0.0225976	0.117624	11.0764	4.51552e+08	2.30661e+09	2.3504e+09	-78.9236	0.0000000E+000	0.0000000E+000	0.0000000E+000	78.9236	0.0000000E+000	0.0000000E+000	0.0000000E+000	-78.9236	0.0000000E+000	0.0000000E+000	0.0000000E+000	-11.0764	0.0000000E+000	0.0000000E+000	0.0000000E+000	11.0764	5.10819	78.9236	-0.0373054	9.77078e-06	3.26969e-10	9.77046e-06	3.78433	1.46581e+06	49.0519	1.46576e+06
0.0019912	9.51802	2.50019	9.84092	-14.7179	20330.3	3.78446	0.00258182	3.19693e+07	2.06351e+06	1	11	0.00503169	0.000511302	0	-0.0428596	0.000126643	5.50081e-07	-85.8535	0.00107584	7.77905e-05	0.00107303	-14.7239	9.84127	9.5181	2.50126	0.0982823	0.0258167	0.101617	14.7179	2.06351e+09	7.85563e+09	8.12214e+09	-75.2821	0.0000000E+000	0.0000000E+000	0.0000000E+000	75.2821	0.0000000E+000	0.0000000E+000	0.0000000E+000	-75.2821	0.0000000E+000	0.0000000E+000	0.0000000E+000	-14.7179	0.0000000E+000	0.0000000E+000	0.0000000E+000	14.7179	3.80692	75.2821	0.000000000000000E+000	9.77078e-06	3.26969e-10	9.77046e-06	3.78433	1.46581e+06	49.0519	1.46576e+06
0.000497799	9.80745	6.63756	11.8424	-34.0897	20330.3	3.78446	0.00258182	4.81679e+07	1.51319e+07	1	11	0.00502873	0.000424636	0	-0.0428596	0.000126643	3.00874e-06	-19.3311	0.00708544	0.00668598	0.00234548	-34.0809	11.8493	9.81414	6.63991	0.0699317	0.0473289	0.0844421	34.0897	1.51319e+10	2.23584e+10	2.69976e+10	-55.9103	0.0000000E+000	0.0000000E+000	0.0000000E+000	55.9103	0.0000000E+000	0.0000000E+000	0.0000000E+000	-55.9103	0.0000000E+000	0.0000000E+000	0.0000000E+000	-34.0897	0.0000000E+000	0.0000000E+000	0.0000000E+000	34.0897	1.47757	55.9103	0.000000000000000E+000	9.77078e-06	3.26969e-10	9.77046e-06	3.78433	1.46581e+06	49.0519	1.46576e+06
9.95598e-05	11.0297	35.659	37.3259	-72.8126	20330.3	3.78446	0.00258182	4.48298e+07	4.09153e+07	1	11	0.00503651	0.000134933	0	-0.0428596	0.000126643	4.32122e-06	63.1111	0.0320248	0.0144836	-0.0285625	-72.7784	37.3029	11.0442	35.6305	0.0079167	0.0255947	0.0267911	72.8126	4.09153e+10	1.26555e+10	4.28278e+10	-17.1874	0.0000000E+000	0.0000000E+000	0.0000000E+000	17.1874	0.0000000E+000	0.0000000E+000	0.0000000E+000	-17.1874	0.0000000E+000	0.0000000E+000	0.0000000E+000	-72.8126	0.0000000E+000	0.0000000E+000	0.0000000E+000	72.8126	0.30931	17.1874	0.000000000000000E+000	9.77078e-06	3.26969e-10	9.77046e-06	3.78433	1.46581e+06	49.0519	1.46576e+06