File: txt/17222_R278_UC78_50SOC__C02.mpt
EC-Lab ASCII FILE
Nb header lines : 64

Potentio Electrochemical Impedance Spectroscopy

Run on channel : 2 (SN 66139)
User :
CE vs. WE compliance from -10 V to 10 V
Electrode connection : standard
Potential control : Ewe
Ewe ctrl range : min = -10.00 V, max = 10.00 V
Safety Limits :
	Do not start on E overload
Acquisition started on : 09/02/2025 16:41:01.458
Loaded Setting File :  C:\Users\Celltest\OneDrive - store-dot.com\Documents\EC-Lab\Data\Michael\R278\UC74_NCMA_16706_EIS_50_SOC.mps
Saved on :
	File : UC78_17222_EIS_50SOC_C02.mpr
	Directory : C:\Users\Celltest\OneDrive - store-dot.com\Documents\EC-Lab\Data\Michael\R278\
	Host : 169.254.61.224
Device : VMP-3e (SN .003165)
Address : USB
EC-LAB for windows v11.62 (software)
Internet server v27.00 (firmware)
Command interpretor v12.03 (firmware)
Electrode material :
Initial state :
Electrolyte :
Comments :
Electrode surface area : 0.001 cm²
Characteristic mass : 0.001 g
Equivalent Weight : 0.000 g/eq.
Density : 0.000 g/cm3
Volume (V) : 0.001 cm³
Record Ece
Cycle Definition : Charge/Discharge alternance
Mode                Multi sine
E (V)               0.0000
vs.                 Eoc
tE (h:m:s)          0:00:0.0000
record              0
dI                  0.000
unit dI             mA
dt (s)              0.000
fi                  1.000
unit fi             MHz
ff                  0.100
unit ff             mHz
Nd                  10
Points              per decade
spacing             Logarithmic
Va (mV)             5.0
pw                  0.10
Na                  2
corr                0
E range min (V)     -10.000
E range max (V)     10.000
I Range             Auto
Bandwidth           5
nc cycles           0
goto Ns'            0
nr cycles           0
inc. cycle          0

freq/Hz	Re(Z)/Ohm	-Im(Z)/Ohm	|Z|/Ohm	Phase(Z)/deg	time/s	<Ewe>/V	<I>/mA	Cs/µF	Cp/µF	cycle number	I Range	|Ewe|/V	|I|/A	Ns	(Q-Qo)/mA.h	<Ece>/V	|Ece|/V	Phase(Zce)/deg	|Zce|/Ohm	Re(Zce)/Ohm	-Im(Zce)/Ohm	Phase(Zwe-ce)/deg	|Zwe-ce|/Ohm	Re(Zwe-ce)/Ohm	-Im(Zwe-ce)/Ohm	Re(Y)/Ohm-1	Im(Y)/Ohm-1	|Y|/Ohm-1	Phase(Y)/deg	Re(C)/nF	Im(C)/nF	|C|/nF	Phase(C)/deg	Re(M)	Im(M)	|M|	Phase(M)/deg	Re(Permittivity)	Im(Permittivity)	|Permittivity|	Phase(Permittivity)/deg	Re(Resistivity)/Ohm.cm	Im(Resistivity)/Ohm.cm	|Resistivity|/Ohm.cm	Phase(Resistivity)/deg	Re(Conductivity)/mS/cm	Im(Conductivity)/mS/cm	|Conductivity|/mS/cm	Phase(Conductivity)/deg	Tan(Delta)	Loss Angle(Delta)/deg	dq/mA.h	Pwe/W	Pce/W	Pwe-ce/W	<Ewe-Ece>/V	Rwe/Ohm	Rce/Ohm	Rwe-ce/Ohm		Ewe-Ece/V
1.00002e+06	2.98768	2.11632	3.66129	-35.3117	1.77352	3.78376	-0.116215	0.0752024	0.0251261	1	10	0.000198757	5.4286e-05	0	-5.0461e-05	0.000140708	0.000182837	-68.6772	3.36803	1.22469	3.13748	-51.2782	6.73398	4.21237	5.2538	0.222878	0.157875	0.273128	35.3117	25.1261	35.4714	43.4688	-54.6883	0.0000000E+000	0.0000000E+000	0.0000000E+000	54.6883	0.0000000E+000	0.0000000E+000	0.0000000E+000	-54.6883	0.0000000E+000	0.0000000E+000	0.0000000E+000	-35.3117	0.0000000E+000	0.0000000E+000	0.0000000E+000	35.3117	1.41174	54.6882	-5.0461e-05	-0.000439731	-1.63524e-08	-0.000439715	3.78362	32558.2	1.21075	32557
251206	0.885781	0.190971	0.906134	-12.1665	4.60155	3.78379	-0.0691262	3.31759	0.147358	1	9	0.00179939	0.00198579	0	-0.000114831	0.000293435	3.60578e-05	81.9825	0.0181579	0.00253259	-0.0179804	-11.0199	0.905001	0.888314	0.172991	1.0788	0.232585	1.10359	12.1665	147.358	683.489	699.194	-77.8335	0.0000000E+000	0.0000000E+000	0.0000000E+000	77.8335	0.0000000E+000	0.0000000E+000	0.0000000E+000	-77.8335	0.0000000E+000	0.0000000E+000	0.0000000E+000	-12.1665	0.0000000E+000	0.0000000E+000	0.0000000E+000	12.1665	4.6383	77.8335	-7.64693e-06	-0.000261559	-2.0284e-08	-0.000261538	3.78349	54737.4	4.24492	54733.2
63093.8	1.20009	0.3439	1.24839	-15.9904	6.90357	3.78369	-0.0757559	7.33501	0.55663	1	9	0.00538549	0.00431396	0	-0.000151359	0.000331616	1.64374e-05	-10.8552	0.00381028	0.00374211	0.000717579	-15.9747	1.25218	1.20383	0.344618	0.77004	0.220665	0.801033	15.9904	556.63	1942.43	2020.62	-74.0096	0.0000000E+000	0.0000000E+000	0.0000000E+000	74.0096	0.0000000E+000	0.0000000E+000	0.0000000E+000	-74.0096	0.0000000E+000	0.0000000E+000	0.0000000E+000	-15.9904	0.0000000E+000	0.0000000E+000	0.0000000E+000	15.9904	3.48963	74.0096	-1.71315e-06	-0.000286637	-2.51219e-08	-0.000286612	3.78336	49945.8	4.37744	49941.5
15847.7	1.48291	0.403152	1.53674	-15.2091	9.20356	3.78368	-0.0842107	24.9107	1.71445	1	9	0.0053226	0.00346358	0	-0.000195255	-0.000241109	1.17179e-05	-80.3719	0.00338317	0.000565844	0.00333551	-15.3235	1.53816	1.48348	0.406487	0.627938	0.170714	0.65073	15.2091	1714.45	6306.25	6535.15	-74.7909	0.0000000E+000	0.0000000E+000	0.0000000E+000	74.7909	0.0000000E+000	0.0000000E+000	0.0000000E+000	-74.7909	0.0000000E+000	0.0000000E+000	0.0000000E+000	-15.2091	0.0000000E+000	0.0000000E+000	0.0000000E+000	15.2091	3.67829	74.7909	-8.12671e-06	-0.000318627	2.0304e-08	-0.000318647	3.78392	44931.1	2.86316	44934
3983.6	1.85799	0.611328	1.95597	-18.2126	11.5711	3.78369	-0.0503169	65.3537	6.384	1	9	0.00510325	0.00260906	0	-0.000228207	0.000140708	5.48416e-06	159.708	0.00210197	-0.00197152	-0.000728961	-18.2104	1.95387	1.85601	0.610599	0.485642	0.15979	0.511255	18.2126	6384	19402.6	20425.9	-71.7874	0.0000000E+000	0.0000000E+000	0.0000000E+000	71.7874	0.0000000E+000	0.0000000E+000	0.0000000E+000	-71.7874	0.0000000E+000	0.0000000E+000	0.0000000E+000	-18.2126	0.0000000E+000	0.0000000E+000	0.0000000E+000	18.2126	3.03926	71.7874	-3.97934e-07	-0.000190384	-7.07999e-09	-0.000190376	3.78355	75197.1	2.79643	75194.3
1000.32	2.47559	1.02203	2.67827	-22.433	14.5908	3.78367	-0.0799647	155.674	22.6694	1	9	0.00516789	0.00192957	0	-0.000298246	7.07199e-06	1.41335e-05	29.466	0.00732468	0.00637721	-0.00360307	-22.3099	2.68279	2.48197	1.01843	0.345121	0.142481	0.373376	22.433	22669.4	54910.2	59405.6	-67.567	0.0000000E+000	0.0000000E+000	0.0000000E+000	67.567	0.0000000E+000	0.0000000E+000	0.0000000E+000	-67.567	0.0000000E+000	0.0000000E+000	0.0000000E+000	-22.433	0.0000000E+000	0.0000000E+000	0.0000000E+000	22.433	2.42222	67.567	-1.06022e-05	-0.00030256	-5.6551e-10	-0.00030256	3.78367	47316.8	0.0884389	47316.7
251.044	3.81823	1.42357	4.07498	-20.4472	17.537	3.78368	-0.091696	445.338	54.3498	1	10	0.00496818	0.00121919	0	-0.000367307	7.07199e-06	1.05655e-05	66.6479	0.00866595	0.00343502	-0.00795608	-20.3256	4.07543	3.82167	1.41562	0.229938	0.0857292	0.2454	20.4472	54349.8	145774	155576	-69.5528	0.0000000E+000	0.0000000E+000	0.0000000E+000	69.5528	0.0000000E+000	0.0000000E+000	0.0000000E+000	-69.5528	0.0000000E+000	0.0000000E+000	0.0000000E+000	-20.4472	0.0000000E+000	0.0000000E+000	0.0000000E+000	20.4472	2.68215	69.5528	-1.04325e-05	-0.000346948	-6.48473e-10	-0.000346947	3.78367	41263.3	0.0771243	41263.2
63.0823	5.07718	0.845514	5.1471	-9.45483	20.259	3.78367	-0.0891479	2983.95	80.5209	1	10	0.00491135	0.000954198	0	-0.000433548	0.000388889	5.9173e-06	-25.8251	0.00620134	0.005582	0.00270146	-9.47427	5.15305	5.08276	0.848216	0.191645	0.0319151	0.194284	9.45483	80520.9	483515	490174	-80.5452	0.0000000E+000	0.0000000E+000	0.0000000E+000	80.5452	0.0000000E+000	0.0000000E+000	0.0000000E+000	-80.5452	0.0000000E+000	0.0000000E+000	0.0000000E+000	-9.45483	0.0000000E+000	0.0000000E+000	0.0000000E+000	9.45483	6.00484	80.5452	-1.17546e-05	-0.000337307	-3.46686e-08	-0.000337272	3.78328	42442.6	4.36229	42438.3
15.8576	5.44363	0.346507	5.45465	-3.64217	22.9171	3.78367	-0.0897216	28964.9	116.886	1	10	0.0049119	0.000900499	0	-0.000492443	0.00017889	8.14018e-06	33.7172	0.00903964	0.00751906	-0.00501785	-3.58463	5.46184	5.45115	0.341489	0.18296	0.011646	0.18333	3.64217	116886	1.83628e+06	1.83999e+06	-86.3578	0.0000000E+000	0.0000000E+000	0.0000000E+000	86.3578	0.0000000E+000	0.0000000E+000	0.0000000E+000	-86.3578	0.0000000E+000	0.0000000E+000	0.0000000E+000	-3.64217	0.0000000E+000	0.0000000E+000	0.0000000E+000	3.64217	15.71	86.3578	-7.16537e-06	-0.000339477	-1.60503e-08	-0.000339461	3.78349	42171.2	1.99383	42169.2
3.97785	5.56772	0.211503	5.57174	-2.17547	25.8294	3.78369	-0.0834242	189171	272.589	1	10	0.0049115	0.000881503	0	-0.000557934	0.000274344	3.16074e-06	52.7344	0.00358562	0.00217113	-0.00285357	-2.14531	5.5738	5.56989	0.20865	0.179348	0.00681296	0.179477	2.17547	272589	7.17576e+06	7.18094e+06	-87.8245	0.0000000E+000	0.0000000E+000	0.0000000E+000	87.8245	0.0000000E+000	0.0000000E+000	0.0000000E+000	-87.8245	0.0000000E+000	0.0000000E+000	0.0000000E+000	-2.17547	0.0000000E+000	0.0000000E+000	0.0000000E+000	2.17547	26.3245	87.8245	-4.50223e-06	-0.000315651	-2.28869e-08	-0.000315628	3.78342	45354.9	3.28854	45351.6
1.00469	5.67815	0.262049	5.68419	-2.64235	241.189	3.78367	-0.0630899	604511	1284.79	1	11	0.00498033	0.000876172	0	-0.00791682	0.000255253	3.73118e-07	27.083	0.00042585	0.000379155	-0.000193881	-2.64022	5.68456	5.67853	0.261855	0.17574	0.00811046	0.175927	2.64235	1.28479e+06	2.78391e+07	2.78688e+07	-87.3577	0.0000000E+000	0.0000000E+000	0.0000000E+000	87.3577	0.0000000E+000	0.0000000E+000	0.0000000E+000	-87.3577	0.0000000E+000	0.0000000E+000	0.0000000E+000	-2.64235	0.0000000E+000	0.0000000E+000	0.0000000E+000	2.64235	21.6683	87.3577	-0.00722021	-0.000238711	-1.61039e-08	-0.000238695	3.78341	59972.6	4.04586	59968.5
0.251173	5.90679	0.527866	5.93033	-5.10673	241.193	3.78367	-0.0630899	1.20039e+06	9510.71	1	11	0.00500687	0.000844282	0	-0.00791682	0.000255253	3.52476e-07	47.1762	0.000417486	0.000283784	-0.000306204	-5.10354	5.93058	5.90707	0.52756	0.167955	0.0150095	0.168625	5.10673	9.5107e+06	1.06424e+08	1.06848e+08	-84.8933	0.0000000E+000	0.0000000E+000	0.0000000E+000	84.8933	0.0000000E+000	0.0000000E+000	0.0000000E+000	-84.8933	0.0000000E+000	0.0000000E+000	0.0000000E+000	-5.10673	0.0000000E+000	0.0000000E+000	0.0000000E+000	5.10673	11.1899	84.8933	0.000000000000000E+000	-0.000238711	-1.61039e-08	-0.000238695	3.78341	59972.6	4.04586	59968.5
0.0602816	6.48083	1.05415	6.566	-9.2386	241.197	3.78367	-0.0630899	2.50458e+06	64555.7	1	11	0.00500084	0.000761626	0	-0.00791682	0.000255253	4.53265e-07	14.1853	0.000595128	0.000576981	-0.000145841	-9.23654	6.56654	6.4814	1.054	0.150324	0.0244511	0.1523	9.2386	6.45557e+07	3.96884e+08	4.021e+08	-80.7614	0.0000000E+000	0.0000000E+000	0.0000000E+000	80.7614	0.0000000E+000	0.0000000E+000	0.0000000E+000	-80.7614	0.0000000E+000	0.0000000E+000	0.0000000E+000	-9.2386	0.0000000E+000	0.0000000E+000	0.0000000E+000	9.2386	6.14794	80.7614	0.000000000000000E+000	-0.000238711	-1.61039e-08	-0.000238695	3.78341	59972.6	4.04586	59968.5
0.00796479	8.90642	1.7884	9.0842	-11.3539	20330.1	3.78363	0.00158945	1.11733e+07	433048	1	11	0.00499512	0.000549869	0	-0.0488887	0.000140708	3.03857e-07	19.3574	0.000552599	0.00052136	-0.000183164	-11.3521	9.08467	8.90694	1.78821	0.107927	0.0216716	0.110081	11.3539	4.33048e+08	2.15663e+09	2.19968e+09	-78.6461	0.0000000E+000	0.0000000E+000	0.0000000E+000	78.6461	0.0000000E+000	0.0000000E+000	0.0000000E+000	-78.6461	0.0000000E+000	0.0000000E+000	0.0000000E+000	-11.3539	0.0000000E+000	0.0000000E+000	0.0000000E+000	11.3539	4.98012	78.6461	-0.0409719	6.0139e-06	2.23649e-10	6.01367e-06	3.78348	2.38046e+06	88.5259	2.38037e+06
0.0019912	10.1871	2.6518	10.5266	-14.5909	20330.1	3.78363	0.00158945	3.01416e+07	1.91282e+06	1	11	0.00500821	0.000475769	0	-0.0488887	0.000140708	5.1272e-07	-108.552	0.00107767	-0.000342878	0.00102167	-14.5967	10.5265	10.1867	2.65282	0.0919341	0.0239314	0.0949978	14.5909	1.91282e+09	7.34823e+09	7.59311e+09	-75.4091	0.0000000E+000	0.0000000E+000	0.0000000E+000	75.4091	0.0000000E+000	0.0000000E+000	0.0000000E+000	-75.4091	0.0000000E+000	0.0000000E+000	0.0000000E+000	-14.5909	0.0000000E+000	0.0000000E+000	0.0000000E+000	14.5909	3.84157	75.4091	0.000000000000000E+000	6.0139e-06	2.23649e-10	6.01367e-06	3.78348	2.38046e+06	88.5259	2.38037e+06
0.000497799	10.5172	6.65332	12.445	-32.3179	20330.1	3.78363	0.00158945	4.80538e+07	1.37345e+07	1	11	0.00500134	0.000401875	0	-0.0488887	0.000140708	3.13456e-06	-3.57337	0.00779983	0.00778467	0.000486137	-32.3007	12.4519	10.525	6.65381	0.0679062	0.0429583	0.0803534	32.3179	1.37345e+10	2.17108e+10	2.56904e+10	-57.6821	0.0000000E+000	0.0000000E+000	0.0000000E+000	57.6821	0.0000000E+000	0.0000000E+000	0.0000000E+000	-57.6821	0.0000000E+000	0.0000000E+000	0.0000000E+000	-32.3179	0.0000000E+000	0.0000000E+000	0.0000000E+000	32.3179	1.58075	57.6821	0.000000000000000E+000	6.0139e-06	2.23649e-10	6.01367e-06	3.78348	2.38046e+06	88.5259	2.38037e+06
9.95598e-05	12.1329	35.5063	37.522	-71.1342	20330.1	3.78363	0.00158945	4.50226e+07	4.03152e+07	1	11	0.00501073	0.000133541	0	-0.0488887	0.000140708	2.08824e-06	45.8827	0.0156375	0.0108857	-0.0112264	-71.1129	37.5149	12.1437	35.4951	0.00861769	0.0252193	0.026651	71.1342	4.03152e+10	1.37761e+10	4.26039e+10	-18.8658	0.0000000E+000	0.0000000E+000	0.0000000E+000	18.8658	0.0000000E+000	0.0000000E+000	0.0000000E+000	-18.8658	0.0000000E+000	0.0000000E+000	0.0000000E+000	-71.1342	0.0000000E+000	0.0000000E+000	0.0000000E+000	71.1342	0.34171	18.8658	0.000000000000000E+000	6.0139e-06	2.23649e-10	6.01367e-06	3.78348	2.38046e+06	88.5259	2.38037e+06