File: txt/17230_UC80_EIS_50SOC_C07.mpt
EC-Lab ASCII FILE
Nb header lines : 65

Potentio Electrochemical Impedance Spectroscopy

Run on channel : 7 (SN 66126)
User :
CE vs. WE compliance from -10 V to 10 V
Electrode connection : standard
Potential control : Ewe
Ewe ctrl range : min = -10.00 V, max = 10.00 V
Safety Limits :
	Do not start on E overload
Acquisition started on : 09/02/2025 16:42:33.126
Technique started on : 09/02/2025 16:42:35.361
Loaded Setting File :  C:\Users\Celltest\OneDrive - store-dot.com\Documents\EC-Lab\Data\Michael\R278\UC74_NCMA_16706_EIS_50_SOC.mps
Saved on :
	File : UC80_17230_EIS_50SOC_C07.mpr
	Directory : C:\Users\Celltest\OneDrive - store-dot.com\Documents\EC-Lab\Data\Michael\R278\
	Host : 169.254.61.224
Device : VMP-3e (SN .003165)
Address : USB
EC-LAB for windows v11.62 (software)
Internet server v27.00 (firmware)
Command interpretor v12.03 (firmware)
Electrode material :
Initial state :
Electrolyte :
Comments :
Electrode surface area : 0.001 cm²
Characteristic mass : 0.001 g
Equivalent Weight : 0.000 g/eq.
Density : 0.000 g/cm3
Volume (V) : 0.001 cm³
Record Ece
Cycle Definition : Charge/Discharge alternance
Mode                Multi sine
E (V)               0.0000
vs.                 Eoc
tE (h:m:s)          0:00:0.0000
record              0
dI                  0.000
unit dI             mA
dt (s)              0.000
fi                  1.000
unit fi             MHz
ff                  0.100
unit ff             mHz
Nd                  10
Points              per decade
spacing             Logarithmic
Va (mV)             5.0
pw                  0.10
Na                  2
corr                0
E range min (V)     -10.000
E range max (V)     10.000
I Range             Auto
Bandwidth           5
nc cycles           0
goto Ns'            0
nr cycles           0
inc. cycle          0

freq/Hz	Re(Z)/Ohm	-Im(Z)/Ohm	|Z|/Ohm	Phase(Z)/deg	time/s	<Ewe>/V	<I>/mA	Cs/µF	Cp/µF	cycle number	I Range	|Ewe|/V	|I|/A	Ns	(Q-Qo)/mA.h	<Ece>/V	|Ece|/V	Phase(Zce)/deg	|Zce|/Ohm	Re(Zce)/Ohm	-Im(Zce)/Ohm	Phase(Zwe-ce)/deg	|Zwe-ce|/Ohm	Re(Zwe-ce)/Ohm	-Im(Zwe-ce)/Ohm	Re(Y)/Ohm-1	Im(Y)/Ohm-1	|Y|/Ohm-1	Phase(Y)/deg	Re(C)/nF	Im(C)/nF	|C|/nF	Phase(C)/deg	Re(M)	Im(M)	|M|	Phase(M)/deg	Re(Permittivity)	Im(Permittivity)	|Permittivity|	Phase(Permittivity)/deg	Re(Resistivity)/Ohm.cm	Im(Resistivity)/Ohm.cm	|Resistivity|/Ohm.cm	Phase(Resistivity)/deg	Re(Conductivity)/mS/cm	Im(Conductivity)/mS/cm	|Conductivity|/mS/cm	Phase(Conductivity)/deg	Tan(Delta)	Loss Angle(Delta)/deg	dq/mA.h	Pwe/W	Pce/W	Pwe-ce/W	<Ewe-Ece>/V	Rwe/Ohm	Rce/Ohm	Rwe-ce/Ohm		Ewe-Ece/V
1.00002e+06	2.11295	3.35388	3.96397	-57.789	2.23454	3.78385	-0.0484994	0.0474531	0.0339702	1	10	0.000228895	5.7744e-05	0	-1.78965e-05	-0.000326596	0.000195682	-63.1647	3.38878	1.52979	3.02384	-60.2664	7.34472	3.64274	6.37772	0.134471	0.213445	0.252272	57.789	33.9702	21.4013	40.1496	-32.211	0.0000000E+000	0.0000000E+000	0.0000000E+000	32.211	0.0000000E+000	0.0000000E+000	0.0000000E+000	-32.211	0.0000000E+000	0.0000000E+000	0.0000000E+000	-57.789	0.0000000E+000	0.0000000E+000	0.0000000E+000	57.789	0.630001	32.211	-1.78965e-05	-0.000183514	1.58397e-08	-0.00018353	3.78417	78018.5	6.73403	78025.2
251206	0.918699	0.381032	0.994581	-22.5263	4.93854	3.78401	0.0386584	1.66276	0.244045	1	9	0.00239707	0.00241013	0	1.05192e-06	-0.000402898	4.16062e-05	95.9111	0.0172631	-0.00177784	-0.0171713	-21.6446	0.986478	0.916921	0.36386	0.928736	0.385195	1.00545	22.5263	244.045	588.413	637.015	-67.4737	0.0000000E+000	0.0000000E+000	0.0000000E+000	67.4737	0.0000000E+000	0.0000000E+000	0.0000000E+000	-67.4737	0.0000000E+000	0.0000000E+000	0.0000000E+000	-22.5263	0.0000000E+000	0.0000000E+000	0.0000000E+000	22.5263	2.41108	67.4737	1.62958e-06	0.000146283	-1.55754e-08	0.000146299	3.78441	97883.3	10.422	97893.7
63093.8	1.47813	0.73133	1.64915	-26.3247	7.23854	3.78407	0.0517282	3.44921	0.678303	1	9	0.00543851	0.00329775	0	2.40899e-05	-5.95403e-05	2.49866e-05	80.9904	0.00757687	0.00118654	-0.00748339	-26.073	1.64692	1.47932	0.723847	0.543488	0.2689	0.606371	26.3247	678.303	1370.95	1529.58	-63.6753	0.0000000E+000	0.0000000E+000	0.0000000E+000	63.6753	0.0000000E+000	0.0000000E+000	0.0000000E+000	-63.6753	0.0000000E+000	0.0000000E+000	0.0000000E+000	-26.3247	0.0000000E+000	0.0000000E+000	0.0000000E+000	26.3247	2.02115	63.6753	4.3032e-06	0.000195743	-3.07992e-09	0.000195746	3.78413	73152.8	1.15102	73154
15847.7	2.24405	0.782468	2.37655	-19.2229	9.28851	3.78408	0.0536645	12.8348	1.39131	1	9	0.00489794	0.00206094	0	5.96718e-05	-9.76912e-05	7.83253e-06	-83.247	0.00380046	0.000446892	0.0037741	-19.3052	2.37822	2.2445	0.786242	0.397317	0.138539	0.420777	19.2229	1391.31	3990.17	4225.78	-70.7771	0.0000000E+000	0.0000000E+000	0.0000000E+000	70.7771	0.0000000E+000	0.0000000E+000	0.0000000E+000	-70.7771	0.0000000E+000	0.0000000E+000	0.0000000E+000	-19.2229	0.0000000E+000	0.0000000E+000	0.0000000E+000	19.2229	2.86791	70.7771	2.47525e-06	0.000203071	-5.24255e-09	0.000203076	3.78418	70513.7	1.82041	70515.5
3983.6	2.84917	0.854476	2.97454	-16.6942	11.0191	3.78387	-0.0284411	46.7567	3.85837	1	9	0.00460598	0.00154847	0	7.42769e-05	-0.000173993	1.12337e-05	4.42128	0.00725472	0.00723313	-0.000559262	-16.6439	2.98131	2.8564	0.853917	0.322017	0.0965739	0.336186	16.6942	3858.37	12865.4	13431.5	-73.3058	0.0000000E+000	0.0000000E+000	0.0000000E+000	73.3058	0.0000000E+000	0.0000000E+000	0.0000000E+000	-73.3058	0.0000000E+000	0.0000000E+000	0.0000000E+000	-16.6942	0.0000000E+000	0.0000000E+000	0.0000000E+000	16.6942	3.33441	73.3058	-2.37629e-06	-0.000107617	4.94855e-09	-0.000107622	3.78405	133042	6.11766	133049
1000.32	3.69969	1.31261	3.92564	-19.5341	13.8928	3.78397	-0.0220156	121.212	13.5517	1	10	0.00456904	0.0011639	0	8.40701e-05	7.39876e-05	4.99722e-06	52.7428	0.00429353	0.00259928	-0.00341733	-19.4744	3.92695	3.70229	1.30919	0.240074	0.0851753	0.254736	19.5341	13551.7	38196.7	40529.4	-70.4659	0.0000000E+000	0.0000000E+000	0.0000000E+000	70.4659	0.0000000E+000	0.0000000E+000	0.0000000E+000	-70.4659	0.0000000E+000	0.0000000E+000	0.0000000E+000	-19.5341	0.0000000E+000	0.0000000E+000	0.0000000E+000	19.5341	2.81858	70.4659	-2.61951e-06	-8.33065e-05	-1.62888e-09	-8.33049e-05	3.7839	171877	3.36069	171873
251.044	5.33138	1.63559	5.57663	-17.0552	16.8071	3.78398	-0.0218034	387.611	33.3427	1	10	0.00499497	0.000895697	0	6.80107e-05	-0.000345672	5.79343e-06	89.4526	0.00646807	6.1798e-05	-0.00646778	-16.9915	5.57479	5.33144	1.62912	0.171434	0.0525933	0.17932	17.0552	33342.7	108684	113684	-72.9448	0.0000000E+000	0.0000000E+000	0.0000000E+000	72.9448	0.0000000E+000	0.0000000E+000	0.0000000E+000	-72.9448	0.0000000E+000	0.0000000E+000	0.0000000E+000	-17.0552	0.0000000E+000	0.0000000E+000	0.0000000E+000	17.0552	3.25961	72.9448	-3.20495e-06	-8.25037e-05	7.53683e-09	-8.25113e-05	3.78432	173550	15.854	173565
63.0823	6.67803	0.906739	6.73931	-7.7323	19.5289	3.78398	-0.019983	2782.47	50.3691	1	10	0.00497681	0.000738475	0	5.04931e-05	-0.000250295	1.18223e-05	45.185	0.0160091	0.0112836	-0.0113566	-7.62387	6.74897	6.68931	0.895382	0.147034	0.0199642	0.148383	7.7323	50369.1	370963	374367	-82.2677	0.0000000E+000	0.0000000E+000	0.0000000E+000	82.2677	0.0000000E+000	0.0000000E+000	0.0000000E+000	-82.2677	0.0000000E+000	0.0000000E+000	0.0000000E+000	-7.7323	0.0000000E+000	0.0000000E+000	0.0000000E+000	7.7323	7.36489	82.2677	-2.38541e-06	-7.56153e-05	5.00164e-09	-7.56203e-05	3.78423	189360	12.5254	189372
15.8576	7.03346	0.348512	7.04209	-2.83672	22.187	3.78396	-0.0262559	28798.2	70.5339	1	10	0.00498168	0.000707416	0	4.00768e-05	-0.000383823	1.48998e-05	-100.724	0.0210623	-0.00391921	0.0206944	-3.00653	7.03923	7.02954	0.369206	0.141829	0.00702773	0.142003	2.83672	70533.9	1.42347e+06	1.42522e+06	-87.1633	0.0000000E+000	0.0000000E+000	0.0000000E+000	87.1633	0.0000000E+000	0.0000000E+000	0.0000000E+000	-87.1633	0.0000000E+000	0.0000000E+000	0.0000000E+000	-2.83672	0.0000000E+000	0.0000000E+000	0.0000000E+000	2.83672	20.1814	87.1633	-8.68141e-08	-9.93511e-05	1.00776e-08	-9.93611e-05	3.78434	144118	14.6185	144133
3.97785	7.1619	0.229245	7.16557	-1.83336	25.0994	3.78402	-0.0174218	174530	178.637	1	10	0.00497246	0.000693938	0	1.7789e-05	-0.000154917	4.90147e-06	61.5834	0.00706327	0.00336126	-0.00621222	-1.78287	7.16873	7.16526	0.223033	0.139485	0.00446477	0.139556	1.83336	178637	5.58083e+06	5.58369e+06	-88.1666	0.0000000E+000	0.0000000E+000	0.0000000E+000	88.1666	0.0000000E+000	0.0000000E+000	0.0000000E+000	-88.1666	0.0000000E+000	0.0000000E+000	0.0000000E+000	-1.83336	0.0000000E+000	0.0000000E+000	0.0000000E+000	1.83336	31.2412	88.1666	-3.44633e-06	-6.59243e-05	2.69894e-09	-6.5927e-05	3.78418	217201	8.89218	217210
1.00469	7.29945	0.280977	7.30485	-2.20439	240.276	3.78399	-0.017786	563788	834.131	1	11	0.00505829	0.000692455	0	-0.00363576	5.49122e-05	4.87093e-07	7.7587	0.000703428	0.000696988	-9.49637e-05	-2.20344	7.30555	7.30015	0.280882	0.136794	0.0052656	0.136895	2.20439	834130	2.16697e+07	2.16858e+07	-87.7956	0.0000000E+000	0.0000000E+000	0.0000000E+000	87.7956	0.0000000E+000	0.0000000E+000	0.0000000E+000	-87.7956	0.0000000E+000	0.0000000E+000	0.0000000E+000	-2.20439	0.0000000E+000	0.0000000E+000	0.0000000E+000	2.20439	25.9788	87.7956	-0.00361604	-6.7302e-05	-9.76667e-10	-6.7301e-05	3.78394	212752	3.08739	212749
0.251173	7.5526	0.574173	7.57439	-4.34745	240.28	3.78399	-0.017786	1.10358e+06	6341.52	1	11	0.00508826	0.000671771	0	-0.00363576	5.49122e-05	4.30294e-07	5.09491	0.000640536	0.000638006	-5.68833e-05	-4.34665	7.57502	7.55323	0.574116	0.131644	0.010008	0.132024	4.34745	6.34153e+06	8.34156e+07	8.36563e+07	-85.6526	0.0000000E+000	0.0000000E+000	0.0000000E+000	85.6526	0.0000000E+000	0.0000000E+000	0.0000000E+000	-85.6526	0.0000000E+000	0.0000000E+000	0.0000000E+000	-4.34745	0.0000000E+000	0.0000000E+000	0.0000000E+000	4.34745	13.1539	85.6526	0.000000000000000E+000	-6.7302e-05	-9.76667e-10	-6.7301e-05	3.78394	212752	3.08739	212749
0.0602816	8.18671	1.12584	8.26376	-7.83024	240.284	3.78399	-0.017786	2.34508e+06	43526.8	1	11	0.0050766	0.000614321	0	-0.00363576	5.49122e-05	8.15562e-07	54.8978	0.00132758	0.000763409	-0.00108613	-7.82206	8.26437	8.18748	1.12476	0.119882	0.0164863	0.12101	7.83024	4.35268e+07	3.16511e+08	3.1949e+08	-82.1698	0.0000000E+000	0.0000000E+000	0.0000000E+000	82.1698	0.0000000E+000	0.0000000E+000	0.0000000E+000	-82.1698	0.0000000E+000	0.0000000E+000	0.0000000E+000	-7.83024	0.0000000E+000	0.0000000E+000	0.0000000E+000	7.83024	7.27163	82.1698	0.000000000000000E+000	-6.7302e-05	-9.76667e-10	-6.7301e-05	3.78394	212752	3.08739	212749
0.00796479	10.5839	1.77798	10.7322	-9.53599	20329.2	3.78403	0.00175891	1.12388e+07	308455	1	11	0.00507128	0.000472528	0	-0.026996	-0.000250295	2.60269e-07	-50.7958	0.000550802	0.000348154	0.000426815	-9.53793	10.7327	10.5843	1.77841	0.0918896	0.0154364	0.0931771	9.53599	3.08455e+08	1.83617e+09	1.8619e+09	-80.464	0.0000000E+000	0.0000000E+000	0.0000000E+000	80.464	0.0000000E+000	0.0000000E+000	0.0000000E+000	-80.464	0.0000000E+000	0.0000000E+000	0.0000000E+000	-9.53599	0.0000000E+000	0.0000000E+000	0.0000000E+000	9.53599	5.95279	80.464	-0.0233602	6.65574e-06	-4.40244e-10	6.65618e-06	3.78428	2.15135e+06	142.301	2.1515e+06
0.0019912	11.7743	2.6373	12.066	-12.6252	20329.2	3.78403	0.00175891	3.03072e+07	1.4479e+06	1	11	0.00508166	0.000421154	0	-0.026996	-0.000250295	9.30648e-07	-1.35266	0.00220975	0.00220914	5.21637e-05	-12.6232	12.0682	11.7765	2.63735	0.0808734	0.0181147	0.0828774	12.6252	1.4479e+09	6.46416e+09	6.62433e+09	-77.3748	0.0000000E+000	0.0000000E+000	0.0000000E+000	77.3748	0.0000000E+000	0.0000000E+000	0.0000000E+000	-77.3748	0.0000000E+000	0.0000000E+000	0.0000000E+000	-12.6252	0.0000000E+000	0.0000000E+000	0.0000000E+000	12.6252	4.46451	77.3748	0.000000000000000E+000	6.65574e-06	-4.40244e-10	6.65618e-06	3.78428	2.15135e+06	142.301	2.1515e+06
0.000497799	12.0192	6.74737	13.7837	-29.309	20329.2	3.78403	0.00175891	4.7384e+07	1.13546e+07	1	11	0.00508614	0.000368998	0	-0.026996	-0.000250295	5.07483e-06	10.7723	0.013753	0.0135107	-0.00257052	-29.2722	13.7942	12.0328	6.7448	0.0632628	0.0355145	0.0725497	29.309	1.13546e+10	2.02262e+10	2.31954e+10	-60.691	0.0000000E+000	0.0000000E+000	0.0000000E+000	60.691	0.0000000E+000	0.0000000E+000	0.0000000E+000	-60.691	0.0000000E+000	0.0000000E+000	0.0000000E+000	-29.309	0.0000000E+000	0.0000000E+000	0.0000000E+000	29.309	1.78132	60.691	0.000000000000000E+000	6.65574e-06	-4.40244e-10	6.65618e-06	3.78428	2.15135e+06	142.301	2.1515e+06
9.95598e-05	13.9507	34.3402	37.0658	-67.8905	20329.2	3.78403	0.00175891	4.65515e+07	3.9957e+07	1	11	0.0050817	0.0001371	0	-0.026996	-0.000250295	1.97487e-06	-52.8426	0.0144047	0.00870051	0.0114802	-67.8847	37.0797	13.9594	34.3517	0.0101543	0.0249952	0.0269791	67.8905	3.9957e+10	1.62326e+10	4.31284e+10	-22.1095	0.0000000E+000	0.0000000E+000	0.0000000E+000	22.1095	0.0000000E+000	0.0000000E+000	0.0000000E+000	-22.1095	0.0000000E+000	0.0000000E+000	0.0000000E+000	-67.8905	0.0000000E+000	0.0000000E+000	0.0000000E+000	67.8905	0.406251	22.1095	0.000000000000000E+000	6.65574e-06	-4.40244e-10	6.65618e-06	3.78428	2.15135e+06	142.301	2.1515e+06