File: txt/17231_R278_UC80_50SOC_C08.mpt
EC-Lab ASCII FILE
Nb header lines : 64

Potentio Electrochemical Impedance Spectroscopy

Run on channel : 8 (SN 65398)
User :
CE vs. WE compliance from -10 V to 10 V
Electrode connection : standard
Potential control : Ewe
Ewe ctrl range : min = -10.00 V, max = 10.00 V
Safety Limits :
	Do not start on E overload
Acquisition started on : 09/02/2025 16:42:45.432
Loaded Setting File :  C:\Users\Celltest\OneDrive - store-dot.com\Documents\EC-Lab\Data\Michael\R278\UC74_NCMA_16706_EIS_50_SOC.mps
Saved on :
	File : UC80_17231_EIS_50SOC_C08.mpr
	Directory : C:\Users\Celltest\OneDrive - store-dot.com\Documents\EC-Lab\Data\Michael\R278\
	Host : 169.254.61.224
Device : VMP-3e (SN .003165)
Address : USB
EC-LAB for windows v11.62 (software)
Internet server v27.00 (firmware)
Command interpretor v12.03 (firmware)
Electrode material :
Initial state :
Electrolyte :
Comments :
Electrode surface area : 0.001 cm²
Characteristic mass : 0.001 g
Equivalent Weight : 0.000 g/eq.
Density : 0.000 g/cm3
Volume (V) : 0.001 cm³
Record Ece
Cycle Definition : Charge/Discharge alternance
Mode                Multi sine
E (V)               0.0000
vs.                 Eoc
tE (h:m:s)          0:00:0.0000
record              0
dI                  0.000
unit dI             mA
dt (s)              0.000
fi                  1.000
unit fi             MHz
ff                  0.100
unit ff             mHz
Nd                  10
Points              per decade
spacing             Logarithmic
Va (mV)             5.0
pw                  0.10
Na                  2
corr                0
E range min (V)     -10.000
E range max (V)     10.000
I Range             Auto
Bandwidth           5
nc cycles           0
goto Ns'            0
nr cycles           0
inc. cycle          0

freq/Hz	Re(Z)/Ohm	-Im(Z)/Ohm	|Z|/Ohm	Phase(Z)/deg	time/s	<Ewe>/V	<I>/mA	Cs/µF	Cp/µF	cycle number	I Range	|Ewe|/V	|I|/A	Ns	(Q-Qo)/mA.h	<Ece>/V	|Ece|/V	Phase(Zce)/deg	|Zce|/Ohm	Re(Zce)/Ohm	-Im(Zce)/Ohm	Phase(Zwe-ce)/deg	|Zwe-ce|/Ohm	Re(Zwe-ce)/Ohm	-Im(Zwe-ce)/Ohm	Re(Y)/Ohm-1	Im(Y)/Ohm-1	|Y|/Ohm-1	Phase(Y)/deg	Re(C)/nF	Im(C)/nF	|C|/nF	Phase(C)/deg	Re(M)	Im(M)	|M|	Phase(M)/deg	Re(Permittivity)	Im(Permittivity)	|Permittivity|	Phase(Permittivity)/deg	Re(Resistivity)/Ohm.cm	Im(Resistivity)/Ohm.cm	|Resistivity|/Ohm.cm	Phase(Resistivity)/deg	Re(Conductivity)/mS/cm	Im(Conductivity)/mS/cm	|Conductivity|/mS/cm	Phase(Conductivity)/deg	Tan(Delta)	Loss Angle(Delta)/deg	dq/mA.h	Pwe/W	Pce/W	Pwe-ce/W	<Ewe-Ece>/V	Rwe/Ohm	Rce/Ohm	Rwe-ce/Ohm		Ewe-Ece/V
1.00002e+06	1.89172	3.16982	3.69139	-59.1716	2.23356	3.7858	0.00969818	0.0502085	0.0370226	1	10	0.000232826	6.30726e-05	0	-8.01361e-06	-3.1867e-05	0.000201817	-67.0948	3.19975	1.24537	2.94745	-62.8501	6.87476	3.13709	6.11727	0.138828	0.232624	0.270901	59.1716	37.0226	22.0948	43.1144	-30.8284	0.0000000E+000	0.0000000E+000	0.0000000E+000	30.8284	0.0000000E+000	0.0000000E+000	0.0000000E+000	-30.8284	0.0000000E+000	0.0000000E+000	0.0000000E+000	-59.1716	0.0000000E+000	0.0000000E+000	0.0000000E+000	59.1716	0.596791	30.8284	-8.01361e-06	3.67154e-05	-3.09052e-10	3.67157e-05	3.78583	390362	3.28587	390365
251206	0.790054	0.336342	0.858668	-23.0604	4.93652	3.7854	-0.0138368	1.88369	0.289015	1	9	0.00218001	0.00253883	0	-2.26249e-05	-7.00431e-05	8.04602e-05	91.766	0.0316918	-0.00097665	-0.0316768	-21.1117	0.845851	0.789077	0.304665	1.07153	0.456173	1.16459	23.0604	289.014	678.885	737.844	-66.9396	0.0000000E+000	0.0000000E+000	0.0000000E+000	66.9396	0.0000000E+000	0.0000000E+000	0.0000000E+000	-66.9396	0.0000000E+000	0.0000000E+000	0.0000000E+000	-23.0604	0.0000000E+000	0.0000000E+000	0.0000000E+000	23.0604	2.34896	66.9396	-3.02824e-06	-5.2378e-05	9.69174e-10	-5.23789e-05	3.78547	273575	5.06208	273580
63093.8	1.28801	0.895203	1.56855	-34.8005	7.23653	3.78533	-0.0120139	2.81781	0.917822	1	9	0.00531621	0.00338925	0	-5.46664e-06	-7.00431e-05	5.44356e-05	36.9848	0.0160613	0.0128297	-0.00966249	-34.245	1.57364	1.30083	0.88554	0.523506	0.363852	0.637532	34.8005	917.822	1320.55	1608.18	-55.1995	0.0000000E+000	0.0000000E+000	0.0000000E+000	55.1995	0.0000000E+000	0.0000000E+000	0.0000000E+000	-55.1995	0.0000000E+000	0.0000000E+000	0.0000000E+000	-34.8005	0.0000000E+000	0.0000000E+000	0.0000000E+000	34.8005	1.43879	55.1995	4.55738e-06	-4.54765e-05	8.41491e-10	-4.54774e-05	3.7854	315079	5.83017	315085
15847.7	2.47234	1.15377	2.72831	-25.0172	9.53456	3.78534	-0.00840532	8.7043	1.55664	1	9	0.00508455	0.00186363	0	-2.84819e-05	2.53972e-05	1.47756e-05	-61.6144	0.0079284	0.00376919	0.00697515	-25.1162	2.73468	2.47611	1.16075	0.332141	0.155001	0.366528	25.0172	1556.64	3335.62	3680.96	-64.9828	0.0000000E+000	0.0000000E+000	0.0000000E+000	64.9828	0.0000000E+000	0.0000000E+000	0.0000000E+000	-64.9828	0.0000000E+000	0.0000000E+000	0.0000000E+000	-25.0172	0.0000000E+000	0.0000000E+000	0.0000000E+000	25.0172	2.14283	64.9828	-2.6424e-06	-3.1817e-05	-2.13471e-10	-3.18168e-05	3.78531	450350	3.02156	450347
3983.6	3.38501	0.950478	3.51592	-15.6842	11.2571	3.78521	0.00242053	42.0341	3.07191	1	9	0.00541672	0.00154063	0	-3.06753e-05	8.26613e-05	5.82718e-06	87.252	0.00378235	0.00018134	-0.003778	-15.6241	3.51508	3.38519	0.9467	0.27383	0.0768889	0.28442	15.6842	3071.91	10940.2	11363.3	-74.3158	0.0000000E+000	0.0000000E+000	0.0000000E+000	74.3158	0.0000000E+000	0.0000000E+000	0.0000000E+000	-74.3158	0.0000000E+000	0.0000000E+000	0.0000000E+000	-15.6842	0.0000000E+000	0.0000000E+000	0.0000000E+000	15.6842	3.56138	74.3158	-5.91978e-07	9.1622e-06	2.00084e-10	9.162e-06	3.78513	1.5638e+06	34.1502	1.56376e+06
1000.32	4.15143	1.14012	4.30514	-15.3567	14.1309	3.78525	-0.0343387	139.55	9.78716	1	10	0.00533548	0.00123933	0	-5.57601e-05	0.000101749	1.74902e-05	-49.8421	0.0141126	0.00910119	0.0107859	-15.4628	4.31678	4.16053	1.15091	0.223987	0.0615142	0.23228	15.3567	9787.16	35637.2	36956.7	-74.6433	0.0000000E+000	0.0000000E+000	0.0000000E+000	74.6433	0.0000000E+000	0.0000000E+000	0.0000000E+000	-74.6433	0.0000000E+000	0.0000000E+000	0.0000000E+000	-15.3567	0.0000000E+000	0.0000000E+000	0.0000000E+000	15.3567	3.64122	74.6433	-3.70983e-06	-0.000129981	-3.49394e-09	-0.000129977	3.78515	110233	2.96311	110230
251.044	5.48146	1.3761	5.65156	-14.0927	16.832	3.78525	-0.0341639	460.7	27.314	1	10	0.00526108	0.000930908	0	-7.91426e-05	-0.000127307	2.89732e-06	151.572	0.00311236	-0.00273705	-0.00148166	-14.0849	5.64854	5.47872	1.37462	0.171617	0.0430839	0.176942	14.0927	27314	108800	112176	-75.9073	0.0000000E+000	0.0000000E+000	0.0000000E+000	75.9073	0.0000000E+000	0.0000000E+000	0.0000000E+000	-75.9073	0.0000000E+000	0.0000000E+000	0.0000000E+000	-14.0927	0.0000000E+000	0.0000000E+000	0.0000000E+000	14.0927	3.98332	75.9073	-3.76499e-06	-0.000129319	4.34931e-09	-0.000129323	3.78538	110797	3.72637	110801
63.0823	6.63899	0.787557	6.68554	-6.76516	19.552	3.78525	-0.0320696	3203.54	44.4551	1	10	0.00524206	0.00078409	0	-0.000101909	-0.000260924	1.89505e-05	119.732	0.0241687	-0.0119863	-0.020987	-6.59829	6.67119	6.627	0.76657	0.148535	0.0176201	0.149577	6.76516	44455.1	374750	377378	-83.2348	0.0000000E+000	0.0000000E+000	0.0000000E+000	83.2348	0.0000000E+000	0.0000000E+000	0.0000000E+000	-83.2348	0.0000000E+000	0.0000000E+000	0.0000000E+000	-6.76516	0.0000000E+000	0.0000000E+000	0.0000000E+000	6.76516	8.42985	83.2348	-4.47086e-06	-0.000121391	8.36771e-09	-0.0001214	3.78551	118033	8.13618	118041
15.8576	6.98879	0.323191	6.99625	-2.64771	22.2101	3.78526	-0.0376421	31054.5	66.2691	1	10	0.00525442	0.000751034	0	-0.000128569	-3.1867e-05	1.30897e-05	109.248	0.0174289	-0.00574552	-0.0164546	-2.51515	6.98977	6.98304	0.306736	0.142781	0.0066028	0.142934	2.64771	66269.1	1.43302e+06	1.43456e+06	-87.3523	0.0000000E+000	0.0000000E+000	0.0000000E+000	87.3523	0.0000000E+000	0.0000000E+000	0.0000000E+000	-87.3523	0.0000000E+000	0.0000000E+000	0.0000000E+000	-2.64771	0.0000000E+000	0.0000000E+000	0.0000000E+000	2.64771	21.6243	87.3523	-4.49464e-06	-0.000142485	1.19954e-09	-0.000142486	3.78529	100559	0.84658	100560
3.97785	7.09185	0.195205	7.09454	-1.57668	25.1214	3.78529	-0.0309368	204965	155.172	1	10	0.00523896	0.00073845	0	-0.000144869	0.000178102	5.8323e-06	43.7444	0.00789804	0.0057058	-0.00546103	-1.53136	7.10009	7.09756	0.189744	0.1409	0.00387831	0.140953	1.57668	155172	5.63745e+06	5.63959e+06	-88.4233	0.0000000E+000	0.0000000E+000	0.0000000E+000	88.4233	0.0000000E+000	0.0000000E+000	0.0000000E+000	-88.4233	0.0000000E+000	0.0000000E+000	0.0000000E+000	-1.57668	0.0000000E+000	0.0000000E+000	0.0000000E+000	1.57668	36.3303	88.4233	3.68785e-06	-0.000117105	-5.5099e-09	-0.000117099	3.78511	122355	5.75694	122350
1.00469	7.22789	0.248258	7.23215	-1.96718	240.295	3.78527	-0.023052	638092	751.892	1	11	0.00519769	0.000718692	0	-0.00432326	0.000101749	9.87531e-07	-6.87245	0.00137407	0.00136419	0.00016442	-1.96811	7.23352	7.22925	0.248423	0.13819	0.00474645	0.138271	1.96718	751891	2.18909e+07	2.19038e+07	-88.0328	0.0000000E+000	0.0000000E+000	0.0000000E+000	88.0328	0.0000000E+000	0.0000000E+000	0.0000000E+000	-88.0328	0.0000000E+000	0.0000000E+000	0.0000000E+000	-1.96718	0.0000000E+000	0.0000000E+000	0.0000000E+000	1.96718	29.1144	88.0328	-0.00415445	-8.7258e-05	-2.34552e-09	-8.72557e-05	3.78517	164206	4.41391	164202
0.251173	7.43428	0.498167	7.45096	-3.83363	240.3	3.78527	-0.023052	1.27195e+06	5685.88	1	11	0.0052242	0.000701145	0	-0.00432326	0.000101749	1.29846e-06	-8.84772	0.00185192	0.00182988	0.000284841	-3.83487	7.4528	7.43611	0.498452	0.133911	0.00897327	0.134211	3.83363	5.68588e+06	8.48519e+07	8.50422e+07	-86.1664	0.0000000E+000	0.0000000E+000	0.0000000E+000	86.1664	0.0000000E+000	0.0000000E+000	0.0000000E+000	-86.1664	0.0000000E+000	0.0000000E+000	0.0000000E+000	-3.83363	0.0000000E+000	0.0000000E+000	0.0000000E+000	3.83363	14.9233	86.1664	0.000000000000000E+000	-8.7258e-05	-2.34552e-09	-8.72557e-05	3.78517	164206	4.41391	164202
0.0602816	7.95345	1.02658	8.01943	-7.35471	240.305	3.78527	-0.023052	2.57183e+06	42144.5	1	11	0.005218	0.00065067	0	-0.00432326	0.000101749	9.05761e-07	-25.946	0.00139204	0.00125173	0.000609053	-7.35788	8.02075	7.9547	1.02719	0.123671	0.0159627	0.124697	7.35471	4.21446e+07	3.26515e+08	3.29224e+08	-82.6453	0.0000000E+000	0.0000000E+000	0.0000000E+000	82.6453	0.0000000E+000	0.0000000E+000	0.0000000E+000	-82.6453	0.0000000E+000	0.0000000E+000	0.0000000E+000	-7.35471	0.0000000E+000	0.0000000E+000	0.0000000E+000	7.35471	7.74752	82.6453	0.000000000000000E+000	-8.7258e-05	-2.34552e-09	-8.72557e-05	3.78517	164206	4.41391	164202
0.00796479	10.4702	1.85877	10.634	-10.0668	20329.2	3.78526	0.00229012	1.07503e+07	328460	1	11	0.00521248	0.000490172	0	-0.0248698	0.000139925	3.48235e-07	-23.4398	0.000710434	0.000651808	0.0002826	-10.0677	10.6347	10.4709	1.85906	0.0925906	0.0164375	0.0940383	10.0668	3.2846e+08	1.85018e+09	1.8791e+09	-79.9332	0.0000000E+000	0.0000000E+000	0.0000000E+000	79.9332	0.0000000E+000	0.0000000E+000	0.0000000E+000	-79.9332	0.0000000E+000	0.0000000E+000	0.0000000E+000	-10.0668	0.0000000E+000	0.0000000E+000	0.0000000E+000	10.0668	5.63288	79.9332	-0.0205465	8.66872e-06	3.20446e-10	8.6684e-06	3.78512	1.65287e+06	61.0996	1.6528e+06
0.0019912	11.7042	2.67361	12.0056	-12.8674	20329.2	3.78526	0.00229012	2.98957e+07	1.48263e+06	1	11	0.00522648	0.000435335	0	-0.0248698	0.000139925	1.10692e-06	-47.9428	0.00254269	0.00170328	0.00188789	-12.8744	12.0077	11.7059	2.6755	0.0812025	0.0185493	0.0832942	12.8674	1.48263e+09	6.49046e+09	6.65765e+09	-77.1326	0.0000000E+000	0.0000000E+000	0.0000000E+000	77.1326	0.0000000E+000	0.0000000E+000	0.0000000E+000	-77.1326	0.0000000E+000	0.0000000E+000	0.0000000E+000	-12.8674	0.0000000E+000	0.0000000E+000	0.0000000E+000	12.8674	4.37766	77.1326	0.000000000000000E+000	8.66872e-06	3.20446e-10	8.6684e-06	3.78512	1.65287e+06	61.0996	1.6528e+06
0.000497799	12.0064	7.02454	13.9103	-30.3305	20329.2	3.78526	0.00229012	4.55144e+07	1.16067e+07	1	11	0.0052227	0.000375455	0	-0.0248698	0.000139925	5.86911e-06	19.9426	0.015632	0.0146946	-0.00533172	-30.2811	13.9203	12.0211	7.0192	0.0620494	0.0363031	0.0718891	30.3305	1.16067e+10	1.98383e+10	2.29842e+10	-59.6695	0.0000000E+000	0.0000000E+000	0.0000000E+000	59.6695	0.0000000E+000	0.0000000E+000	0.0000000E+000	-59.6695	0.0000000E+000	0.0000000E+000	0.0000000E+000	-30.3305	0.0000000E+000	0.0000000E+000	0.0000000E+000	30.3305	1.7092	59.6695	0.000000000000000E+000	8.66872e-06	3.20446e-10	8.6684e-06	3.78512	1.65287e+06	61.0996	1.6528e+06
9.95598e-05	14.0843	36.2542	38.8939	-68.7695	20329.2	3.78526	0.00229012	4.40938e+07	3.83117e+07	1	11	0.00522809	0.000134419	0	-0.0248698	0.000139925	3.60156e-06	-70.5035	0.0267935	0.0089423	0.0252572	-68.7707	38.9207	14.0932	36.2795	0.00931047	0.023966	0.025711	68.7695	3.83117e+10	1.48836e+10	4.11012e+10	-21.2305	0.0000000E+000	0.0000000E+000	0.0000000E+000	21.2305	0.0000000E+000	0.0000000E+000	0.0000000E+000	-21.2305	0.0000000E+000	0.0000000E+000	0.0000000E+000	-68.7695	0.0000000E+000	0.0000000E+000	0.0000000E+000	68.7695	0.388487	21.2305	0.000000000000000E+000	8.66872e-06	3.20446e-10	8.6684e-06	3.78512	1.65287e+06	61.0996	1.6528e+06