File: txt/17388_R279_UA649_SOC00_C06.mpt
EC-Lab ASCII FILE
Nb header lines : 63

Potentio Electrochemical Impedance Spectroscopy

Run on channel : 6 (SN 65795)
User :
CE vs. WE compliance from -10 V to 10 V
Electrode connection : standard
Potential control : Ewe
Ewe ctrl range : min = -10.00 V, max = 10.00 V
Safety Limits :
	Do not start on E overload
Acquisition started on : 09/10/2025 16:54:22.513
Loaded Setting File :  C:\Users\Celltest\OneDrive - store-dot.com\Documents\EC-Lab\Data\Charmaine\R279\17383.mps
Saved on :
	File : 17388_C06.mpr
	Directory : C:\Users\Celltest\OneDrive - store-dot.com\Documents\EC-Lab\Data\Charmaine\R279\
	Host : 169.254.61.224
Device : VMP-3e (SN .003165)
Address : USB
EC-LAB for windows v11.62 (software)
Internet server v27.00 (firmware)
Command interpretor v12.03 (firmware)
Electrode material :
Initial state :
Electrolyte :
Comments :
Electrode surface area : 0.001 cm²
Characteristic mass : 0.001 g
Equivalent Weight : 0.000 g/eq.
Density : 0.000 g/cm3
Volume (V) : 0.001 cm³
Cycle Definition : Charge/Discharge alternance
Mode                Single sine
E (V)               0.0000
vs.                 Eoc
tE (h:m:s)          0:00:0.0000
record              0
dI                  0.000
unit dI             mA
dt (s)              0.000
fi                  100.000
unit fi             kHz
ff                  10.000
unit ff             mHz
Nd                  6
Points              per decade
spacing             Logarithmic
Va (mV)             5.0
pw                  0.10
Na                  2
corr                0
E range min (V)     -10.000
E range max (V)     10.000
I Range             Auto
Bandwidth           5
nc cycles           0
goto Ns'            0
nr cycles           0
inc. cycle          0

freq/Hz	Re(Z)/Ohm	-Im(Z)/Ohm	|Z|/Ohm	Phase(Z)/deg	time/s	<Ewe>/V	<I>/mA	Cs/µF	Cp/µF	cycle number	I Range	|Ewe|/V	|I|/A	Ns	(Q-Qo)/mA.h	Re(Y)/Ohm-1	Im(Y)/Ohm-1	|Y|/Ohm-1	Phase(Y)/deg	Re(C)/nF	Im(C)/nF	|C|/nF	Phase(C)/deg	Re(M)	Im(M)	|M|	Phase(M)/deg	Re(Permittivity)	Im(Permittivity)	|Permittivity|	Phase(Permittivity)/deg	Re(Resistivity)/Ohm.cm	Im(Resistivity)/Ohm.cm	|Resistivity|/Ohm.cm	Phase(Resistivity)/deg	Re(Conductivity)/mS/cm	Im(Conductivity)/mS/cm	|Conductivity|/mS/cm	Phase(Conductivity)/deg	Tan(Delta)	Loss Angle(Delta)/deg	dq/mA.h	Pwe/W	Rwe/Ohm
100004	1.68318	0.432218	1.73779	-14.4017	2.06748	0.265765	0.017184	3.68214	0.227779	1	9	0.00461027	0.00265296	0	-2.9565e-06	0.557362	0.143123	0.575445	14.4017	227.779	887.036	915.815	-75.5984	0.0000000E+000	0.0000000E+000	0.0000000E+000	75.5984	0.0000000E+000	0.0000000E+000	0.0000000E+000	-75.5984	0.0000000E+000	0.0000000E+000	0.0000000E+000	-14.4017	0.0000000E+000	0.0000000E+000	0.0000000E+000	14.4017	3.89428	75.5984	-2.9565e-06	4.56692e-06	15465.8
46420.4	1.90249	0.482555	1.96273	-14.2326	3.08248	0.265768	0.0199405	7.10501	0.429474	1	9	0.00545515	0.00277937	0	7.76793e-06	0.493855	0.125264	0.509494	14.2326	429.474	1693.21	1746.83	-75.7674	0.0000000E+000	0.0000000E+000	0.0000000E+000	75.7674	0.0000000E+000	0.0000000E+000	0.0000000E+000	-75.7674	0.0000000E+000	0.0000000E+000	0.0000000E+000	-14.2326	0.0000000E+000	0.0000000E+000	0.0000000E+000	14.2326	3.94253	75.7674	5.89873e-06	5.29956e-06	13328.1
21544.7	2.14611	0.546024	2.21448	-14.2746	3.95648	0.265769	0.0177986	13.5291	0.822525	1	9	0.0053133	0.00239935	0	1.18487e-05	0.437631	0.111345	0.451574	14.2746	822.525	3232.87	3335.87	-75.7253	0.0000000E+000	0.0000000E+000	0.0000000E+000	75.7253	0.0000000E+000	0.0000000E+000	0.0000000E+000	-75.7253	0.0000000E+000	0.0000000E+000	0.0000000E+000	-14.2746	0.0000000E+000	0.0000000E+000	0.0000000E+000	14.2746	3.93042	75.7253	2.85368e-06	4.73032e-06	14932
10002.2	2.40489	0.629847	2.486	-14.6763	4.83047	0.265768	0.0150049	25.2632	1.62165	1	9	0.00497431	0.00200093	0	1.30245e-05	0.389129	0.101914	0.402253	14.6763	1621.65	6191.8	6400.63	-75.3237	0.0000000E+000	0.0000000E+000	0.0000000E+000	75.3237	0.0000000E+000	0.0000000E+000	0.0000000E+000	-75.3237	0.0000000E+000	0.0000000E+000	0.0000000E+000	-14.6763	0.0000000E+000	0.0000000E+000	0.0000000E+000	14.6763	3.81821	75.3237	1.72411e-06	3.98782e-06	17712.1
4641.49	2.68767	0.746341	2.78937	-15.5195	5.67967	0.265782	0.0417503	45.9437	3.28918	1	9	0.00510204	0.0018291	0	2.11408e-05	0.345433	0.0959235	0.358504	15.5195	3289.18	11844.8	12293	-74.4805	0.0000000E+000	0.0000000E+000	0.0000000E+000	74.4805	0.0000000E+000	0.0000000E+000	0.0000000E+000	-74.4805	0.0000000E+000	0.0000000E+000	0.0000000E+000	-15.5195	0.0000000E+000	0.0000000E+000	0.0000000E+000	15.5195	3.60113	74.4805	6.51801e-06	1.10965e-05	6365.98
2155.69	3.01449	0.95376	3.16178	-17.5569	6.61371	0.26579	0.0480828	77.4096	7.04386	1	9	0.00505601	0.00159911	0	3.35408e-05	0.301545	0.0954063	0.316278	17.5569	7043.86	22263.1	23350.9	-72.4431	0.0000000E+000	0.0000000E+000	0.0000000E+000	72.4431	0.0000000E+000	0.0000000E+000	0.0000000E+000	-72.4431	0.0000000E+000	0.0000000E+000	0.0000000E+000	-17.5569	0.0000000E+000	0.0000000E+000	0.0000000E+000	17.5569	3.16064	72.4431	6.88991e-06	1.27799e-05	5527.75
1000.32	3.42949	1.35952	3.68914	-21.6244	7.80367	0.265778	-0.00799412	117.029	15.8935	1	10	0.00505502	0.00137024	0	3.96585e-05	0.251988	0.0998936	0.271066	21.6244	15893.5	40092.4	43127.7	-68.3756	0.0000000E+000	0.0000000E+000	0.0000000E+000	68.3756	0.0000000E+000	0.0000000E+000	0.0000000E+000	-68.3756	0.0000000E+000	0.0000000E+000	0.0000000E+000	-21.6244	0.0000000E+000	0.0000000E+000	0.0000000E+000	21.6244	2.52257	68.3756	5.14912e-07	-2.12466e-06	33246.7
463.961	4.05953	2.02461	4.53639	-26.5068	8.73821	0.265776	-0.00780593	169.433	33.7489	1	10	0.00499326	0.00110071	0	3.72899e-05	0.197267	0.0983833	0.22044	26.5068	33748.9	67669.6	75618.6	-63.4931	0.0000000E+000	0.0000000E+000	0.0000000E+000	63.4931	0.0000000E+000	0.0000000E+000	0.0000000E+000	-63.4931	0.0000000E+000	0.0000000E+000	0.0000000E+000	-26.5068	0.0000000E+000	0.0000000E+000	0.0000000E+000	26.5068	2.00509	63.4931	-4.58754e-07	-2.07463e-06	34048
215.345	5.14479	2.98373	5.9474	-30.1116	9.67245	0.265771	-0.00816183	247.7	62.3436	1	10	0.00495346	0.000832879	0	3.47157e-05	0.14545	0.084354	0.168141	30.1116	62343.6	107498	124268	-59.8884	0.0000000E+000	0.0000000E+000	0.0000000E+000	59.8884	0.0000000E+000	0.0000000E+000	0.0000000E+000	-59.8884	0.0000000E+000	0.0000000E+000	0.0000000E+000	-30.1116	0.0000000E+000	0.0000000E+000	0.0000000E+000	30.1116	1.72428	59.8884	-1.63663e-06	-2.16918e-06	32562.7
100.032	6.9908	4.05117	8.0798	-30.0923	10.6037	0.265781	-0.00802209	392.736	98.7325	1	10	0.00493906	0.000611285	0	3.31996e-05	0.107084	0.0620553	0.123765	30.0923	98732.5	170375	196916	-59.9077	0.0000000E+000	0.0000000E+000	0.0000000E+000	59.9077	0.0000000E+000	0.0000000E+000	0.0000000E+000	-59.9077	0.0000000E+000	0.0000000E+000	0.0000000E+000	-30.0923	0.0000000E+000	0.0000000E+000	0.0000000E+000	30.0923	1.72562	59.9077	-6.651e-07	-2.13212e-06	33131.1
46.4415	9.69653	4.59371	10.7296	-25.3491	11.5375	0.265774	-0.00909534	746.019	136.744	1	10	0.00493396	0.000459845	0	3.13563e-05	0.0842262	0.039902	0.0931999	25.3491	136744	288643	319396	-64.6509	0.0000000E+000	0.0000000E+000	0.0000000E+000	64.6509	0.0000000E+000	0.0000000E+000	0.0000000E+000	-64.6509	0.0000000E+000	0.0000000E+000	0.0000000E+000	-25.3491	0.0000000E+000	0.0000000E+000	0.0000000E+000	25.3491	2.11083	64.6509	-1.21824e-06	-2.41731e-06	29220.9
21.5517	12.3682	3.97183	12.9903	-17.8035	12.4223	0.265762	-0.0126654	1859.29	173.817	1	10	0.00493232	0.000379693	0	2.76923e-05	0.0732941	0.0235371	0.0769806	17.8035	173817	541261	568486	-72.1965	0.0000000E+000	0.0000000E+000	0.0000000E+000	72.1965	0.0000000E+000	0.0000000E+000	0.0000000E+000	-72.1965	0.0000000E+000	0.0000000E+000	0.0000000E+000	-17.8035	0.0000000E+000	0.0000000E+000	0.0000000E+000	17.8035	3.11398	72.1965	-2.28601e-06	-3.36598e-06	20983.3
10.0032	14.0896	2.87022	14.379	-11.5143	13.6287	0.265804	-0.00780188	5543.27	220.872	1	11	0.00493004	0.000342865	0	2.99135e-05	0.0681464	0.0138822	0.069546	11.5143	220872	1.08424e+06	1.1065e+06	-78.4857	0.0000000E+000	0.0000000E+000	0.0000000E+000	78.4857	0.0000000E+000	0.0000000E+000	0.0000000E+000	-78.4857	0.0000000E+000	0.0000000E+000	0.0000000E+000	-11.5143	0.0000000E+000	0.0000000E+000	0.0000000E+000	11.5143	4.90889	78.4857	9.63957e-08	-2.07377e-06	34069.2
4.63925	15.0136	2.20366	15.1744	-8.35014	14.4883	0.265795	-0.00841389	15567.8	328.316	1	11	0.00493642	0.000325311	0	2.63658e-05	0.0652017	0.00957018	0.0659003	8.35014	328316	2.23682e+06	2.26079e+06	-81.6499	0.0000000E+000	0.0000000E+000	0.0000000E+000	81.6499	0.0000000E+000	0.0000000E+000	0.0000000E+000	-81.6499	0.0000000E+000	0.0000000E+000	0.0000000E+000	-8.35014	0.0000000E+000	0.0000000E+000	0.0000000E+000	8.35014	6.81301	81.6499	4.93757e-07	-2.23637e-06	31590.1
2.15577	15.7108	2.10355	15.851	-7.62606	16.2147	0.265805	-0.00553577	35096.7	618.096	1	11	0.00493069	0.000311065	0	2.53111e-05	0.0625295	0.00837216	0.0630874	7.62606	618096	4.61639e+06	4.65759e+06	-82.3739	0.0000000E+000	0.0000000E+000	0.0000000E+000	82.3739	0.0000000E+000	0.0000000E+000	0.0000000E+000	-82.3739	0.0000000E+000	0.0000000E+000	0.0000000E+000	-7.62606	0.0000000E+000	0.0000000E+000	0.0000000E+000	7.62606	7.46873	82.3739	-4.1373e-06	-1.47143e-06	48015.9
1.00006	16.6178	2.44653	16.7969	-8.37513	20.8782	0.265804	-0.00562643	65049.2	1380.02	1	12	0.00493535	0.000293825	0	3.92178e-06	0.0588999	0.00867146	0.0595348	8.37513	1.38002e+06	9.37361e+06	9.47465e+06	-81.6249	0.0000000E+000	0.0000000E+000	0.0000000E+000	81.6249	0.0000000E+000	0.0000000E+000	0.0000000E+000	-81.6249	0.0000000E+000	0.0000000E+000	0.0000000E+000	-8.37513	0.0000000E+000	0.0000000E+000	0.0000000E+000	8.37513	6.79239	81.6249	-1.09571e-05	-1.49553e-06	47242
0.464091	17.9473	2.96775	18.1911	-9.3894	28.5626	0.26581	-0.00548161	115555	3075.6	1	12	0.00493611	0.000271348	0	1.57869e-05	0.0542356	0.00896834	0.0549721	9.3894	3.0756e+06	1.85995e+07	1.88521e+07	-80.6106	0.0000000E+000	0.0000000E+000	0.0000000E+000	80.6106	0.0000000E+000	0.0000000E+000	0.0000000E+000	-80.6106	0.0000000E+000	0.0000000E+000	0.0000000E+000	-9.3894	0.0000000E+000	0.0000000E+000	0.0000000E+000	9.3894	6.04745	80.6106	1.10077e-05	-1.45707e-06	48491.2
0.215268	19.7228	3.26328	19.991	-9.39485	45.0419	0.265809	-0.00297305	226562	6037.07	1	12	0.00493242	0.000246732	0	3.20731e-05	0.0493516	0.00816554	0.0500225	9.39485	6.03707e+06	3.64873e+07	3.69834e+07	-80.6051	0.0000000E+000	0.0000000E+000	0.0000000E+000	80.6051	0.0000000E+000	0.0000000E+000	0.0000000E+000	-80.6051	0.0000000E+000	0.0000000E+000	0.0000000E+000	-9.39485	0.0000000E+000	0.0000000E+000	0.0000000E+000	9.39485	6.04388	80.6051	3.2935e-06	-7.90264e-07	89406.1
0.0999041	21.2525	3.37407	21.5187	-9.02104	80.4491	0.265802	-0.000535379	472154	11608.1	1	12	0.00493399	0.000229289	0	-4.76444e-05	0.0458965	0.00728657	0.0464713	9.02104	1.16081e+07	7.31167e+07	7.40324e+07	-80.979	0.0000000E+000	0.0000000E+000	0.0000000E+000	80.979	0.0000000E+000	0.0000000E+000	0.0000000E+000	-80.979	0.0000000E+000	0.0000000E+000	0.0000000E+000	-9.02104	0.0000000E+000	0.0000000E+000	0.0000000E+000	9.02104	6.29878	80.979	-5.80595e-05	-1.42305e-07	496474
0.0464052	22.4863	4.01659	22.8422	-10.1276	156.685	0.265811	-0.00148572	853878	26401.8	1	12	0.00493644	0.00021611	0	-0.000260379	0.0430964	0.00769805	0.0437786	10.1276	2.64018e+07	1.47807e+08	1.50146e+08	-79.8724	0.0000000E+000	0.0000000E+000	0.0000000E+000	79.8724	0.0000000E+000	0.0000000E+000	0.0000000E+000	-79.8724	0.0000000E+000	0.0000000E+000	0.0000000E+000	-10.1276	0.0000000E+000	0.0000000E+000	0.0000000E+000	10.1276	5.59836	79.8724	-0.00012384	-3.94922e-07	178910
0.0215268	23.8006	6.43163	24.6543	-15.1218	320.915	0.265801	-0.00248587	1.14953e+06	78230.4	1	12	0.00493376	0.000200117	0	-0.00032624	0.0391564	0.0105812	0.0405608	15.1218	7.82305e+07	2.89496e+08	2.9988e+08	-74.8782	0.0000000E+000	0.0000000E+000	0.0000000E+000	74.8782	0.0000000E+000	0.0000000E+000	0.0000000E+000	-74.8782	0.0000000E+000	0.0000000E+000	0.0000000E+000	-15.1218	0.0000000E+000	0.0000000E+000	0.0000000E+000	15.1218	3.70056	74.8782	3.19708e-05	-6.60747e-07	106925
0.0100092	25.76	10.831	27.9443	-22.8047	674.132	0.265797	-0.000497055	1.4681e+06	220548	1	12	0.00493309	0.000176533	0	0.00039868	0.0329881	0.0138701	0.0357854	22.8047	2.20548e+08	5.24541e+08	5.69021e+08	-67.1953	0.0000000E+000	0.0000000E+000	0.0000000E+000	67.1953	0.0000000E+000	0.0000000E+000	0.0000000E+000	-67.1953	0.0000000E+000	0.0000000E+000	0.0000000E+000	-22.8047	0.0000000E+000	0.0000000E+000	0.0000000E+000	22.8047	2.37836	67.1953	0.000462576	-1.32116e-07	534743