File: txt/17383_C02.mpt
EC-Lab ASCII FILE
Nb header lines : 64

Potentio Electrochemical Impedance Spectroscopy

Run on channel : 2 (SN 66139)
User :
CE vs. WE compliance from -10 V to 10 V
Electrode connection : standard
Potential control : Ewe
Ewe ctrl range : min = -10.00 V, max = 10.00 V
Safety Limits :
	Do not start on E overload
Acquisition started on : 09/10/2025 16:53:18.999
Technique started on : 09/10/2025 16:53:20.863
Loaded Setting File :  C:\Users\Celltest\OneDrive - store-dot.com\Documents\EC-Lab\Data\Charmaine\R279\17382_C01.mpr
Saved on :
	File : 17383_C02.mpr
	Directory : C:\Users\Celltest\OneDrive - store-dot.com\Documents\EC-Lab\Data\Charmaine\R279\
	Host : 169.254.61.224
Device : VMP-3e (SN .003165)
Address : USB
EC-LAB for windows v11.62 (software)
Internet server v27.00 (firmware)
Command interpretor v12.03 (firmware)
Electrode material :
Initial state :
Electrolyte :
Comments :
Electrode surface area : 0.001 cm²
Characteristic mass : 0.001 g
Equivalent Weight : 0.000 g/eq.
Density : 0.000 g/cm3
Volume (V) : 0.001 cm³
Cycle Definition : Charge/Discharge alternance
Mode                Single sine
E (V)               0.0000
vs.                 Eoc
tE (h:m:s)          0:00:0.0000
record              0
dI                  0.000
unit dI             mA
dt (s)              0.000
fi                  100.000
unit fi             kHz
ff                  10.000
unit ff             mHz
Nd                  6
Points              per decade
spacing             Logarithmic
Va (mV)             5.0
pw                  0.10
Na                  2
corr                0
E range min (V)     -10.000
E range max (V)     10.000
I Range             Auto
Bandwidth           5
nc cycles           0
goto Ns'            0
nr cycles           0
inc. cycle          0

freq/Hz	Re(Z)/Ohm	-Im(Z)/Ohm	|Z|/Ohm	Phase(Z)/deg	time/s	<Ewe>/V	<I>/mA	Cs/µF	Cp/µF	cycle number	I Range	|Ewe|/V	|I|/A	Ns	(Q-Qo)/mA.h	Re(Y)/Ohm-1	Im(Y)/Ohm-1	|Y|/Ohm-1	Phase(Y)/deg	Re(C)/nF	Im(C)/nF	|C|/nF	Phase(C)/deg	Re(M)	Im(M)	|M|	Phase(M)/deg	Re(Permittivity)	Im(Permittivity)	|Permittivity|	Phase(Permittivity)/deg	Re(Resistivity)/Ohm.cm	Im(Resistivity)/Ohm.cm	|Resistivity|/Ohm.cm	Phase(Resistivity)/deg	Re(Conductivity)/mS/cm	Im(Conductivity)/mS/cm	|Conductivity|/mS/cm	Phase(Conductivity)/deg	Tan(Delta)	Loss Angle(Delta)/deg	dq/mA.h	Pwe/W	Rwe/Ohm
100004	2.65805	0.992876	2.83744	-20.4824	1.86448	0.186171	-0.0321037	1.60291	0.196267	1	9	0.00459029	0.00161776	0	-7.01646e-06	0.33015	0.123323	0.352431	20.4824	196.267	525.431	560.89	-69.5176	0.0000000E+000	0.0000000E+000	0.0000000E+000	69.5176	0.0000000E+000	0.0000000E+000	0.0000000E+000	-69.5176	0.0000000E+000	0.0000000E+000	0.0000000E+000	-20.4824	0.0000000E+000	0.0000000E+000	0.0000000E+000	20.4824	2.67712	69.5176	-7.01646e-06	-5.97678e-06	5799.05
46420.4	3.15012	1.13967	3.34994	-19.8894	3.02049	0.186176	-0.0292544	3.00838	0.34819	1	9	0.00502568	0.00150023	0	-1.75285e-05	0.280707	0.101556	0.298513	19.8894	348.19	962.42	1023.47	-70.1106	0.0000000E+000	0.0000000E+000	0.0000000E+000	70.1106	0.0000000E+000	0.0000000E+000	0.0000000E+000	-70.1106	0.0000000E+000	0.0000000E+000	0.0000000E+000	-19.8894	0.0000000E+000	0.0000000E+000	0.0000000E+000	19.8894	2.76407	70.1106	-5.59489e-06	-5.44645e-06	6364.02
21544.7	3.68908	1.3623	3.93258	-20.2681	3.75348	0.186173	-0.0327555	5.42259	0.650726	1	9	0.00540745	0.00137504	0	-2.21016e-05	0.238541	0.0880883	0.254286	20.2681	650.726	1762.15	1878.46	-69.7319	0.0000000E+000	0.0000000E+000	0.0000000E+000	69.7319	0.0000000E+000	0.0000000E+000	0.0000000E+000	-69.7319	0.0000000E+000	0.0000000E+000	0.0000000E+000	-20.2681	0.0000000E+000	0.0000000E+000	0.0000000E+000	20.2681	2.70798	69.7319	-2.3495e-06	-6.0982e-06	5683.72
10002.2	4.32204	1.69685	4.6432	-21.4351	4.5175	0.186231	-0.0313847	9.37736	1.25237	1	10	0.00478878	0.00103135	0	-2.80749e-05	0.200472	0.078706	0.215369	21.4351	1252.37	3189.9	3426.94	-68.5649	0.0000000E+000	0.0000000E+000	0.0000000E+000	68.5649	0.0000000E+000	0.0000000E+000	0.0000000E+000	-68.5649	0.0000000E+000	0.0000000E+000	0.0000000E+000	-21.4351	0.0000000E+000	0.0000000E+000	0.0000000E+000	21.4351	2.5471	68.5649	-3.21515e-06	-5.84482e-06	5933.82
4641.49	5.11852	2.23008	5.58324	-23.5422	5.36771	0.186268	-0.00955121	15.3759	2.45308	1	10	0.00505836	0.00090599	0	-3.17044e-05	0.1642	0.07154	0.179108	23.5422	2453.08	5630.35	6141.54	-66.4578	0.0000000E+000	0.0000000E+000	0.0000000E+000	66.4578	0.0000000E+000	0.0000000E+000	0.0000000E+000	-66.4578	0.0000000E+000	0.0000000E+000	0.0000000E+000	-23.5422	0.0000000E+000	0.0000000E+000	0.0000000E+000	23.5422	2.29521	66.4578	-9.73108e-07	-1.77909e-06	19502
2155.69	6.16906	3.04742	6.8807	-26.2887	6.30169	0.18627	-0.00924761	24.2271	4.75227	1	10	0.00495291	0.000719826	0	-3.40626e-05	0.130303	0.0643676	0.145334	26.2887	4752.27	9620.27	10730	-63.7113	0.0000000E+000	0.0000000E+000	0.0000000E+000	63.7113	0.0000000E+000	0.0000000E+000	0.0000000E+000	-63.7113	0.0000000E+000	0.0000000E+000	0.0000000E+000	-26.2887	0.0000000E+000	0.0000000E+000	0.0000000E+000	26.2887	2.02435	63.7113	-5.8744e-07	-1.72256e-06	20142.5
1000.32	7.60516	4.30923	8.74116	-29.5368	7.23768	0.186263	-0.0096369	36.9217	8.97311	1	10	0.00485348	0.000555244	0	-3.65828e-05	0.0995337	0.0563978	0.114401	29.5368	8973.11	15836.2	18201.7	-60.4632	0.0000000E+000	0.0000000E+000	0.0000000E+000	60.4632	0.0000000E+000	0.0000000E+000	0.0000000E+000	-60.4632	0.0000000E+000	0.0000000E+000	0.0000000E+000	-29.5368	0.0000000E+000	0.0000000E+000	0.0000000E+000	29.5368	1.76485	60.4632	-1.17325e-06	-1.795e-06	19328.2
463.961	9.83913	6.16511	11.6111	-32.0709	8.17219	0.186262	-0.00895705	55.6414	15.6868	1	10	0.00480831	0.000414114	0	-3.90354e-05	0.0729814	0.0457295	0.0861247	32.0709	15686.8	25035.2	29543.8	-57.9291	0.0000000E+000	0.0000000E+000	0.0000000E+000	57.9291	0.0000000E+000	0.0000000E+000	0.0000000E+000	-57.9291	0.0000000E+000	0.0000000E+000	0.0000000E+000	-32.0709	0.0000000E+000	0.0000000E+000	0.0000000E+000	32.0709	1.59594	57.9291	-9.69612e-07	-1.66836e-06	20795
215.345	13.4938	8.3487	15.8677	-31.7453	9.10642	0.186259	-0.00895519	88.5253	24.5062	1	10	0.00479579	0.000302236	0	-4.125e-05	0.0535928	0.0331581	0.063021	31.7453	24506.2	39608.9	46577	-58.2547	0.0000000E+000	0.0000000E+000	0.0000000E+000	58.2547	0.0000000E+000	0.0000000E+000	0.0000000E+000	-58.2547	0.0000000E+000	0.0000000E+000	0.0000000E+000	-31.7453	0.0000000E+000	0.0000000E+000	0.0000000E+000	31.7453	1.61628	58.2547	-1.26074e-06	-1.66798e-06	20798.9
100.032	18.8729	9.92814	21.3249	-27.7468	10.0377	0.186267	-0.00830887	160.256	34.7355	1	10	0.00478848	0.000224549	0	-4.35616e-05	0.0415014	0.021832	0.0468935	27.7468	34735.5	66030.3	74609.4	-62.2532	0.0000000E+000	0.0000000E+000	0.0000000E+000	62.2532	0.0000000E+000	0.0000000E+000	0.0000000E+000	-62.2532	0.0000000E+000	0.0000000E+000	0.0000000E+000	-27.7468	0.0000000E+000	0.0000000E+000	0.0000000E+000	27.7468	1.90095	62.2532	-1.09695e-06	-1.54767e-06	22417.9
46.4415	25.034	9.52993	26.7866	-20.8408	11.2305	0.186272	-0.0106249	359.603	45.5165	1	11	0.004786	0.000178672	0	-4.65177e-05	0.0348896	0.0132818	0.0373321	20.8408	45516.5	119566	127937	-69.1592	0.0000000E+000	0.0000000E+000	0.0000000E+000	69.1592	0.0000000E+000	0.0000000E+000	0.0000000E+000	-69.1592	0.0000000E+000	0.0000000E+000	0.0000000E+000	-20.8408	0.0000000E+000	0.0000000E+000	0.0000000E+000	20.8408	2.62688	69.1592	-1.14591e-06	-1.97913e-06	17531.6
21.5517	29.8971	7.05796	30.7189	-13.2829	12.1153	0.186278	-0.0107866	1046.31	55.2338	1	11	0.00478804	0.000155866	0	-4.86974e-05	0.0316823	0.0074794	0.0325532	13.2829	55233.8	233967	240399	-76.7171	0.0000000E+000	0.0000000E+000	0.0000000E+000	76.7171	0.0000000E+000	0.0000000E+000	0.0000000E+000	-76.7171	0.0000000E+000	0.0000000E+000	0.0000000E+000	-13.2829	0.0000000E+000	0.0000000E+000	0.0000000E+000	13.2829	4.23595	76.7171	-8.35735e-07	-2.0093e-06	17269.4
10.0032	32.3398	4.42367	32.6409	-7.78899	13.0617	0.186278	-0.00987831	3596.65	66.0601	1	11	0.00478016	0.000146447	0	-5.11762e-05	0.0303538	0.00415201	0.0306364	7.78899	66060.1	482940	487438	-82.211	0.0000000E+000	0.0000000E+000	0.0000000E+000	82.211	0.0000000E+000	0.0000000E+000	0.0000000E+000	-82.211	0.0000000E+000	0.0000000E+000	0.0000000E+000	-7.78899	0.0000000E+000	0.0000000E+000	0.0000000E+000	7.78899	7.31062	82.211	-1.3649e-06	-1.84011e-06	18857.3
4.63925	33.4504	2.93007	33.5784	-5.00602	13.9223	0.186295	-0.0091753	11708.3	89.1515	1	11	0.00477887	0.00014232	0	-5.4379e-05	0.0296674	0.0025987	0.029781	5.00602	89151.5	1.01778e+06	1.02167e+06	-84.994	0.0000000E+000	0.0000000E+000	0.0000000E+000	84.994	0.0000000E+000	0.0000000E+000	0.0000000E+000	-84.994	0.0000000E+000	0.0000000E+000	0.0000000E+000	-5.00602	0.0000000E+000	0.0000000E+000	0.0000000E+000	5.00602	11.4162	84.994	-1.47321e-06	-1.70931e-06	20304
2.15577	34.2968	2.40299	34.3808	-4.00786	15.6477	0.1863	-0.00769074	30723.2	150.085	1	11	0.00478667	0.000139225	0	-5.57755e-05	0.0290148	0.00203291	0.029086	4.00786	150085	2.14209e+06	2.14734e+06	-85.9921	0.0000000E+000	0.0000000E+000	0.0000000E+000	85.9921	0.0000000E+000	0.0000000E+000	0.0000000E+000	-85.9921	0.0000000E+000	0.0000000E+000	0.0000000E+000	-4.00786	0.0000000E+000	0.0000000E+000	0.0000000E+000	4.00786	14.2725	85.9921	-2.05462e-06	-1.43279e-06	24224
1.00006	35.1866	2.51613	35.2764	-4.09015	19.9932	0.186302	-0.00687058	63249.9	321.777	1	12	0.00478602	0.000135672	0	-7.08461e-05	0.0282753	0.00202192	0.0283475	4.09015	321777	4.49987e+06	4.51136e+06	-85.9099	0.0000000E+000	0.0000000E+000	0.0000000E+000	85.9099	0.0000000E+000	0.0000000E+000	0.0000000E+000	-85.9099	0.0000000E+000	0.0000000E+000	0.0000000E+000	-4.09015	0.0000000E+000	0.0000000E+000	0.0000000E+000	4.09015	13.9844	85.9099	-6.92216e-06	-1.28e-06	27115.9
0.464091	36.4271	3.08651	36.5576	-4.84316	27.6779	0.186307	-0.00645737	111109	792.006	1	12	0.00478783	0.000130967	0	-7.66797e-05	0.0272564	0.00230946	0.0273541	4.84316	792006	9.3473e+06	9.38079e+06	-85.1568	0.0000000E+000	0.0000000E+000	0.0000000E+000	85.1568	0.0000000E+000	0.0000000E+000	0.0000000E+000	-85.1568	0.0000000E+000	0.0000000E+000	0.0000000E+000	-4.84316	0.0000000E+000	0.0000000E+000	0.0000000E+000	4.84316	11.802	85.1568	-9.44586e-07	-1.20305e-06	28851.8
0.215268	38.1034	3.53626	38.2672	-5.30226	44.158	0.1863	-0.00465475	209072	1785.39	1	12	0.00478951	0.00012516	0	-7.81814e-05	0.0260202	0.00241486	0.0261321	5.30226	1.78539e+06	1.92377e+07	1.93203e+07	-84.6977	0.0000000E+000	0.0000000E+000	0.0000000E+000	84.6977	0.0000000E+000	0.0000000E+000	0.0000000E+000	-84.6977	0.0000000E+000	0.0000000E+000	0.0000000E+000	-5.30226	0.0000000E+000	0.0000000E+000	0.0000000E+000	5.30226	10.7751	84.6977	-2.58863e-06	-8.67179e-07	40023.5
0.0999041	39.6877	4.32408	39.9226	-6.218	79.5645	0.186298	-0.00226894	368420	4322.09	1	12	0.00478951	0.00011997	0	-0.000127768	0.0249011	0.00271304	0.0250485	6.218	4.32209e+06	3.96694e+07	3.99042e+07	-83.782	0.0000000E+000	0.0000000E+000	0.0000000E+000	83.782	0.0000000E+000	0.0000000E+000	0.0000000E+000	-83.782	0.0000000E+000	0.0000000E+000	0.0000000E+000	-6.218	0.0000000E+000	0.0000000E+000	0.0000000E+000	6.218	9.17829	83.782	-3.52944e-05	-4.227e-07	82108.2
0.0464052	41.2774	6.17989	41.7374	-8.51486	155.801	0.186293	-0.00201614	554974	12167	1	12	0.00478654	0.000114682	0	-0.000278871	0.0236952	0.00354756	0.0239593	8.51486	1.2167e+07	8.1267e+07	8.21728e+07	-81.4851	0.0000000E+000	0.0000000E+000	0.0000000E+000	81.4851	0.0000000E+000	0.0000000E+000	0.0000000E+000	-81.4851	0.0000000E+000	0.0000000E+000	0.0000000E+000	-8.51486	0.0000000E+000	0.0000000E+000	0.0000000E+000	8.51486	6.67931	81.4851	-9.14308e-05	-3.75593e-07	92401
0.0215268	43.6898	10.853	45.0176	-13.9504	320.03	0.186291	-0.00207887	681229	39593.5	1	12	0.00478855	0.000106371	0	-0.000412179	0.0215583	0.00535529	0.0222135	13.9504	3.95935e+07	1.59388e+08	1.64232e+08	-76.0496	0.0000000E+000	0.0000000E+000	0.0000000E+000	76.0496	0.0000000E+000	0.0000000E+000	0.0000000E+000	-76.0496	0.0000000E+000	0.0000000E+000	0.0000000E+000	-13.9504	0.0000000E+000	0.0000000E+000	0.0000000E+000	13.9504	4.02562	76.0496	-3.96061e-05	-3.87275e-07	89611.5
0.0100092	47.4435	18.6726	50.9859	-21.4834	673.248	0.186281	-0.00105348	851563	114216	1	12	0.0047873	9.38946e-05	0	-0.000127837	0.0182506	0.007183	0.0196133	21.4834	1.14216e+08	2.90202e+08	3.11869e+08	-68.5166	0.0000000E+000	0.0000000E+000	0.0000000E+000	68.5166	0.0000000E+000	0.0000000E+000	0.0000000E+000	-68.5166	0.0000000E+000	0.0000000E+000	0.0000000E+000	-21.4834	0.0000000E+000	0.0000000E+000	0.0000000E+000	21.4834	2.54081	68.5166	0.000206876	-1.96244e-07	176824