File: txt/17385_R279_UA648_SOC00_C04.mpt
EC-Lab ASCII FILE
Nb header lines : 63

Potentio Electrochemical Impedance Spectroscopy

Run on channel : 4 (SN 66756)
User :
CE vs. WE compliance from -10 V to 10 V
Electrode connection : standard
Potential control : Ewe
Ewe ctrl range : min = -10.00 V, max = 10.00 V
Safety Limits :
	Do not start on E overload
Acquisition started on : 09/10/2025 16:53:49.045
Loaded Setting File :  C:\Users\Celltest\OneDrive - store-dot.com\Documents\EC-Lab\Data\Charmaine\R279\17382.mps
Saved on :
	File : 17385_C04.mpr
	Directory : C:\Users\Celltest\OneDrive - store-dot.com\Documents\EC-Lab\Data\Charmaine\R279\
	Host : 169.254.61.224
Device : VMP-3e (SN .003165)
Address : USB
EC-LAB for windows v11.62 (software)
Internet server v27.00 (firmware)
Command interpretor v12.03 (firmware)
Electrode material :
Initial state :
Electrolyte :
Comments :
Electrode surface area : 0.001 cm²
Characteristic mass : 0.001 g
Equivalent Weight : 0.000 g/eq.
Density : 0.000 g/cm3
Volume (V) : 0.001 cm³
Cycle Definition : Charge/Discharge alternance
Mode                Single sine
E (V)               0.0000
vs.                 Eoc
tE (h:m:s)          0:00:0.0000
record              0
dI                  0.000
unit dI             mA
dt (s)              0.000
fi                  100.000
unit fi             kHz
ff                  10.000
unit ff             mHz
Nd                  6
Points              per decade
spacing             Logarithmic
Va (mV)             5.0
pw                  0.10
Na                  2
corr                0
E range min (V)     -10.000
E range max (V)     10.000
I Range             Auto
Bandwidth           5
nc cycles           0
goto Ns'            0
nr cycles           0
inc. cycle          0

freq/Hz	Re(Z)/Ohm	-Im(Z)/Ohm	|Z|/Ohm	Phase(Z)/deg	time/s	<Ewe>/V	<I>/mA	Cs/µF	Cp/µF	cycle number	I Range	|Ewe|/V	|I|/A	Ns	(Q-Qo)/mA.h	Re(Y)/Ohm-1	Im(Y)/Ohm-1	|Y|/Ohm-1	Phase(Y)/deg	Re(C)/nF	Im(C)/nF	|C|/nF	Phase(C)/deg	Re(M)	Im(M)	|M|	Phase(M)/deg	Re(Permittivity)	Im(Permittivity)	|Permittivity|	Phase(Permittivity)/deg	Re(Resistivity)/Ohm.cm	Im(Resistivity)/Ohm.cm	|Resistivity|/Ohm.cm	Phase(Resistivity)/deg	Re(Conductivity)/mS/cm	Im(Conductivity)/mS/cm	|Conductivity|/mS/cm	Phase(Conductivity)/deg	Tan(Delta)	Loss Angle(Delta)/deg	dq/mA.h	Pwe/W	Rwe/Ohm
100004	2.42447	0.803214	2.55406	-18.3297	2.22648	0.185627	-0.00964532	1.9814	0.195962	1	9	0.00493144	0.00193082	0	-5.6956e-06	0.371668	0.123131	0.391533	18.3297	195.962	591.506	623.122	-71.6703	0.0000000E+000	0.0000000E+000	0.0000000E+000	71.6703	0.0000000E+000	0.0000000E+000	0.0000000E+000	-71.6703	0.0000000E+000	0.0000000E+000	0.0000000E+000	-18.3297	0.0000000E+000	0.0000000E+000	0.0000000E+000	18.3297	3.01847	71.6703	-5.6956e-06	-1.79044e-06	19245.3
46420.4	2.79725	0.992024	2.96795	-19.5267	3.10049	0.185631	-0.00835857	3.45613	0.386118	1	9	0.00534294	0.00180021	0	-9.24528e-06	0.317554	0.112618	0.336933	19.5267	386.118	1088.75	1155.19	-70.4733	0.0000000E+000	0.0000000E+000	0.0000000E+000	70.4733	0.0000000E+000	0.0000000E+000	0.0000000E+000	-70.4733	0.0000000E+000	0.0000000E+000	0.0000000E+000	-19.5267	0.0000000E+000	0.0000000E+000	0.0000000E+000	19.5267	2.81974	70.4733	-4.12515e-07	-1.55161e-06	22208.4
21544.7	3.25556	1.25316	3.48842	-21.0532	3.97448	0.185627	-0.0126291	5.89484	0.760728	1	9	0.00537533	0.00154091	0	-1.42304e-05	0.267527	0.102979	0.286662	21.0532	760.728	1976.28	2117.63	-68.9468	0.0000000E+000	0.0000000E+000	0.0000000E+000	68.9468	0.0000000E+000	0.0000000E+000	0.0000000E+000	-68.9468	0.0000000E+000	0.0000000E+000	0.0000000E+000	-21.0532	0.0000000E+000	0.0000000E+000	0.0000000E+000	21.0532	2.59787	68.9468	2.82278e-07	-2.34431e-06	14698.3
10002.2	3.84545	1.64033	4.18069	-23.1013	4.84848	0.185626	-0.0134497	9.70048	1.49334	1	9	0.00533626	0.00127641	0	-1.99996e-05	0.220015	0.0938501	0.239195	23.1013	1493.34	3500.86	3806.06	-66.8987	0.0000000E+000	0.0000000E+000	0.0000000E+000	66.8987	0.0000000E+000	0.0000000E+000	0.0000000E+000	-66.8987	0.0000000E+000	0.0000000E+000	0.0000000E+000	-23.1013	0.0000000E+000	0.0000000E+000	0.0000000E+000	23.1013	2.34432	66.8987	-3.26883e-06	-2.49661e-06	13801.5
4641.49	4.62128	2.249	5.13948	-25.9504	6.30468	0.185635	-0.0076006	15.2467	2.91954	1	10	0.00511761	0.000995745	0	-2.54647e-05	0.174954	0.0851434	0.194572	25.9504	2919.54	5999.12	6671.82	-64.0496	0.0000000E+000	0.0000000E+000	0.0000000E+000	64.0496	0.0000000E+000	0.0000000E+000	0.0000000E+000	-64.0496	0.0000000E+000	0.0000000E+000	0.0000000E+000	-25.9504	0.0000000E+000	0.0000000E+000	0.0000000E+000	25.9504	2.05482	64.0496	-1.12912e-06	-1.41094e-06	24423.7
2155.69	5.66671	3.17825	6.49714	-29.2865	7.46167	0.185637	-0.00804637	23.2298	5.55874	1	10	0.00513455	0.000790278	0	-2.72409e-05	0.134241	0.075291	0.153914	29.2865	5558.75	9911.06	11363.5	-60.7135	0.0000000E+000	0.0000000E+000	0.0000000E+000	60.7135	0.0000000E+000	0.0000000E+000	0.0000000E+000	-60.7135	0.0000000E+000	0.0000000E+000	0.0000000E+000	-29.2865	0.0000000E+000	0.0000000E+000	0.0000000E+000	29.2865	1.78297	60.7135	-3.30094e-07	-1.4937e-06	23070.9
1000.32	7.11559	4.55092	8.44645	-32.6018	8.39771	0.185641	-0.00795499	34.9608	10.1492	1	10	0.00486198	0.000575624	0	-2.93945e-05	0.0997384	0.0637897	0.118393	32.6018	10149.2	15868.8	18836.8	-57.3982	0.0000000E+000	0.0000000E+000	0.0000000E+000	57.3982	0.0000000E+000	0.0000000E+000	0.0000000E+000	-57.3982	0.0000000E+000	0.0000000E+000	0.0000000E+000	-32.6018	0.0000000E+000	0.0000000E+000	0.0000000E+000	32.6018	1.56355	57.3982	-9.36079e-07	-1.47677e-06	23336.4
463.961	9.39612	6.61881	11.4933	-35.1616	9.33222	0.185624	-0.00812658	51.8273	17.1882	1	10	0.00470491	0.000409362	0	-3.14869e-05	0.0711311	0.0501062	0.0870073	35.1616	17188.2	24400.5	29846.6	-54.8384	0.0000000E+000	0.0000000E+000	0.0000000E+000	54.8384	0.0000000E+000	0.0000000E+000	0.0000000E+000	-54.8384	0.0000000E+000	0.0000000E+000	0.0000000E+000	-35.1616	0.0000000E+000	0.0000000E+000	0.0000000E+000	35.1616	1.41961	54.8384	-8.05003e-07	-1.50849e-06	22841.6
215.345	13.1983	9.34299	16.1706	-35.2944	10.2664	0.185633	-0.00749805	79.1044	26.4072	1	10	0.00464792	0.000287431	0	-3.32751e-05	0.0504741	0.0357302	0.0618408	35.2944	26407.2	37303.9	45704.7	-54.7056	0.0000000E+000	0.0000000E+000	0.0000000E+000	54.7056	0.0000000E+000	0.0000000E+000	0.0000000E+000	-54.7056	0.0000000E+000	0.0000000E+000	0.0000000E+000	-35.2944	0.0000000E+000	0.0000000E+000	0.0000000E+000	35.2944	1.41264	54.7056	-1.00605e-06	-1.39189e-06	24757.5
100.032	19.3728	11.7453	22.6552	-31.2275	11.4517	0.185651	-0.00497914	135.462	36.409	1	11	0.004644	0.000204986	0	-3.55711e-05	0.0377447	0.0228838	0.0441399	31.2275	36409	60053.4	70228.4	-58.7725	0.0000000E+000	0.0000000E+000	0.0000000E+000	58.7725	0.0000000E+000	0.0000000E+000	0.0000000E+000	-58.7725	0.0000000E+000	0.0000000E+000	0.0000000E+000	-31.2275	0.0000000E+000	0.0000000E+000	0.0000000E+000	31.2275	1.64941	58.7725	-1.28083e-06	-9.24382e-07	37285.8
46.4415	27.0183	11.6481	29.4222	-23.3219	12.3856	0.185643	-0.00514553	294.209	46.1126	1	11	0.00462386	0.000157156	0	-3.67687e-05	0.0312109	0.0134557	0.0339879	23.3219	46112.6	106960	116476	-66.6781	0.0000000E+000	0.0000000E+000	0.0000000E+000	66.6781	0.0000000E+000	0.0000000E+000	0.0000000E+000	-66.6781	0.0000000E+000	0.0000000E+000	0.0000000E+000	-23.3219	0.0000000E+000	0.0000000E+000	0.0000000E+000	23.3219	2.31954	66.6781	-5.64988e-07	-9.55232e-07	36078.5
21.5517	33.0365	8.7186	34.1675	-14.7838	13.2713	0.185637	-0.00554659	847.015	55.1515	1	11	0.00461199	0.000134982	0	-3.76267e-05	0.0282987	0.00746826	0.0292675	14.7838	55151.5	208980	216135	-75.2162	0.0000000E+000	0.0000000E+000	0.0000000E+000	75.2162	0.0000000E+000	0.0000000E+000	0.0000000E+000	-75.2162	0.0000000E+000	0.0000000E+000	0.0000000E+000	-14.7838	0.0000000E+000	0.0000000E+000	0.0000000E+000	14.7838	3.78919	75.2162	-2.08457e-07	-1.02965e-06	33468.6
10.0032	36.1448	5.60647	36.577	-8.81696	14.2177	0.185653	-0.00464673	2837.86	66.6735	1	11	0.00461434	0.000126154	0	-3.97127e-05	0.0270165	0.00419056	0.0273395	8.81696	66673.5	429843	434983	-81.183	0.0000000E+000	0.0000000E+000	0.0000000E+000	81.183	0.0000000E+000	0.0000000E+000	0.0000000E+000	-81.183	0.0000000E+000	0.0000000E+000	0.0000000E+000	-8.81696	0.0000000E+000	0.0000000E+000	0.0000000E+000	8.81696	6.44699	81.183	-1.42748e-06	-8.62676e-07	39953.4
4.63925	37.5873	3.75444	37.7743	-5.70412	15.0773	0.185653	-0.00438408	9137.5	90.266	1	11	0.00462213	0.000122362	0	-4.15905e-05	0.0263419	0.00263119	0.026473	5.70412	90265.9	903691	908188	-84.2959	0.0000000E+000	0.0000000E+000	0.0000000E+000	84.2959	0.0000000E+000	0.0000000E+000	0.0000000E+000	-84.2959	0.0000000E+000	0.0000000E+000	0.0000000E+000	-5.70412	0.0000000E+000	0.0000000E+000	0.0000000E+000	5.70412	10.0114	84.2959	-2.14111e-06	-8.13919e-07	42347.2
2.15577	38.6562	3.12296	38.7821	-4.61879	16.8028	0.185661	-0.0032981	23640.2	153.293	1	11	0.00462405	0.000119231	0	-3.98377e-05	0.0257013	0.00207636	0.0257851	4.61879	153293	1.89747e+06	1.90365e+06	-85.3812	0.0000000E+000	0.0000000E+000	0.0000000E+000	85.3812	0.0000000E+000	0.0000000E+000	0.0000000E+000	-85.3812	0.0000000E+000	0.0000000E+000	0.0000000E+000	-4.61879	0.0000000E+000	0.0000000E+000	0.0000000E+000	4.61879	12.378	85.3812	1.19501e-06	-6.12327e-07	56293.4
1.00006	39.7947	3.29213	39.9307	-4.72918	21.1483	0.185672	-0.00239625	48341	328.591	1	12	0.00462009	0.000115703	0	-4.79055e-05	0.0249581	0.00206473	0.0250434	4.72918	328591	3.97196e+06	3.98553e+06	-85.2708	0.0000000E+000	0.0000000E+000	0.0000000E+000	85.2708	0.0000000E+000	0.0000000E+000	0.0000000E+000	-85.2708	0.0000000E+000	0.0000000E+000	0.0000000E+000	-4.72918	0.0000000E+000	0.0000000E+000	0.0000000E+000	4.72918	12.0879	85.2708	-5.52507e-06	-4.44918e-07	77484.5
0.464091	41.5442	3.90242	41.7271	-5.36628	28.8336	0.18566	-0.0026908	87878.6	768.626	1	12	0.0046249	0.000110837	0	-5.73372e-05	0.0238602	0.00224129	0.0239652	5.36628	768626	8.1826e+06	8.21862e+06	-84.6337	0.0000000E+000	0.0000000E+000	0.0000000E+000	84.6337	0.0000000E+000	0.0000000E+000	0.0000000E+000	-84.6337	0.0000000E+000	0.0000000E+000	0.0000000E+000	-5.36628	0.0000000E+000	0.0000000E+000	0.0000000E+000	5.36628	10.6458	84.6337	-3.41749e-06	-4.99573e-07	68998
0.215268	43.5081	4.38589	43.7286	-5.75633	45.3118	0.185663	-0.00237453	168571	1695.77	1	12	0.00462104	0.000105675	0	-4.75338e-05	0.022753	0.00229364	0.0228683	5.75633	1.69577e+06	1.68221e+07	1.69073e+07	-84.2437	0.0000000E+000	0.0000000E+000	0.0000000E+000	84.2437	0.0000000E+000	0.0000000E+000	0.0000000E+000	-84.2437	0.0000000E+000	0.0000000E+000	0.0000000E+000	-5.75633	0.0000000E+000	0.0000000E+000	0.0000000E+000	5.75633	9.92002	84.2437	7.58676e-06	-4.40862e-07	78189.3
0.0999041	45.4874	5.01791	45.7634	-6.29508	80.7174	0.185661	-0.000803459	317478	3817.01	1	12	0.00462123	0.000100981	0	-3.4884e-05	0.0217198	0.002396	0.0218515	6.29508	3.81701e+06	3.46013e+07	3.48112e+07	-83.7049	0.0000000E+000	0.0000000E+000	0.0000000E+000	83.7049	0.0000000E+000	0.0000000E+000	0.0000000E+000	-83.7049	0.0000000E+000	0.0000000E+000	0.0000000E+000	-6.29508	0.0000000E+000	0.0000000E+000	0.0000000E+000	6.29508	9.06502	83.7049	3.10107e-06	-1.49171e-07	231078
0.0464052	47.2057	7.02069	47.7249	-8.45933	156.954	0.18566	7.10399e-05	488510	10571.7	1	12	0.00462142	9.68346e-05	0	-9.38015e-05	0.0207255	0.0030824	0.0209534	8.45933	1.05717e+07	7.10817e+07	7.18635e+07	-81.5407	0.0000000E+000	0.0000000E+000	0.0000000E+000	81.5407	0.0000000E+000	0.0000000E+000	0.0000000E+000	-81.5407	0.0000000E+000	0.0000000E+000	0.0000000E+000	-8.45933	0.0000000E+000	0.0000000E+000	0.0000000E+000	8.45933	6.7238	81.5407	-4.67385e-05	1.31893e-08	2.61346e+06
0.0215268	49.8156	11.1609	51.0506	-12.6282	321.183	0.185661	-0.000649285	662433	31662	1	12	0.00462201	9.05379e-05	0	-0.000288617	0.0191146	0.0042825	0.0195884	12.6282	3.1662e+07	1.4132e+08	1.44824e+08	-77.3718	0.0000000E+000	0.0000000E+000	0.0000000E+000	77.3718	0.0000000E+000	0.0000000E+000	0.0000000E+000	-77.3718	0.0000000E+000	0.0000000E+000	0.0000000E+000	-12.6282	0.0000000E+000	0.0000000E+000	0.0000000E+000	12.6282	4.46341	77.3718	-0.000107504	-1.20547e-07	285947
0.0100092	53.679	19.6672	57.1684	-20.1221	674.398	0.185652	-0.000809942	808499	95686.8	1	12	0.00462189	8.08468e-05	0	-0.000285056	0.0164245	0.00601769	0.0174922	20.1221	9.56868e+07	2.61164e+08	2.78141e+08	-69.8779	0.0000000E+000	0.0000000E+000	0.0000000E+000	69.8779	0.0000000E+000	0.0000000E+000	0.0000000E+000	-69.8779	0.0000000E+000	0.0000000E+000	0.0000000E+000	-20.1221	0.0000000E+000	0.0000000E+000	0.0000000E+000	20.1221	2.72937	69.8779	6.91775e-05	-1.50367e-07	229217