File: txt/17384_R279_UA648_SOC00_C03.mpt
EC-Lab ASCII FILE
Nb header lines : 63

Potentio Electrochemical Impedance Spectroscopy

Run on channel : 3 (SN 65921)
User :
CE vs. WE compliance from -10 V to 10 V
Electrode connection : standard
Potential control : Ewe
Ewe ctrl range : min = -10.00 V, max = 10.00 V
Safety Limits :
	Do not start on E overload
Acquisition started on : 09/10/2025 16:53:35.972
Loaded Setting File :  C:\Users\Celltest\OneDrive - store-dot.com\Documents\EC-Lab\Data\Charmaine\R279\17382_C01.mpr
Saved on :
	File : 17384_C03.mpr
	Directory : C:\Users\Celltest\OneDrive - store-dot.com\Documents\EC-Lab\Data\Charmaine\R279\
	Host : 169.254.61.224
Device : VMP-3e (SN .003165)
Address : USB
EC-LAB for windows v11.62 (software)
Internet server v27.00 (firmware)
Command interpretor v12.03 (firmware)
Electrode material :
Initial state :
Electrolyte :
Comments :
Electrode surface area : 0.001 cm²
Characteristic mass : 0.001 g
Equivalent Weight : 0.000 g/eq.
Density : 0.000 g/cm3
Volume (V) : 0.001 cm³
Cycle Definition : Charge/Discharge alternance
Mode                Single sine
E (V)               0.0000
vs.                 Eoc
tE (h:m:s)          0:00:0.0000
record              0
dI                  0.000
unit dI             mA
dt (s)              0.000
fi                  100.000
unit fi             kHz
ff                  10.000
unit ff             mHz
Nd                  6
Points              per decade
spacing             Logarithmic
Va (mV)             5.0
pw                  0.10
Na                  2
corr                0
E range min (V)     -10.000
E range max (V)     10.000
I Range             Auto
Bandwidth           5
nc cycles           0
goto Ns'            0
nr cycles           0
inc. cycle          0

freq/Hz	Re(Z)/Ohm	-Im(Z)/Ohm	|Z|/Ohm	Phase(Z)/deg	time/s	<Ewe>/V	<I>/mA	Cs/µF	Cp/µF	cycle number	I Range	|Ewe|/V	|I|/A	Ns	(Q-Qo)/mA.h	Re(Y)/Ohm-1	Im(Y)/Ohm-1	|Y|/Ohm-1	Phase(Y)/deg	Re(C)/nF	Im(C)/nF	|C|/nF	Phase(C)/deg	Re(M)	Im(M)	|M|	Phase(M)/deg	Re(Permittivity)	Im(Permittivity)	|Permittivity|	Phase(Permittivity)/deg	Re(Resistivity)/Ohm.cm	Im(Resistivity)/Ohm.cm	|Resistivity|/Ohm.cm	Phase(Resistivity)/deg	Re(Conductivity)/mS/cm	Im(Conductivity)/mS/cm	|Conductivity|/mS/cm	Phase(Conductivity)/deg	Tan(Delta)	Loss Angle(Delta)/deg	dq/mA.h	Pwe/W	Rwe/Ohm
100004	2.46808	0.8604	2.61376	-19.2191	2.22748	0.187932	0.0362056	1.84971	0.200435	1	9	0.00491555	0.00188065	0	2.41176e-06	0.361268	0.125942	0.382591	19.2191	200.435	574.955	608.89	-70.7809	0.0000000E+000	0.0000000E+000	0.0000000E+000	70.7809	0.0000000E+000	0.0000000E+000	0.0000000E+000	-70.7809	0.0000000E+000	0.0000000E+000	0.0000000E+000	-19.2191	0.0000000E+000	0.0000000E+000	0.0000000E+000	19.2191	2.86853	70.7809	2.41176e-06	6.8042e-06	5190.69
46420.4	2.88188	1.01736	3.05619	-19.4439	3.1015	0.187933	0.0381449	3.37007	0.373443	1	9	0.00536835	0.00175655	0	6.75286e-06	0.308544	0.108921	0.327205	19.4439	373.443	1057.86	1121.84	-70.5561	0.0000000E+000	0.0000000E+000	0.0000000E+000	70.5561	0.0000000E+000	0.0000000E+000	0.0000000E+000	-70.5561	0.0000000E+000	0.0000000E+000	0.0000000E+000	-19.4439	0.0000000E+000	0.0000000E+000	0.0000000E+000	19.4439	2.83272	70.5561	7.67422e-08	7.16867e-06	4926.81
21544.7	3.37979	1.26986	3.61048	-20.5923	3.97548	0.187954	0.0399536	5.81733	0.719626	1	9	0.00533963	0.00147893	0	1.75141e-05	0.259275	0.0974152	0.276972	20.5923	719.626	1915.32	2046.05	-69.4077	0.0000000E+000	0.0000000E+000	0.0000000E+000	69.4077	0.0000000E+000	0.0000000E+000	0.0000000E+000	-69.4077	0.0000000E+000	0.0000000E+000	0.0000000E+000	-20.5923	0.0000000E+000	0.0000000E+000	0.0000000E+000	20.5923	2.66155	69.4077	3.67753e-06	7.50946e-06	4704.32
10002.2	3.93145	1.60937	4.2481	-22.2622	5.16249	0.187958	-0.0124551	9.88705	1.41903	1	10	0.00487596	0.0011478	0	2.42309e-05	0.217853	0.08918	0.235399	22.2622	1419.03	3466.46	3745.66	-67.7378	0.0000000E+000	0.0000000E+000	0.0000000E+000	67.7378	0.0000000E+000	0.0000000E+000	0.0000000E+000	-67.7378	0.0000000E+000	0.0000000E+000	0.0000000E+000	-22.2622	0.0000000E+000	0.0000000E+000	0.0000000E+000	22.2622	2.44284	67.7378	6.15109e-07	-2.34103e-06	15090.8
4641.49	4.68198	2.15285	5.15322	-24.6937	6.41169	0.187956	-0.00430002	15.9276	2.77983	1	10	0.00511044	0.000991699	0	2.09463e-05	0.176308	0.0810692	0.194053	24.6937	2779.84	6045.54	6654.02	-65.3063	0.0000000E+000	0.0000000E+000	0.0000000E+000	65.3063	0.0000000E+000	0.0000000E+000	0.0000000E+000	-65.3063	0.0000000E+000	0.0000000E+000	0.0000000E+000	-24.6937	0.0000000E+000	0.0000000E+000	0.0000000E+000	24.6937	2.17478	65.3063	-1.72142e-06	-8.08214e-07	43710.4
2155.69	5.67306	2.96194	6.39974	-27.5694	7.34468	0.187961	-0.0044324	24.9263	5.33931	1	10	0.00517723	0.000808974	0	2.08114e-05	0.138514	0.0723189	0.156256	27.5694	5339.31	10226.5	11536.4	-62.4306	0.0000000E+000	0.0000000E+000	0.0000000E+000	62.4306	0.0000000E+000	0.0000000E+000	0.0000000E+000	-62.4306	0.0000000E+000	0.0000000E+000	0.0000000E+000	-27.5694	0.0000000E+000	0.0000000E+000	0.0000000E+000	27.5694	1.91532	62.4306	-2.00299e-07	-8.3312e-07	42406.2
1000.32	7.07416	4.26573	8.26076	-31.0901	8.28068	0.187955	-0.00419935	37.2982	9.94568	1	10	0.00499397	0.000604541	0	1.98666e-05	0.103666	0.0625106	0.121054	31.0901	9945.68	16493.6	19260.2	-58.9099	0.0000000E+000	0.0000000E+000	0.0000000E+000	58.9099	0.0000000E+000	0.0000000E+000	0.0000000E+000	-58.9099	0.0000000E+000	0.0000000E+000	0.0000000E+000	-31.0901	0.0000000E+000	0.0000000E+000	0.0000000E+000	31.0901	1.65837	58.9099	-1.25849e-07	-7.89291e-07	44758.2
463.961	9.22527	6.16199	11.094	-33.7408	9.21522	0.187947	-0.00399986	55.6695	17.1746	1	10	0.00489196	0.000440957	0	1.89473e-05	0.074956	0.0500667	0.0901392	33.7408	17174.6	25712.6	30920.9	-56.2592	0.0000000E+000	0.0000000E+000	0.0000000E+000	56.2592	0.0000000E+000	0.0000000E+000	0.0000000E+000	-56.2592	0.0000000E+000	0.0000000E+000	0.0000000E+000	-33.7408	0.0000000E+000	0.0000000E+000	0.0000000E+000	33.7408	1.49712	56.2592	-3.74524e-07	-7.51764e-07	46988.4
215.345	12.8271	8.56579	15.4242	-33.7346	10.1494	0.187948	-0.00387122	86.2818	26.6102	1	10	0.00484437	0.000314076	0	1.8464e-05	0.0539165	0.0360049	0.0648331	33.7346	26610.2	39848.1	47916.3	-56.2654	0.0000000E+000	0.0000000E+000	0.0000000E+000	56.2654	0.0000000E+000	0.0000000E+000	0.0000000E+000	-56.2654	0.0000000E+000	0.0000000E+000	0.0000000E+000	-33.7346	0.0000000E+000	0.0000000E+000	0.0000000E+000	33.7346	1.49748	56.2654	-2.59717e-07	-7.27588e-07	48550
100.032	18.4079	10.4383	21.1615	-29.5556	11.0807	0.18795	-0.00380783	152.423	37.0867	1	10	0.00482752	0.000228127	0	1.72441e-05	0.0411066	0.0233097	0.0472556	29.5556	37086.7	65402.2	75185.6	-60.4444	0.0000000E+000	0.0000000E+000	0.0000000E+000	60.4444	0.0000000E+000	0.0000000E+000	0.0000000E+000	-60.4444	0.0000000E+000	0.0000000E+000	0.0000000E+000	-29.5556	0.0000000E+000	0.0000000E+000	0.0000000E+000	29.5556	1.7635	60.4444	-6.44968e-07	-7.15683e-07	49358.9
46.4415	25.0593	10.1685	27.0438	-22.0863	12.2735	0.187967	-0.00735518	337.02	47.6471	1	11	0.00482784	0.000178519	0	1.53294e-05	0.0342636	0.0139035	0.0369771	22.0863	47647.1	117421	126720	-67.9137	0.0000000E+000	0.0000000E+000	0.0000000E+000	67.9137	0.0000000E+000	0.0000000E+000	0.0000000E+000	-67.9137	0.0000000E+000	0.0000000E+000	0.0000000E+000	-22.0863	0.0000000E+000	0.0000000E+000	0.0000000E+000	22.0863	2.4644	67.9137	-8.42205e-07	-1.38253e-06	25555.8
21.5517	30.3018	7.53601	31.2248	-13.966	13.1583	0.187951	-0.00781627	979.934	57.0795	1	11	0.00482852	0.000154637	0	1.33916e-05	0.0310791	0.00772933	0.0320258	13.966	57079.5	229513	236504	-76.034	0.0000000E+000	0.0000000E+000	0.0000000E+000	76.034	0.0000000E+000	0.0000000E+000	0.0000000E+000	-76.034	0.0000000E+000	0.0000000E+000	0.0000000E+000	-13.966	0.0000000E+000	0.0000000E+000	0.0000000E+000	13.966	4.02093	76.034	-9.28487e-07	-1.46908e-06	24046.2
10.0032	32.9171	4.80684	33.2662	-8.3081	14.1037	0.187966	-0.00713573	3309.95	69.1089	1	11	0.00482423	0.000145019	0	1.26716e-05	0.029745	0.00434363	0.0300605	8.3081	69108.8	473256	478275	-81.6919	0.0000000E+000	0.0000000E+000	0.0000000E+000	81.6919	0.0000000E+000	0.0000000E+000	0.0000000E+000	-81.6919	0.0000000E+000	0.0000000E+000	0.0000000E+000	-8.3081	0.0000000E+000	0.0000000E+000	0.0000000E+000	8.3081	6.84797	81.6919	-4.8596e-08	-1.34128e-06	26341.6
4.63925	34.1725	3.15147	34.3175	-5.26904	14.9633	0.187968	-0.00694182	10885.8	91.8021	1	11	0.00482723	0.000140664	0	1.06751e-05	0.0290165	0.00267597	0.0291396	5.26904	91802.2	995445	999669	-84.731	0.0000000E+000	0.0000000E+000	0.0000000E+000	84.731	0.0000000E+000	0.0000000E+000	0.0000000E+000	-84.731	0.0000000E+000	0.0000000E+000	0.0000000E+000	-5.26904	0.0000000E+000	0.0000000E+000	0.0000000E+000	5.26904	10.8434	84.731	4.65308e-07	-1.30484e-06	27077.6
2.15577	34.9398	2.5044	35.0294	-4.09981	16.6888	0.18797	-0.0055777	29479.2	150.68	1	11	0.00482517	0.000137746	0	7.00403e-06	0.0284744	0.00204097	0.0285474	4.09981	150680	2.10219e+06	2.10759e+06	-85.9002	0.0000000E+000	0.0000000E+000	0.0000000E+000	85.9002	0.0000000E+000	0.0000000E+000	0.0000000E+000	-85.9002	0.0000000E+000	0.0000000E+000	0.0000000E+000	-4.09981	0.0000000E+000	0.0000000E+000	0.0000000E+000	4.09981	13.9514	85.9002	-3.66417e-06	-1.04844e-06	33700.3
1.00006	35.8715	2.61986	35.967	-4.17716	21.0341	0.187978	-0.00545569	60745.5	322.301	1	12	0.00483028	0.000134298	0	-1.84861e-06	0.0277294	0.00202521	0.0278033	4.17716	322301	4.41299e+06	4.42474e+06	-85.8228	0.0000000E+000	0.0000000E+000	0.0000000E+000	85.8228	0.0000000E+000	0.0000000E+000	0.0000000E+000	-85.8228	0.0000000E+000	0.0000000E+000	0.0000000E+000	-4.17716	0.0000000E+000	0.0000000E+000	0.0000000E+000	4.17716	13.6921	85.8228	-2.15065e-06	-1.02555e-06	34455.5
0.464091	37.0373	3.07344	37.1646	-4.74366	28.7188	0.187975	-0.00496589	111582	763.102	1	12	0.00482398	0.0001298	0	9.74956e-07	0.0268152	0.00222518	0.0269073	4.74366	763103	9.19597e+06	9.22758e+06	-85.2563	0.0000000E+000	0.0000000E+000	0.0000000E+000	85.2563	0.0000000E+000	0.0000000E+000	0.0000000E+000	-85.2563	0.0000000E+000	0.0000000E+000	0.0000000E+000	-4.74366	0.0000000E+000	0.0000000E+000	0.0000000E+000	4.74366	12.0508	85.2563	2.14382e-06	-9.3346e-07	37853.2
0.215268	38.6844	3.70198	38.8611	-5.46639	45.1987	0.18798	-0.00297826	199713	1812.36	1	12	0.00483243	0.000124351	0	-1.16462e-05	0.0256156	0.00245134	0.0257327	5.46639	1.81236e+06	1.89385e+07	1.9025e+07	-84.5336	0.0000000E+000	0.0000000E+000	0.0000000E+000	84.5336	0.0000000E+000	0.0000000E+000	0.0000000E+000	-84.5336	0.0000000E+000	0.0000000E+000	0.0000000E+000	-5.46639	0.0000000E+000	0.0000000E+000	0.0000000E+000	5.46639	10.4496	84.5336	-1.14153e-05	-5.59856e-07	63117.4
0.0999041	40.278	4.55432	40.5347	-6.45116	80.6041	0.187993	-0.00182464	349794	4415.78	1	12	0.00483087	0.000119179	0	-8.39515e-05	0.024514	0.00277186	0.0246702	6.45116	4.41578e+06	3.90527e+07	3.93016e+07	-83.5488	0.0000000E+000	0.0000000E+000	0.0000000E+000	83.5488	0.0000000E+000	0.0000000E+000	0.0000000E+000	-83.5488	0.0000000E+000	0.0000000E+000	0.0000000E+000	-6.45116	0.0000000E+000	0.0000000E+000	0.0000000E+000	6.45116	8.8439	83.5488	-4.50021e-05	-3.43019e-07	103030
0.0464052	42.0935	6.65416	42.6162	-8.98301	156.84	0.187993	-0.00230141	515419	12566	1	12	0.00482832	0.000113298	0	-0.000197495	0.0231774	0.0036639	0.0234653	8.98301	1.2566e+07	7.94912e+07	8.04783e+07	-81.017	0.0000000E+000	0.0000000E+000	0.0000000E+000	81.017	0.0000000E+000	0.0000000E+000	0.0000000E+000	-81.017	0.0000000E+000	0.0000000E+000	0.0000000E+000	-8.98301	0.0000000E+000	0.0000000E+000	0.0000000E+000	8.98301	6.32589	81.017	-5.51752e-05	-4.32649e-07	81685.7
0.0215268	44.1868	11.2902	45.6064	-14.333	321.07	0.187988	-0.00186548	654848	40131.9	1	12	0.004832	0.00010595	0	-0.000146678	0.0212442	0.00542811	0.0219267	14.333	4.01319e+07	1.57066e+08	1.62112e+08	-75.667	0.0000000E+000	0.0000000E+000	0.0000000E+000	75.667	0.0000000E+000	0.0000000E+000	0.0000000E+000	-75.667	0.0000000E+000	0.0000000E+000	0.0000000E+000	-14.333	0.0000000E+000	0.0000000E+000	0.0000000E+000	14.333	3.91375	75.667	6.55874e-05	-3.50688e-07	100771
0.0100092	48.7573	19.2268	52.4113	-21.5212	674.284	0.187994	-0.000577574	827017	111296	1	12	0.00483155	9.21853e-05	0	0.000144568	0.0177496	0.00699935	0.0190799	21.5212	1.11296e+08	2.82236e+08	3.03387e+08	-68.4788	0.0000000E+000	0.0000000E+000	0.0000000E+000	68.4788	0.0000000E+000	0.0000000E+000	0.0000000E+000	-68.4788	0.0000000E+000	0.0000000E+000	0.0000000E+000	-21.5212	0.0000000E+000	0.0000000E+000	0.0000000E+000	21.5212	2.5359	68.4788	0.000145363	-1.0858e-07	325488