File: txt/17386_C02.mpt
EC-Lab ASCII FILE
Nb header lines : 64

Potentio Electrochemical Impedance Spectroscopy

Run on channel : 2 (SN 66139)
User :
CE vs. WE compliance from -10 V to 10 V
Electrode connection : standard
Potential control : Ewe
Ewe ctrl range : min = -10.00 V, max = 10.00 V
Safety Limits :
	Do not start on E overload
Acquisition started on : 09/11/2025 15:38:18.426
Technique started on : 09/11/2025 15:38:20.492
Loaded Setting File :  C:\Users\Celltest\OneDrive - store-dot.com\Documents\EC-Lab\Data\Charmaine\R279\17382_C01.mpr
Saved on :
	File : 17386_C02.mpr
	Directory : C:\Users\Celltest\OneDrive - store-dot.com\Documents\EC-Lab\Data\Charmaine\R279\
	Host : 169.254.61.224
Device : VMP-3e (SN .003165)
Address : USB
EC-LAB for windows v11.62 (software)
Internet server v27.00 (firmware)
Command interpretor v12.03 (firmware)
Electrode material :
Initial state :
Electrolyte :
Comments :
Electrode surface area : 0.001 cm²
Characteristic mass : 0.001 g
Equivalent Weight : 0.000 g/eq.
Density : 0.000 g/cm3
Volume (V) : 0.001 cm³
Cycle Definition : Charge/Discharge alternance
Mode                Single sine
E (V)               0.0000
vs.                 Eoc
tE (h:m:s)          0:00:0.0000
record              0
dI                  0.000
unit dI             mA
dt (s)              0.000
fi                  100.000
unit fi             kHz
ff                  10.000
unit ff             mHz
Nd                  6
Points              per decade
spacing             Logarithmic
Va (mV)             5.0
pw                  0.10
Na                  2
corr                0
E range min (V)     -10.000
E range max (V)     10.000
I Range             Auto
Bandwidth           5
nc cycles           0
goto Ns'            0
nr cycles           0
inc. cycle          0

freq/Hz	Re(Z)/Ohm	-Im(Z)/Ohm	|Z|/Ohm	Phase(Z)/deg	time/s	<Ewe>/V	<I>/mA	Cs/µF	Cp/µF	cycle number	I Range	|Ewe|/V	|I|/A	Ns	(Q-Qo)/mA.h	Re(Y)/Ohm-1	Im(Y)/Ohm-1	|Y|/Ohm-1	Phase(Y)/deg	Re(C)/nF	Im(C)/nF	|C|/nF	Phase(C)/deg	Re(M)	Im(M)	|M|	Phase(M)/deg	Re(Permittivity)	Im(Permittivity)	|Permittivity|	Phase(Permittivity)/deg	Re(Resistivity)/Ohm.cm	Im(Resistivity)/Ohm.cm	|Resistivity|/Ohm.cm	Phase(Resistivity)/deg	Re(Conductivity)/mS/cm	Im(Conductivity)/mS/cm	|Conductivity|/mS/cm	Phase(Conductivity)/deg	Tan(Delta)	Loss Angle(Delta)/deg	dq/mA.h	Pwe/W	Rwe/Ohm
100004	1.97374	0.784546	2.12395	-21.6774	2.06649	0.188096	-0.0188814	2.02855	0.276779	1	9	0.00469084	0.00220855	0	-8.78215e-06	0.437523	0.173912	0.470821	21.6774	276.779	696.314	749.307	-68.3226	0.0000000E+000	0.0000000E+000	0.0000000E+000	68.3226	0.0000000E+000	0.0000000E+000	0.0000000E+000	-68.3226	0.0000000E+000	0.0000000E+000	0.0000000E+000	-21.6774	0.0000000E+000	0.0000000E+000	0.0000000E+000	21.6774	2.51578	68.3226	-8.78215e-06	-3.55152e-06	9961.99
46420.4	2.35929	0.94509	2.54154	-21.8302	3.2245	0.188088	-0.0227736	3.62776	0.501637	1	9	0.00511902	0.00201414	0	-1.06304e-05	0.365247	0.146311	0.393462	21.8302	501.637	1252.27	1349.01	-68.1698	0.0000000E+000	0.0000000E+000	0.0000000E+000	68.1698	0.0000000E+000	0.0000000E+000	0.0000000E+000	-68.1698	0.0000000E+000	0.0000000E+000	0.0000000E+000	-21.8302	0.0000000E+000	0.0000000E+000	0.0000000E+000	21.8302	2.49636	68.1698	-5.80194e-06	-4.28345e-06	8259.04
21544.7	2.80046	1.22021	3.05475	-23.5435	4.09848	0.188081	-0.022457	6.05406	0.965968	1	9	0.00512498	0.00167771	0	-1.26303e-05	0.300109	0.130762	0.327359	23.5435	965.968	2216.97	2418.27	-66.4565	0.0000000E+000	0.0000000E+000	0.0000000E+000	66.4565	0.0000000E+000	0.0000000E+000	0.0000000E+000	-66.4565	0.0000000E+000	0.0000000E+000	0.0000000E+000	-23.5435	0.0000000E+000	0.0000000E+000	0.0000000E+000	23.5435	2.29507	66.4565	-2.32943e-06	-4.22374e-06	8375.15
10002.2	3.3386	1.61191	3.70736	-25.7718	4.69149	0.188079	-0.0244124	9.87146	1.86611	1	9	0.00469504	0.00126641	0	-1.56063e-05	0.242904	0.117277	0.269734	25.7718	1866.11	3865.08	4291.99	-64.2282	0.0000000E+000	0.0000000E+000	0.0000000E+000	64.2282	0.0000000E+000	0.0000000E+000	0.0000000E+000	-64.2282	0.0000000E+000	0.0000000E+000	0.0000000E+000	-25.7718	0.0000000E+000	0.0000000E+000	0.0000000E+000	25.7718	2.0712	64.2282	-1.47002e-06	-4.59146e-06	7704.22
4641.49	4.10468	2.22167	4.66736	-28.4245	5.74871	0.188098	-0.00890116	15.4342	3.49704	1	10	0.00466825	0.00100019	0	-1.96233e-05	0.188425	0.101985	0.214254	28.4245	3497.04	6461.01	7346.7	-61.5755	0.0000000E+000	0.0000000E+000	0.0000000E+000	61.5755	0.0000000E+000	0.0000000E+000	0.0000000E+000	-61.5755	0.0000000E+000	0.0000000E+000	0.0000000E+000	-28.4245	0.0000000E+000	0.0000000E+000	0.0000000E+000	28.4245	1.84757	61.5755	-3.06177e-07	-1.67429e-06	21131.8
2155.69	5.14645	3.13356	6.02538	-31.3363	6.90471	0.188101	-0.00850256	23.5611	6.37241	1	10	0.00499422	0.000828864	0	-2.34102e-05	0.141755	0.0863118	0.165965	31.3363	6372.41	10465.8	12253.2	-58.6637	0.0000000E+000	0.0000000E+000	0.0000000E+000	58.6637	0.0000000E+000	0.0000000E+000	0.0000000E+000	-58.6637	0.0000000E+000	0.0000000E+000	0.0000000E+000	-31.3363	0.0000000E+000	0.0000000E+000	0.0000000E+000	31.3363	1.64236	58.6637	-2.19576e-06	-1.59934e-06	22122.8
1000.32	6.66183	4.50818	8.04386	-34.0869	7.84067	0.188096	-0.00880804	35.2923	11.0854	1	10	0.00487106	0.000605562	0	-2.53275e-05	0.102959	0.0696742	0.124318	34.0869	11085.4	16381.2	19779.6	-55.9131	0.0000000E+000	0.0000000E+000	0.0000000E+000	55.9131	0.0000000E+000	0.0000000E+000	0.0000000E+000	-55.9131	0.0000000E+000	0.0000000E+000	0.0000000E+000	-34.0869	0.0000000E+000	0.0000000E+000	0.0000000E+000	34.0869	1.47772	55.9131	-1.10132e-06	-1.65675e-06	21355
463.961	9.05002	6.44401	11.1098	-35.4525	8.77521	0.188111	-0.00814868	53.2332	17.9094	1	10	0.00481818	0.000433686	0	-2.7258e-05	0.0733222	0.0522086	0.0900105	35.4525	17909.4	25152.1	30876.8	-54.5475	0.0000000E+000	0.0000000E+000	0.0000000E+000	54.5475	0.0000000E+000	0.0000000E+000	0.0000000E+000	-54.5475	0.0000000E+000	0.0000000E+000	0.0000000E+000	-35.4525	0.0000000E+000	0.0000000E+000	0.0000000E+000	35.4525	1.40441	54.5475	-1.22983e-06	-1.53285e-06	23084.8
215.345	12.9034	8.68597	15.5545	-33.9467	9.70944	0.1881	-0.00921223	85.0879	26.5333	1	10	0.00479518	0.000308283	0	-2.95018e-05	0.0533323	0.0359009	0.06429	33.9467	26533.3	39416.3	47514.9	-56.0533	0.0000000E+000	0.0000000E+000	0.0000000E+000	56.0533	0.0000000E+000	0.0000000E+000	0.0000000E+000	-56.0533	0.0000000E+000	0.0000000E+000	0.0000000E+000	-33.9467	0.0000000E+000	0.0000000E+000	0.0000000E+000	33.9467	1.48554	56.0533	-9.72498e-07	-1.73282e-06	20418.5
100.032	18.5445	10.1026	21.1178	-28.5804	10.6407	0.188098	-0.00859944	157.488	36.0426	1	10	0.00478663	0.000226663	0	-3.16518e-05	0.0415832	0.0226535	0.0473534	28.5804	36042.6	66160.6	75341.2	-61.4196	0.0000000E+000	0.0000000E+000	0.0000000E+000	61.4196	0.0000000E+000	0.0000000E+000	0.0000000E+000	-61.4196	0.0000000E+000	0.0000000E+000	0.0000000E+000	-28.5804	0.0000000E+000	0.0000000E+000	0.0000000E+000	28.5804	1.83562	61.4196	-1.01677e-06	-1.61754e-06	21873.3
46.4415	24.849	9.13359	26.4744	-20.1816	11.8336	0.188128	-0.00740182	375.208	44.6584	1	11	0.00479051	0.000180949	0	-3.38996e-05	0.0354533	0.0130313	0.0377724	20.1816	44658.4	121498	129446	-69.8184	0.0000000E+000	0.0000000E+000	0.0000000E+000	69.8184	0.0000000E+000	0.0000000E+000	0.0000000E+000	-69.8184	0.0000000E+000	0.0000000E+000	0.0000000E+000	-20.1816	0.0000000E+000	0.0000000E+000	0.0000000E+000	20.1816	2.72061	69.8184	-1.04329e-06	-1.39249e-06	25416.4
21.5517	29.0837	6.3408	29.7669	-12.2991	12.7193	0.188121	-0.00768109	1164.65	52.8462	1	11	0.00478423	0.000160723	0	-3.59738e-05	0.0328233	0.00715609	0.0335943	12.2991	52846.2	242393	248087	-77.7009	0.0000000E+000	0.0000000E+000	0.0000000E+000	77.7009	0.0000000E+000	0.0000000E+000	0.0000000E+000	-77.7009	0.0000000E+000	0.0000000E+000	0.0000000E+000	-12.2991	0.0000000E+000	0.0000000E+000	0.0000000E+000	12.2991	4.58676	77.7009	-1.2694e-06	-1.44497e-06	24491.4
10.0032	31.107	3.98026	31.3606	-7.29158	13.6657	0.188135	-0.0069421	3997.33	64.3906	1	11	0.00478828	0.000152684	0	-3.79436e-05	0.0316292	0.00404707	0.0318871	7.29158	64390.6	503234	507337	-82.7084	0.0000000E+000	0.0000000E+000	0.0000000E+000	82.7084	0.0000000E+000	0.0000000E+000	0.0000000E+000	-82.7084	0.0000000E+000	0.0000000E+000	0.0000000E+000	-7.29158	0.0000000E+000	0.0000000E+000	0.0000000E+000	7.29158	7.81533	82.7084	-9.35377e-07	-1.30605e-06	27100.5
4.63925	32.0536	2.75379	32.1717	-4.91035	14.5253	0.188138	-0.00597064	12457.8	91.2759	1	11	0.0047865	0.00014878	0	-3.84974e-05	0.0309692	0.00266063	0.0310832	4.91035	91275.9	1.06243e+06	1.06635e+06	-85.0897	0.0000000E+000	0.0000000E+000	0.0000000E+000	85.0897	0.0000000E+000	0.0000000E+000	0.0000000E+000	-85.0897	0.0000000E+000	0.0000000E+000	0.0000000E+000	-4.91035	0.0000000E+000	0.0000000E+000	0.0000000E+000	4.91035	11.6398	85.0897	-8.63405e-07	-1.1233e-06	31510.5
2.15577	32.8552	2.42888	32.9449	-4.22801	16.2508	0.188151	-0.00511019	30395.6	165.215	1	11	0.0047884	0.000145346	0	-4.31806e-05	0.0302711	0.00223785	0.0303537	4.22801	165215	2.23484e+06	2.24094e+06	-85.772	0.0000000E+000	0.0000000E+000	0.0000000E+000	85.772	0.0000000E+000	0.0000000E+000	0.0000000E+000	-85.772	0.0000000E+000	0.0000000E+000	0.0000000E+000	-4.22801	0.0000000E+000	0.0000000E+000	0.0000000E+000	4.22801	13.5269	85.772	-1.1345e-06	-9.61485e-07	36818.7
1.00006	33.8786	2.65878	33.9827	-4.48736	20.5962	0.188153	-0.0040815	59856.4	366.402	1	12	0.00479142	0.000140996	0	-4.18939e-05	0.0293365	0.00230232	0.0294267	4.48736	366402	4.66875e+06	4.68311e+06	-85.5126	0.0000000E+000	0.0000000E+000	0.0000000E+000	85.5126	0.0000000E+000	0.0000000E+000	0.0000000E+000	-85.5126	0.0000000E+000	0.0000000E+000	0.0000000E+000	-4.48736	0.0000000E+000	0.0000000E+000	0.0000000E+000	4.48736	12.7422	85.5126	-1.00838e-07	-7.67946e-07	46098.9
0.464091	35.251	3.13382	35.39	-5.08024	28.281	0.188152	-0.00307698	109432	858.082	1	12	0.00478954	0.000135336	0	-5.92576e-05	0.0281455	0.00250214	0.0282565	5.08024	858082	9.65222e+06	9.69028e+06	-84.9198	0.0000000E+000	0.0000000E+000	0.0000000E+000	84.9198	0.0000000E+000	0.0000000E+000	0.0000000E+000	-84.9198	0.0000000E+000	0.0000000E+000	0.0000000E+000	-5.08024	0.0000000E+000	0.0000000E+000	0.0000000E+000	5.08024	11.2486	84.9198	-1.23125e-05	-5.78939e-07	61148.1
0.215268	36.9598	3.44973	37.1204	-5.33238	44.7609	0.188151	-0.0031326	214317	1850.97	1	12	0.0047891	0.000129015	0	-9.46396e-05	0.0268227	0.00250356	0.0269393	5.33238	1.85097e+06	1.9831e+07	1.99172e+07	-84.6676	0.0000000E+000	0.0000000E+000	0.0000000E+000	84.6676	0.0000000E+000	0.0000000E+000	0.0000000E+000	-84.6676	0.0000000E+000	0.0000000E+000	0.0000000E+000	-5.33238	0.0000000E+000	0.0000000E+000	0.0000000E+000	5.33238	10.7138	84.6676	-1.7795e-05	-5.89402e-07	60062.1
0.0999041	38.3223	4.20899	38.5528	-6.26775	80.1676	0.188149	-0.00314305	378494	4511.32	1	12	0.00479071	0.000124264	0	-9.93369e-05	0.0257834	0.00283183	0.0259385	6.26775	4.51132e+06	4.1075e+07	4.1322e+07	-83.7322	0.0000000E+000	0.0000000E+000	0.0000000E+000	83.7322	0.0000000E+000	0.0000000E+000	0.0000000E+000	-83.7322	0.0000000E+000	0.0000000E+000	0.0000000E+000	-6.26775	0.0000000E+000	0.0000000E+000	0.0000000E+000	6.26775	9.10487	83.7322	5.57052e-06	-5.9136e-07	59861.9
0.0464052	39.6613	6.04199	40.1188	-8.66184	156.403	0.188143	-0.00120607	567640	12874.7	1	12	0.00478839	0.000119355	0	-2.93575e-05	0.0246417	0.00375391	0.024926	8.66184	1.28747e+07	8.4513e+07	8.5488e+07	-81.3382	0.0000000E+000	0.0000000E+000	0.0000000E+000	81.3382	0.0000000E+000	0.0000000E+000	0.0000000E+000	-81.3382	0.0000000E+000	0.0000000E+000	0.0000000E+000	-8.66184	0.0000000E+000	0.0000000E+000	0.0000000E+000	8.66184	6.56427	81.3382	4.63733e-05	-2.26914e-07	155997
0.0215268	41.8535	10.5861	43.1716	-14.1943	320.632	0.18814	0.000135722	698400	41993.5	1	12	0.00479029	0.000110959	0	-2.9654e-05	0.0224562	0.0056799	0.0231634	14.1943	4.19935e+07	1.66026e+08	1.71255e+08	-75.8057	0.0000000E+000	0.0000000E+000	0.0000000E+000	75.8057	0.0000000E+000	0.0000000E+000	0.0000000E+000	-75.8057	0.0000000E+000	0.0000000E+000	0.0000000E+000	-14.1943	0.0000000E+000	0.0000000E+000	0.0000000E+000	14.1943	3.95362	75.8057	-3.63354e-05	2.55347e-08	1.38621e+06
0.0100092	45.2923	18.0132	48.7429	-21.6883	673.85	0.18814	-0.000343098	882734	120557	1	12	0.00478879	9.82459e-05	0	-0.000503544	0.0190635	0.00758175	0.0205158	21.6883	1.20557e+08	3.03126e+08	3.2622e+08	-68.3117	0.0000000E+000	0.0000000E+000	0.0000000E+000	68.3117	0.0000000E+000	0.0000000E+000	0.0000000E+000	-68.3117	0.0000000E+000	0.0000000E+000	0.0000000E+000	-21.6883	0.0000000E+000	0.0000000E+000	0.0000000E+000	21.6883	2.51439	68.3117	-0.000305535	-6.45505e-08	548358