File: txt/17382_C01.mpt
EC-Lab ASCII FILE
Nb header lines : 64

Potentio Electrochemical Impedance Spectroscopy

Run on channel : 1 (SN 66354)
User :
CE vs. WE compliance from -10 V to 10 V
Electrode connection : standard
Potential control : Ewe
Ewe ctrl range : min = -10.00 V, max = 10.00 V
Safety Limits :
	Do not start on E overload
Acquisition started on : 09/10/2025 16:53:05.256
Technique started on : 09/10/2025 16:53:07.281
Loaded Setting File :  C:\Users\Celltest\OneDrive - store-dot.com\Documents\EC-Lab\Data\Gyutae\EIS_SOC0_C01.mpr
Saved on :
	File : 17382_C01.mpr
	Directory : C:\Users\Celltest\OneDrive - store-dot.com\Documents\EC-Lab\Data\Charmaine\R279\
	Host : 169.254.61.224
Device : VMP-3e (SN .003165)
Address : USB
EC-LAB for windows v11.62 (software)
Internet server v27.00 (firmware)
Command interpretor v12.03 (firmware)
Electrode material :
Initial state :
Electrolyte :
Comments :
Electrode surface area : 0.001 cm²
Characteristic mass : 0.001 g
Equivalent Weight : 0.000 g/eq.
Density : 0.000 g/cm3
Volume (V) : 0.001 cm³
Cycle Definition : Charge/Discharge alternance
Mode                Single sine
E (V)               0.0000
vs.                 Eoc
tE (h:m:s)          0:00:0.0000
record              0
dI                  0.000
unit dI             mA
dt (s)              0.000
fi                  100.000
unit fi             kHz
ff                  10.000
unit ff             mHz
Nd                  6
Points              per decade
spacing             Logarithmic
Va (mV)             5.0
pw                  0.10
Na                  2
corr                0
E range min (V)     -10.000
E range max (V)     10.000
I Range             Auto
Bandwidth           5
nc cycles           0
goto Ns'            0
nr cycles           0
inc. cycle          0

freq/Hz	Re(Z)/Ohm	-Im(Z)/Ohm	|Z|/Ohm	Phase(Z)/deg	time/s	<Ewe>/V	<I>/mA	Cs/µF	Cp/µF	cycle number	I Range	|Ewe|/V	|I|/A	Ns	(Q-Qo)/mA.h	Re(Y)/Ohm-1	Im(Y)/Ohm-1	|Y|/Ohm-1	Phase(Y)/deg	Re(C)/nF	Im(C)/nF	|C|/nF	Phase(C)/deg	Re(M)	Im(M)	|M|	Phase(M)/deg	Re(Permittivity)	Im(Permittivity)	|Permittivity|	Phase(Permittivity)/deg	Re(Resistivity)/Ohm.cm	Im(Resistivity)/Ohm.cm	|Resistivity|/Ohm.cm	Phase(Resistivity)/deg	Re(Conductivity)/mS/cm	Im(Conductivity)/mS/cm	|Conductivity|/mS/cm	Phase(Conductivity)/deg	Tan(Delta)	Loss Angle(Delta)/deg	dq/mA.h	Pwe/W	Rwe/Ohm
100004	3.18477	1.20206	3.40407	-20.6785	2.02548	0.181504	-0.0242535	1.32397	0.165094	1	10	0.00496401	0.00145826	0	-6.95463e-06	0.27484	0.103736	0.293766	20.6785	165.094	437.406	467.526	-69.3215	0.0000000E+000	0.0000000E+000	0.0000000E+000	69.3215	0.0000000E+000	0.0000000E+000	0.0000000E+000	-69.3215	0.0000000E+000	0.0000000E+000	0.0000000E+000	-20.6785	0.0000000E+000	0.0000000E+000	0.0000000E+000	20.6785	2.64943	69.3215	-6.95463e-06	-4.4021e-06	7483.62
46420.4	3.78731	1.37167	4.02805	-19.9091	2.90048	0.18151	-0.0210893	2.49956	0.289848	1	10	0.00540416	0.00134163	0	-9.90369e-06	0.233422	0.0845393	0.248259	19.9091	289.848	800.3	851.171	-70.0909	0.0000000E+000	0.0000000E+000	0.0000000E+000	70.0909	0.0000000E+000	0.0000000E+000	0.0000000E+000	-70.0909	0.0000000E+000	0.0000000E+000	0.0000000E+000	-19.9091	0.0000000E+000	0.0000000E+000	0.0000000E+000	19.9091	2.7611	70.0909	-2.97369e-06	-3.82792e-06	8606.73
21544.7	4.4482	1.58562	4.72236	-19.6193	3.7755	0.181506	-0.0234298	4.65886	0.525244	1	10	0.00520346	0.00110188	0	-1.45722e-05	0.199465	0.0711019	0.211758	19.6193	525.245	1473.49	1564.3	-70.3807	0.0000000E+000	0.0000000E+000	0.0000000E+000	70.3807	0.0000000E+000	0.0000000E+000	0.0000000E+000	-70.3807	0.0000000E+000	0.0000000E+000	0.0000000E+000	-19.6193	0.0000000E+000	0.0000000E+000	0.0000000E+000	19.6193	2.80533	70.3807	-2.0106e-06	-4.25266e-06	7746.79
10002.2	5.18764	1.89084	5.5215	-20.0262	4.64948	0.181516	-0.0207129	8.41528	0.98688	1	10	0.00506564	0.000917439	0	-2.03362e-05	0.17016	0.0620213	0.18111	20.0262	986.88	2707.57	2881.82	-69.9738	0.0000000E+000	0.0000000E+000	0.0000000E+000	69.9738	0.0000000E+000	0.0000000E+000	0.0000000E+000	-69.9738	0.0000000E+000	0.0000000E+000	0.0000000E+000	-20.0262	0.0000000E+000	0.0000000E+000	0.0000000E+000	20.0262	2.74357	69.9738	-2.21002e-06	-3.75972e-06	8763.42
4641.49	6.0683	2.36058	6.51127	-21.2561	5.49871	0.181584	0.00666892	14.5259	1.9092	1	10	0.00512509	0.000787111	0	-1.85274e-05	0.143132	0.0556785	0.15358	21.2561	1909.2	4907.94	5266.2	-68.7439	0.0000000E+000	0.0000000E+000	0.0000000E+000	68.7439	0.0000000E+000	0.0000000E+000	0.0000000E+000	-68.7439	0.0000000E+000	0.0000000E+000	0.0000000E+000	-21.2561	0.0000000E+000	0.0000000E+000	0.0000000E+000	21.2561	2.57068	68.7439	1.38451e-06	1.21097e-06	27228.4
2155.69	7.15545	3.10174	7.7988	-23.4358	6.4327	0.181588	0.00692793	23.8028	3.76517	1	10	0.00503245	0.000645285	0	-1.68357e-05	0.117647	0.0509977	0.128225	23.4358	3765.17	8685.91	9466.87	-66.5642	0.0000000E+000	0.0000000E+000	0.0000000E+000	66.5642	0.0000000E+000	0.0000000E+000	0.0000000E+000	-66.5642	0.0000000E+000	0.0000000E+000	0.0000000E+000	-23.4358	0.0000000E+000	0.0000000E+000	0.0000000E+000	23.4358	2.30691	66.5642	1.3959e-06	1.25803e-06	26211
1000.32	8.64375	4.26984	9.64085	-26.2885	7.36867	0.181582	0.00694097	37.2622	7.30908	1	10	0.00497641	0.000516179	0	-1.5371e-05	0.0929976	0.045939	0.103725	26.2885	7309.08	14796.3	16503.1	-63.7115	0.0000000E+000	0.0000000E+000	0.0000000E+000	63.7115	0.0000000E+000	0.0000000E+000	0.0000000E+000	-63.7115	0.0000000E+000	0.0000000E+000	0.0000000E+000	-26.2885	0.0000000E+000	0.0000000E+000	0.0000000E+000	26.2885	2.02437	63.7115	5.12334e-07	1.26035e-06	26160.8
463.961	10.8629	5.9601	12.3905	-28.7521	8.30221	0.181585	0.00712359	57.5553	13.3172	1	10	0.00494778	0.000399319	0	-1.38031e-05	0.0707564	0.0388216	0.0807068	28.7521	13317.2	24272	27685.3	-61.2479	0.0000000E+000	0.0000000E+000	0.0000000E+000	61.2479	0.0000000E+000	0.0000000E+000	0.0000000E+000	-61.2479	0.0000000E+000	0.0000000E+000	0.0000000E+000	-28.7521	0.0000000E+000	0.0000000E+000	0.0000000E+000	28.7521	1.8226	61.2479	1.00011e-06	1.29354e-06	25490.7
215.345	14.4004	7.8762	16.4136	-28.6762	9.23644	0.181576	0.00671921	93.836	21.6072	1	10	0.00493368	0.000300586	0	-1.24638e-05	0.0534525	0.0292356	0.0609253	28.6762	21607.2	39505.2	45028.1	-61.3238	0.0000000E+000	0.0000000E+000	0.0000000E+000	61.3238	0.0000000E+000	0.0000000E+000	0.0000000E+000	-61.3238	0.0000000E+000	0.0000000E+000	0.0000000E+000	-28.6762	0.0000000E+000	0.0000000E+000	0.0000000E+000	28.6762	1.82834	61.3238	5.9206e-07	1.22005e-06	27023.4
100.032	19.4842	9.05798	21.4867	-24.9332	10.1677	0.181579	0.00629061	175.651	31.2156	1	10	0.00493376	0.000229619	0	-1.06597e-05	0.0422028	0.0196196	0.0465403	24.9332	31215.6	67146.3	74047.5	-65.0668	0.0000000E+000	0.0000000E+000	0.0000000E+000	65.0668	0.0000000E+000	0.0000000E+000	0.0000000E+000	-65.0668	0.0000000E+000	0.0000000E+000	0.0000000E+000	-24.9332	0.0000000E+000	0.0000000E+000	0.0000000E+000	24.9332	2.15105	65.0668	9.76273e-07	1.14224e-06	28865
46.4415	25.0574	8.45873	26.4466	-18.6534	11.3605	0.181594	-0.00373792	405.143	41.4457	1	11	0.00493192	0.000186486	0	-1.07609e-05	0.0358258	0.0120939	0.037812	18.6534	41445.7	122775	129582	-71.3466	0.0000000E+000	0.0000000E+000	0.0000000E+000	71.3466	0.0000000E+000	0.0000000E+000	0.0000000E+000	-71.3466	0.0000000E+000	0.0000000E+000	0.0000000E+000	-18.6534	0.0000000E+000	0.0000000E+000	0.0000000E+000	18.6534	2.96231	71.3466	-3.19211e-07	-6.78782e-07	48581.5
21.5517	29.1946	6.12835	29.8309	-11.8551	12.2464	0.181598	-0.00411068	1205.02	50.857	1	11	0.00492847	0.000165214	0	-1.11749e-05	0.0328073	0.00688672	0.0335223	11.8551	50856.9	242275	247555	-78.1449	0.0000000E+000	0.0000000E+000	0.0000000E+000	78.1449	0.0000000E+000	0.0000000E+000	0.0000000E+000	-78.1449	0.0000000E+000	0.0000000E+000	0.0000000E+000	-11.8551	0.0000000E+000	0.0000000E+000	0.0000000E+000	11.8551	4.76386	78.1449	9.15273e-08	-7.46492e-07	44177.1
10.0032	31.1752	3.89601	31.4177	-7.12341	13.1927	0.181589	-0.00320019	4083.77	62.799	1	11	0.00491087	0.000156309	0	-1.27777e-05	0.0315835	0.00394704	0.0318292	7.12341	62799	502507	506415	-82.8766	0.0000000E+000	0.0000000E+000	0.0000000E+000	82.8766	0.0000000E+000	0.0000000E+000	0.0000000E+000	-82.8766	0.0000000E+000	0.0000000E+000	0.0000000E+000	-7.12341	0.0000000E+000	0.0000000E+000	0.0000000E+000	7.12341	8.00183	82.8766	-1.23318e-06	-5.8112e-07	56743.3
4.63925	32.2248	2.55316	32.3257	-4.53007	14.0523	0.181598	-0.00269616	13436.7	83.8211	1	11	0.00493026	0.000152518	0	-1.45925e-05	0.0308385	0.00244333	0.0309351	4.53007	83821.1	1.05795e+06	1.06126e+06	-85.4699	0.0000000E+000	0.0000000E+000	0.0000000E+000	85.4699	0.0000000E+000	0.0000000E+000	0.0000000E+000	-85.4699	0.0000000E+000	0.0000000E+000	0.0000000E+000	-4.53007	0.0000000E+000	0.0000000E+000	0.0000000E+000	4.53007	12.6215	85.4699	-1.9182e-06	-4.89618e-07	67354.6
2.15577	32.9511	2.0601	33.0155	-3.57747	15.7768	0.18162	-0.00124071	35836.8	139.531	1	11	0.00493645	0.000149519	0	-1.11067e-05	0.0302298	0.00188997	0.0302888	3.57747	139532	2.23179e+06	2.23615e+06	-86.4225	0.0000000E+000	0.0000000E+000	0.0000000E+000	86.4225	0.0000000E+000	0.0000000E+000	0.0000000E+000	-86.4225	0.0000000E+000	0.0000000E+000	0.0000000E+000	-3.57747	0.0000000E+000	0.0000000E+000	0.0000000E+000	3.57747	15.9949	86.4225	1.7811e-06	-2.25338e-07	146384
1.00006	33.6862	2.19046	33.7573	-3.72045	20.1222	0.181615	-0.00144108	72653.7	305.909	1	12	0.0049355	0.000146205	0	-1.99756e-05	0.0295608	0.0019222	0.0296232	3.72045	305909	4.70445e+06	4.71438e+06	-86.2796	0.0000000E+000	0.0000000E+000	0.0000000E+000	86.2796	0.0000000E+000	0.0000000E+000	0.0000000E+000	-86.2796	0.0000000E+000	0.0000000E+000	0.0000000E+000	-3.72045	0.0000000E+000	0.0000000E+000	0.0000000E+000	3.72045	15.3786	86.2796	-5.88383e-06	-2.61723e-07	126027
0.464091	34.834	2.73942	34.9415	-4.49661	27.8069	0.181619	-0.00193084	125187	769.47	1	12	0.00493691	0.00014129	0	-2.47927e-05	0.0285311	0.00224375	0.0286192	4.49661	769470	9.78445e+06	9.81466e+06	-85.5034	0.0000000E+000	0.0000000E+000	0.0000000E+000	85.5034	0.0000000E+000	0.0000000E+000	0.0000000E+000	-85.5034	0.0000000E+000	0.0000000E+000	0.0000000E+000	-4.49661	0.0000000E+000	0.0000000E+000	0.0000000E+000	4.49661	12.7158	85.5034	1.34736e-07	-3.50677e-07	94062.4
0.215268	36.2652	3.28771	36.4139	-5.18012	44.2868	0.181617	-0.00169029	224879	1833.16	1	12	0.00493534	0.000135534	0	-3.84455e-06	0.0273499	0.00247947	0.027462	5.18012	1.83316e+06	2.02207e+07	2.03036e+07	-84.8199	0.0000000E+000	0.0000000E+000	0.0000000E+000	84.8199	0.0000000E+000	0.0000000E+000	0.0000000E+000	-84.8199	0.0000000E+000	0.0000000E+000	0.0000000E+000	-5.18012	0.0000000E+000	0.0000000E+000	0.0000000E+000	5.18012	11.0305	84.8199	1.33267e-05	-3.06985e-07	107447
0.0999041	37.9012	4.25901	38.1397	-6.41152	79.6923	0.181615	-4.58416e-05	374048	4664.34	1	12	0.00493742	0.000129456	0	9.27185e-06	0.0260554	0.00292788	0.0262194	6.41152	4.66434e+06	4.15082e+07	4.17695e+07	-83.5885	0.0000000E+000	0.0000000E+000	0.0000000E+000	83.5885	0.0000000E+000	0.0000000E+000	0.0000000E+000	-83.5885	0.0000000E+000	0.0000000E+000	0.0000000E+000	-6.41152	0.0000000E+000	0.0000000E+000	0.0000000E+000	6.41152	8.89905	83.5885	4.80706e-07	-8.32552e-09	3.9618e+06
0.0464052	39.5128	6.49547	40.0431	-9.33531	155.929	0.181616	0.000127041	528011	13893.4	1	12	0.00493217	0.000123172	0	-8.10228e-05	0.0246424	0.00405094	0.0249731	9.33531	1.38934e+07	8.45154e+07	8.56497e+07	-80.6647	0.0000000E+000	0.0000000E+000	0.0000000E+000	80.6647	0.0000000E+000	0.0000000E+000	0.0000000E+000	-80.6647	0.0000000E+000	0.0000000E+000	0.0000000E+000	-9.33531	0.0000000E+000	0.0000000E+000	0.0000000E+000	9.33531	6.08313	80.6647	-6.82496e-05	2.30727e-08	1.42959e+06
0.0215268	42.3901	11.1202	43.8244	-14.6992	320.159	0.181615	-0.00101427	664858	42807.5	1	12	0.00493601	0.000112631	0	-0.000298503	0.0220715	0.00579	0.0228183	14.6992	4.28075e+07	1.63182e+08	1.68704e+08	-75.3008	0.0000000E+000	0.0000000E+000	0.0000000E+000	75.3008	0.0000000E+000	0.0000000E+000	0.0000000E+000	-75.3008	0.0000000E+000	0.0000000E+000	0.0000000E+000	-14.6992	0.0000000E+000	0.0000000E+000	0.0000000E+000	14.6992	3.812	75.3008	-0.000107037	-1.84207e-07	179059
0.0100092	46.3684	19.6422	50.3572	-22.9581	673.375	0.181609	-0.000804229	809528	123166	1	12	0.00493618	9.80233e-05	0	-0.000146924	0.0182852	0.00774581	0.0198581	22.9581	1.23166e+08	2.90751e+08	3.15762e+08	-67.0419	0.0000000E+000	0.0000000E+000	0.0000000E+000	67.0419	0.0000000E+000	0.0000000E+000	0.0000000E+000	-67.0419	0.0000000E+000	0.0000000E+000	0.0000000E+000	-22.9581	0.0000000E+000	0.0000000E+000	0.0000000E+000	22.9581	2.36065	67.0419	0.000165904	-1.46055e-07	225818