File: txt/17387_C05.mpt
EC-Lab ASCII FILE
Nb header lines : 64

Potentio Electrochemical Impedance Spectroscopy

Run on channel : 5 (SN 65912)
User :
CE vs. WE compliance from -10 V to 10 V
Electrode connection : standard
Potential control : Ewe
Ewe ctrl range : min = -10.00 V, max = 10.00 V
Safety Limits :
	Do not start on E overload
Acquisition started on : 09/10/2025 16:54:08.534
Technique started on : 09/10/2025 16:54:10.761
Loaded Setting File :  C:\Users\Celltest\OneDrive - store-dot.com\Documents\EC-Lab\Data\Charmaine\R279\17382_C01.mpr
Saved on :
	File : 17387_C05.mpr
	Directory : C:\Users\Celltest\OneDrive - store-dot.com\Documents\EC-Lab\Data\Charmaine\R279\
	Host : 169.254.61.224
Device : VMP-3e (SN .003165)
Address : USB
EC-LAB for windows v11.62 (software)
Internet server v27.00 (firmware)
Command interpretor v12.03 (firmware)
Electrode material :
Initial state :
Electrolyte :
Comments :
Electrode surface area : 0.001 cm²
Characteristic mass : 0.001 g
Equivalent Weight : 0.000 g/eq.
Density : 0.000 g/cm3
Volume (V) : 0.001 cm³
Cycle Definition : Charge/Discharge alternance
Mode                Single sine
E (V)               0.0000
vs.                 Eoc
tE (h:m:s)          0:00:0.0000
record              0
dI                  0.000
unit dI             mA
dt (s)              0.000
fi                  100.000
unit fi             kHz
ff                  10.000
unit ff             mHz
Nd                  6
Points              per decade
spacing             Logarithmic
Va (mV)             5.0
pw                  0.10
Na                  2
corr                0
E range min (V)     -10.000
E range max (V)     10.000
I Range             Auto
Bandwidth           5
nc cycles           0
goto Ns'            0
nr cycles           0
inc. cycle          0

freq/Hz	Re(Z)/Ohm	-Im(Z)/Ohm	|Z|/Ohm	Phase(Z)/deg	time/s	<Ewe>/V	<I>/mA	Cs/µF	Cp/µF	cycle number	I Range	|Ewe|/V	|I|/A	Ns	(Q-Qo)/mA.h	Re(Y)/Ohm-1	Im(Y)/Ohm-1	|Y|/Ohm-1	Phase(Y)/deg	Re(C)/nF	Im(C)/nF	|C|/nF	Phase(C)/deg	Re(M)	Im(M)	|M|	Phase(M)/deg	Re(Permittivity)	Im(Permittivity)	|Permittivity|	Phase(Permittivity)/deg	Re(Resistivity)/Ohm.cm	Im(Resistivity)/Ohm.cm	|Resistivity|/Ohm.cm	Phase(Resistivity)/deg	Re(Conductivity)/mS/cm	Im(Conductivity)/mS/cm	|Conductivity|/mS/cm	Phase(Conductivity)/deg	Tan(Delta)	Loss Angle(Delta)/deg	dq/mA.h	Pwe/W	Rwe/Ohm
100004	1.57844	0.393179	1.62667	-13.9874	2.22749	0.2611	-0.0240784	4.04775	0.236481	1	9	0.00490765	0.00301699	0	-1.26301e-05	0.596525	0.148591	0.614753	13.9874	236.481	949.364	978.373	-76.0126	0.0000000E+000	0.0000000E+000	0.0000000E+000	76.0126	0.0000000E+000	0.0000000E+000	0.0000000E+000	-76.0126	0.0000000E+000	0.0000000E+000	0.0000000E+000	-13.9874	0.0000000E+000	0.0000000E+000	0.0000000E+000	13.9874	4.01455	76.0126	-1.26301e-05	-6.28687e-06	10843.7
46420.4	1.77819	0.467414	1.83859	-14.7276	3.10248	0.261088	-0.0175615	7.33517	0.474069	1	9	0.00537332	0.00292252	0	-1.87741e-05	0.526025	0.138271	0.543894	14.7276	474.069	1803.51	1864.77	-75.2724	0.0000000E+000	0.0000000E+000	0.0000000E+000	75.2724	0.0000000E+000	0.0000000E+000	0.0000000E+000	-75.2724	0.0000000E+000	0.0000000E+000	0.0000000E+000	-14.7276	0.0000000E+000	0.0000000E+000	0.0000000E+000	14.7276	3.80431	75.2724	-1.70513e-06	-4.58509e-06	14867.1
21544.7	2.01536	0.540342	2.08654	-15.0087	3.97748	0.26108	-0.0201496	13.6713	0.916843	1	9	0.00537296	0.00257506	0	-2.85009e-05	0.462913	0.124112	0.479262	15.0087	916.843	3419.63	3540.41	-74.9913	0.0000000E+000	0.0000000E+000	0.0000000E+000	74.9913	0.0000000E+000	0.0000000E+000	0.0000000E+000	-74.9913	0.0000000E+000	0.0000000E+000	0.0000000E+000	-15.0087	0.0000000E+000	0.0000000E+000	0.0000000E+000	15.0087	3.72979	74.9913	-2.26736e-06	-5.26068e-06	12957.1
10002.2	2.28108	0.630632	2.36665	-15.4541	4.85248	0.261074	-0.022384	25.2318	1.79156	1	9	0.00534678	0.00225922	0	-3.27018e-05	0.407261	0.112592	0.422538	15.4541	1791.56	6480.32	6723.41	-74.5459	0.0000000E+000	0.0000000E+000	0.0000000E+000	74.5459	0.0000000E+000	0.0000000E+000	0.0000000E+000	-74.5459	0.0000000E+000	0.0000000E+000	0.0000000E+000	-15.4541	0.0000000E+000	0.0000000E+000	0.0000000E+000	15.4541	3.61714	74.5459	4.32999e-07	-5.84389e-06	11663.4
4641.49	2.57177	0.771528	2.68501	-16.6992	6.10171	0.261073	-0.0225889	44.4438	3.66964	1	9	0.0051477	0.0019172	0	-4.61579e-05	0.356731	0.107019	0.372438	16.6992	3669.64	12232.2	12770.8	-73.3008	0.0000000E+000	0.0000000E+000	0.0000000E+000	73.3008	0.0000000E+000	0.0000000E+000	0.0000000E+000	-73.3008	0.0000000E+000	0.0000000E+000	0.0000000E+000	-16.6992	0.0000000E+000	0.0000000E+000	0.0000000E+000	16.6992	3.33335	73.3008	-3.12336e-06	-5.89734e-06	11557.6
2155.69	2.89521	1.0066	3.0652	-19.1714	7.25871	0.261073	-0.0224027	73.3463	7.90989	1	9	0.00536926	0.00175168	0	-5.51888e-05	0.308149	0.107136	0.326243	19.1714	7909.89	22750.7	24086.5	-70.8286	0.0000000E+000	0.0000000E+000	0.0000000E+000	70.8286	0.0000000E+000	0.0000000E+000	0.0000000E+000	-70.8286	0.0000000E+000	0.0000000E+000	0.0000000E+000	-19.1714	0.0000000E+000	0.0000000E+000	0.0000000E+000	19.1714	2.87624	70.8286	-2.39092e-06	-5.84873e-06	11653.7
1000.32	3.29918	1.43247	3.59674	-23.4699	8.44869	0.261077	-0.0121926	111.07	17.6176	1	10	0.00540815	0.00150362	0	-6.27784e-05	0.255028	0.11073	0.278029	23.4699	17617.6	40575.9	44235.6	-66.5301	0.0000000E+000	0.0000000E+000	0.0000000E+000	66.5301	0.0000000E+000	0.0000000E+000	0.0000000E+000	-66.5301	0.0000000E+000	0.0000000E+000	0.0000000E+000	-23.4699	0.0000000E+000	0.0000000E+000	0.0000000E+000	23.4699	2.30315	66.5301	-5.2261e-06	-3.1832e-06	21412.8
463.961	3.93231	2.18507	4.49863	-29.0597	9.38322	0.261083	-0.0122372	156.99	37.0378	1	10	0.00527162	0.00117183	0	-6.64423e-05	0.194307	0.107971	0.22229	29.0597	37037.8	66654.2	76253.4	-60.9403	0.0000000E+000	0.0000000E+000	0.0000000E+000	60.9403	0.0000000E+000	0.0000000E+000	0.0000000E+000	-60.9403	0.0000000E+000	0.0000000E+000	0.0000000E+000	-29.0597	0.0000000E+000	0.0000000E+000	0.0000000E+000	29.0597	1.79962	60.9403	-1.05866e-06	-3.19493e-06	21335.1
215.345	5.10129	3.32079	6.08694	-33.063	10.3174	0.261075	-0.012079	222.559	66.2415	1	10	0.00517938	0.000850901	0	-7.01719e-05	0.137683	0.089628	0.164286	33.063	66241.5	101758	121419	-56.937	0.0000000E+000	0.0000000E+000	0.0000000E+000	56.937	0.0000000E+000	0.0000000E+000	0.0000000E+000	-56.937	0.0000000E+000	0.0000000E+000	0.0000000E+000	-33.063	0.0000000E+000	0.0000000E+000	0.0000000E+000	33.063	1.53617	56.937	-2.18138e-06	-3.15353e-06	21613.9
100.032	7.19893	4.59199	8.53879	-32.5326	11.2487	0.261083	-0.0119506	346.481	100.205	1	10	0.0051452	0.000602568	0	-7.27312e-05	0.0987359	0.0629808	0.117113	32.5326	100205	157093	186331	-57.4674	0.0000000E+000	0.0000000E+000	0.0000000E+000	57.4674	0.0000000E+000	0.0000000E+000	0.0000000E+000	-57.4674	0.0000000E+000	0.0000000E+000	0.0000000E+000	-32.5326	0.0000000E+000	0.0000000E+000	0.0000000E+000	32.5326	1.56771	57.4674	-1.2012e-06	-3.12009e-06	21846.9
46.4415	10.2686	5.24846	11.5322	-27.0723	12.1825	0.261082	-0.0122075	652.953	135.246	1	10	0.00512988	0.000444832	0	-7.56164e-05	0.077213	0.0394648	0.086714	27.0723	135246	264608	297168	-62.9277	0.0000000E+000	0.0000000E+000	0.0000000E+000	62.9277	0.0000000E+000	0.0000000E+000	0.0000000E+000	-62.9277	0.0000000E+000	0.0000000E+000	0.0000000E+000	-27.0723	0.0000000E+000	0.0000000E+000	0.0000000E+000	27.0723	1.9565	62.9277	-1.57449e-06	-3.18716e-06	21387
21.5517	13.3864	4.57507	14.1466	-18.8689	13.0674	0.261072	-0.0131886	1614.14	168.823	1	10	0.00511707	0.000361717	0	-7.95625e-05	0.0668897	0.0228609	0.0706884	18.8689	168823	493966	522019	-71.1311	0.0000000E+000	0.0000000E+000	0.0000000E+000	71.1311	0.0000000E+000	0.0000000E+000	0.0000000E+000	-71.1311	0.0000000E+000	0.0000000E+000	0.0000000E+000	-18.8689	0.0000000E+000	0.0000000E+000	0.0000000E+000	18.8689	2.92594	71.1311	-2.37456e-06	-3.44318e-06	19795.2
10.0032	15.3737	3.29637	15.7232	-12.1019	14.2717	0.261088	-0.00816258	4826.65	212.147	1	11	0.00512114	0.000325707	0	-7.81377e-05	0.062187	0.0133339	0.0636005	12.1019	212147	989421	1.01191e+06	-77.8981	0.0000000E+000	0.0000000E+000	0.0000000E+000	77.8981	0.0000000E+000	0.0000000E+000	0.0000000E+000	-77.8981	0.0000000E+000	0.0000000E+000	0.0000000E+000	-12.1019	0.0000000E+000	0.0000000E+000	0.0000000E+000	12.1019	4.66384	77.8981	-1.58623e-07	-2.13115e-06	31986
4.63925	16.4339	2.43119	16.6127	-8.41518	15.1313	0.261081	-0.00865125	14110.8	302.21	1	11	0.00512344	0.000308404	0	-8.18065e-05	0.0595467	0.00880921	0.0601948	8.41518	302210	2.04282e+06	2.06505e+06	-81.5848	0.0000000E+000	0.0000000E+000	0.0000000E+000	81.5848	0.0000000E+000	0.0000000E+000	0.0000000E+000	-81.5848	0.0000000E+000	0.0000000E+000	0.0000000E+000	-8.41518	0.0000000E+000	0.0000000E+000	0.0000000E+000	8.41518	6.75959	81.5848	1.77333e-09	-2.25868e-06	30178.5
2.15577	17.2053	2.28439	17.3563	-7.56306	16.8567	0.261097	-0.00589464	32318.3	559.853	1	11	0.00512684	0.000295388	0	-8.23328e-05	0.0571148	0.00758326	0.057616	7.56306	559853	4.21664e+06	4.25365e+06	-82.4369	0.0000000E+000	0.0000000E+000	0.0000000E+000	82.4369	0.0000000E+000	0.0000000E+000	0.0000000E+000	-82.4369	0.0000000E+000	0.0000000E+000	0.0000000E+000	-7.56306	0.0000000E+000	0.0000000E+000	0.0000000E+000	7.56306	7.53169	82.4369	-3.58248e-06	-1.53907e-06	44293.9
1.00006	18.133	2.60137	18.3186	-8.16398	21.5202	0.261095	-0.0052764	61177.4	1233.7	1	12	0.00512884	0.000279979	0	-0.000103772	0.054036	0.00775203	0.0545892	8.16398	1.2337e+06	8.59955e+06	8.68759e+06	-81.836	0.0000000E+000	0.0000000E+000	0.0000000E+000	81.836	0.0000000E+000	0.0000000E+000	0.0000000E+000	-81.836	0.0000000E+000	0.0000000E+000	0.0000000E+000	-8.16398	0.0000000E+000	0.0000000E+000	0.0000000E+000	8.16398	6.97056	81.836	-1.13821e-05	-1.37764e-06	49483.7
0.464091	19.5299	3.16352	19.7845	-9.20105	29.2049	0.261099	-0.00525087	108404	2771.66	1	12	0.00512715	0.00025915	0	-9.41057e-05	0.0498944	0.00808206	0.0505447	9.20105	2.77166e+06	1.71107e+07	1.73338e+07	-80.799	0.0000000E+000	0.0000000E+000	0.0000000E+000	80.799	0.0000000E+000	0.0000000E+000	0.0000000E+000	-80.799	0.0000000E+000	0.0000000E+000	0.0000000E+000	-9.20105	0.0000000E+000	0.0000000E+000	0.0000000E+000	9.20105	6.17347	80.799	9.91054e-06	-1.371e-06	49724.8
0.215268	21.4629	3.51441	21.7488	-9.29928	45.6847	0.2611	-0.00320814	210372	5493.19	1	12	0.00512802	0.000235784	0	-7.57545e-05	0.0453753	0.00742991	0.0459796	9.29928	5.49319e+06	3.35476e+07	3.39943e+07	-80.7007	0.0000000E+000	0.0000000E+000	0.0000000E+000	80.7007	0.0000000E+000	0.0000000E+000	0.0000000E+000	-80.7007	0.0000000E+000	0.0000000E+000	0.0000000E+000	-9.29928	0.0000000E+000	0.0000000E+000	0.0000000E+000	9.29928	6.10712	80.7007	4.8133e-06	-8.37644e-07	81386.6
0.0999041	23.223	3.63547	23.5058	-8.89723	81.0902	0.261102	-0.000574089	438204	10482.1	1	12	0.00512759	0.000218141	0	-0.000145659	0.0420308	0.00657976	0.0425427	8.89723	1.04821e+07	6.69583e+07	6.77738e+07	-81.1028	0.0000000E+000	0.0000000E+000	0.0000000E+000	81.1028	0.0000000E+000	0.0000000E+000	0.0000000E+000	-81.1028	0.0000000E+000	0.0000000E+000	0.0000000E+000	-8.89723	0.0000000E+000	0.0000000E+000	0.0000000E+000	8.89723	6.38789	81.1028	-5.22288e-05	-1.49896e-07	454811
0.0464052	24.6507	4.23768	25.0123	-9.75433	157.327	0.261098	-0.0013982	809330	23231.4	1	12	0.00512701	0.00020498	0	-0.00035301	0.0394024	0.00677364	0.0399804	9.75433	2.32314e+07	1.35138e+08	1.3712e+08	-80.2457	0.0000000E+000	0.0000000E+000	0.0000000E+000	80.2457	0.0000000E+000	0.0000000E+000	0.0000000E+000	-80.2457	0.0000000E+000	0.0000000E+000	0.0000000E+000	-9.75433	0.0000000E+000	0.0000000E+000	0.0000000E+000	9.75433	5.81702	80.2457	-0.000122009	-3.65068e-07	186738
0.0215268	26.1319	6.62719	26.9591	-14.2305	321.557	0.261098	-0.00247768	1.11561e+06	67415.4	1	12	0.0051233	0.00019004	0	-0.00045207	0.035955	0.00911838	0.0370932	14.2305	6.74153e+07	2.65827e+08	2.74243e+08	-75.7695	0.0000000E+000	0.0000000E+000	0.0000000E+000	75.7695	0.0000000E+000	0.0000000E+000	0.0000000E+000	-75.7695	0.0000000E+000	0.0000000E+000	0.0000000E+000	-14.2305	0.0000000E+000	0.0000000E+000	0.0000000E+000	14.2305	3.94313	75.7695	7.45629e-06	-6.46917e-07	105380
0.0100092	28.1762	11.0852	30.2783	-21.4759	674.773	0.261101	-0.000592847	1.43443e+06	192266	1	12	0.00512556	0.000169282	0	0.000217222	0.0307339	0.0120915	0.0330269	21.4759	1.92266e+08	4.88697e+08	5.25158e+08	-68.5241	0.0000000E+000	0.0000000E+000	0.0000000E+000	68.5241	0.0000000E+000	0.0000000E+000	0.0000000E+000	-68.5241	0.0000000E+000	0.0000000E+000	0.0000000E+000	-21.4759	0.0000000E+000	0.0000000E+000	0.0000000E+000	21.4759	2.54178	68.5241	0.000445477	-1.54793e-07	440419