File: txt/17397_R279_UA651_SOC00_C03.mpt
EC-Lab ASCII FILE
Nb header lines : 63

Potentio Electrochemical Impedance Spectroscopy

Run on channel : 3 (SN 65921)
User :
CE vs. WE compliance from -10 V to 10 V
Electrode connection : standard
Potential control : Ewe
Ewe ctrl range : min = -10.00 V, max = 10.00 V
Safety Limits :
	Do not start on E overload
Acquisition started on : 09/11/2025 15:38:34.165
Loaded Setting File :  C:\Users\Celltest\OneDrive - store-dot.com\Documents\EC-Lab\Data\Charmaine\R279\17382_C01.mpr
Saved on :
	File : 17397_C03.mpr
	Directory : C:\Users\Celltest\OneDrive - store-dot.com\Documents\EC-Lab\Data\Charmaine\R279\
	Host : 169.254.61.224
Device : VMP-3e (SN .003165)
Address : USB
EC-LAB for windows v11.62 (software)
Internet server v27.00 (firmware)
Command interpretor v12.03 (firmware)
Electrode material :
Initial state :
Electrolyte :
Comments :
Electrode surface area : 0.001 cm²
Characteristic mass : 0.001 g
Equivalent Weight : 0.000 g/eq.
Density : 0.000 g/cm3
Volume (V) : 0.001 cm³
Cycle Definition : Charge/Discharge alternance
Mode                Single sine
E (V)               0.0000
vs.                 Eoc
tE (h:m:s)          0:00:0.0000
record              0
dI                  0.000
unit dI             mA
dt (s)              0.000
fi                  100.000
unit fi             kHz
ff                  10.000
unit ff             mHz
Nd                  6
Points              per decade
spacing             Logarithmic
Va (mV)             5.0
pw                  0.10
Na                  2
corr                0
E range min (V)     -10.000
E range max (V)     10.000
I Range             Auto
Bandwidth           5
nc cycles           0
goto Ns'            0
nr cycles           0
inc. cycle          0

freq/Hz	Re(Z)/Ohm	-Im(Z)/Ohm	|Z|/Ohm	Phase(Z)/deg	time/s	<Ewe>/V	<I>/mA	Cs/µF	Cp/µF	cycle number	I Range	|Ewe|/V	|I|/A	Ns	(Q-Qo)/mA.h	Re(Y)/Ohm-1	Im(Y)/Ohm-1	|Y|/Ohm-1	Phase(Y)/deg	Re(C)/nF	Im(C)/nF	|C|/nF	Phase(C)/deg	Re(M)	Im(M)	|M|	Phase(M)/deg	Re(Permittivity)	Im(Permittivity)	|Permittivity|	Phase(Permittivity)/deg	Re(Resistivity)/Ohm.cm	Im(Resistivity)/Ohm.cm	|Resistivity|/Ohm.cm	Phase(Resistivity)/deg	Re(Conductivity)/mS/cm	Im(Conductivity)/mS/cm	|Conductivity|/mS/cm	Phase(Conductivity)/deg	Tan(Delta)	Loss Angle(Delta)/deg	dq/mA.h	Pwe/W	Rwe/Ohm
100004	2.63237	0.853749	2.76736	-17.9693	2.02547	0.246404	0.00998824	1.86412	0.17742	1	9	0.00494136	0.00178559	0	-5.05963e-06	0.343729	0.111481	0.361355	17.9693	177.42	547.042	575.093	-72.0307	0.0000000E+000	0.0000000E+000	0.0000000E+000	72.0307	0.0000000E+000	0.0000000E+000	0.0000000E+000	-72.0307	0.0000000E+000	0.0000000E+000	0.0000000E+000	-17.9693	0.0000000E+000	0.0000000E+000	0.0000000E+000	17.9693	3.08331	72.0307	-5.05963e-06	2.46115e-06	24669.4
46420.4	3.0522	0.954498	3.19797	-17.3657	2.89948	0.246403	0.0147805	3.592	0.319991	1	9	0.00542579	0.00169664	0	-1.46725e-06	0.298445	0.0933312	0.312699	17.3657	319.991	1023.24	1072.11	-72.6343	0.0000000E+000	0.0000000E+000	0.0000000E+000	72.6343	0.0000000E+000	0.0000000E+000	0.0000000E+000	-72.6343	0.0000000E+000	0.0000000E+000	0.0000000E+000	-17.3657	0.0000000E+000	0.0000000E+000	0.0000000E+000	17.3657	3.1977	72.6343	2.30336e-06	3.64195e-06	16670.8
21544.7	3.50997	1.09246	3.67605	-17.2885	3.77348	0.246407	0.0203372	6.76198	0.597204	1	9	0.00532106	0.00144749	0	6.75868e-06	0.259741	0.080843	0.272031	17.2885	597.204	1918.76	2009.55	-72.7115	0.0000000E+000	0.0000000E+000	0.0000000E+000	72.7115	0.0000000E+000	0.0000000E+000	0.0000000E+000	-72.7115	0.0000000E+000	0.0000000E+000	0.0000000E+000	-17.2885	0.0000000E+000	0.0000000E+000	0.0000000E+000	17.2885	3.2129	72.7115	2.84167e-06	5.01122e-06	12116.1
10002.2	4.03238	1.29675	4.23576	-17.8269	4.64848	0.246404	0.0182301	12.2707	1.15005	1	9	0.00501907	0.00118493	0	1.16375e-05	0.22475	0.0722757	0.236085	17.8269	1150.05	3576.2	3756.57	-72.1731	0.0000000E+000	0.0000000E+000	0.0000000E+000	72.1731	0.0000000E+000	0.0000000E+000	0.0000000E+000	-72.1731	0.0000000E+000	0.0000000E+000	0.0000000E+000	-17.8269	0.0000000E+000	0.0000000E+000	0.0000000E+000	17.8269	3.10961	72.1731	1.02685e-06	4.49198e-06	13516.3
4641.49	4.61857	1.61831	4.89389	-19.31	5.7067	0.246472	-0.0134563	21.1886	2.31695	1	10	0.00517164	0.00105675	0	9.24473e-06	0.192841	0.0675699	0.204336	19.31	2316.95	6612.46	7006.63	-70.69	0.0000000E+000	0.0000000E+000	0.0000000E+000	70.69	0.0000000E+000	0.0000000E+000	0.0000000E+000	-70.69	0.0000000E+000	0.0000000E+000	0.0000000E+000	-19.31	0.0000000E+000	0.0000000E+000	0.0000000E+000	19.31	2.85395	70.69	-2.28664e-06	-3.3166e-06	18316.5
2155.69	5.37475	2.1092	5.77379	-21.4265	6.64068	0.246467	-0.0131356	35.0038	4.67122	1	10	0.00516116	0.000893895	0	6.20497e-06	0.161226	0.0632699	0.173197	21.4265	4671.23	11903.4	12787.1	-68.5735	0.0000000E+000	0.0000000E+000	0.0000000E+000	68.5735	0.0000000E+000	0.0000000E+000	0.0000000E+000	-68.5735	0.0000000E+000	0.0000000E+000	0.0000000E+000	-21.4265	0.0000000E+000	0.0000000E+000	0.0000000E+000	21.4265	2.54823	68.5735	-1.00356e-06	-3.23749e-06	18763.2
1000.32	6.38895	2.84522	6.99385	-24.0051	7.57667	0.246463	-0.0131188	55.9197	9.25475	1	10	0.00506592	0.000724339	0	2.82921e-06	0.130616	0.058168	0.142983	24.0051	9254.75	20781.5	22749.1	-65.9949	0.0000000E+000	0.0000000E+000	0.0000000E+000	65.9949	0.0000000E+000	0.0000000E+000	0.0000000E+000	-65.9949	0.0000000E+000	0.0000000E+000	0.0000000E+000	-24.0051	0.0000000E+000	0.0000000E+000	0.0000000E+000	24.0051	2.2455	65.9949	-1.30772e-06	-3.23331e-06	18786.9
463.961	7.8279	3.90589	8.74826	-26.5178	8.51119	0.246454	-0.0121493	87.8251	17.5072	1	10	0.00500202	0.000571773	0	-3.29761e-07	0.102283	0.051036	0.114308	26.5178	17507.2	35086.6	39211.8	-63.4822	0.0000000E+000	0.0000000E+000	0.0000000E+000	63.4822	0.0000000E+000	0.0000000E+000	0.0000000E+000	-63.4822	0.0000000E+000	0.0000000E+000	0.0000000E+000	-26.5178	0.0000000E+000	0.0000000E+000	0.0000000E+000	26.5178	2.00413	63.4822	-1.32665e-06	-2.99426e-06	20285.4
215.345	10.0335	5.23513	11.3171	-27.5541	9.44543	0.246457	-0.0121997	141.175	30.2094	1	10	0.00498298	0.000440305	0	-3.13369e-06	0.0783393	0.0408749	0.0883618	27.5541	30209.4	57898.3	65305.6	-62.4459	0.0000000E+000	0.0000000E+000	0.0000000E+000	62.4459	0.0000000E+000	0.0000000E+000	0.0000000E+000	-62.4459	0.0000000E+000	0.0000000E+000	0.0000000E+000	-27.5541	0.0000000E+000	0.0000000E+000	0.0000000E+000	27.5541	1.91656	62.4459	-1.6127e-06	-3.00669e-06	20201.9
100.032	13.2469	6.36139	14.6951	-25.6512	10.3767	0.246458	-0.0121326	250.109	46.869	1	10	0.00497341	0.000338439	0	-6.42383e-06	0.0613431	0.0294581	0.0680497	25.6512	46869	97599.4	108270	-64.3488	0.0000000E+000	0.0000000E+000	0.0000000E+000	64.3488	0.0000000E+000	0.0000000E+000	0.0000000E+000	-64.3488	0.0000000E+000	0.0000000E+000	0.0000000E+000	-25.6512	0.0000000E+000	0.0000000E+000	0.0000000E+000	25.6512	2.08239	64.3488	-1.65962e-06	-2.99017e-06	20313.8
46.4415	17.2558	6.50785	18.4422	-20.6635	11.3095	0.246446	-0.012677	526.594	65.5733	1	10	0.00497115	0.000269554	0	-9.60628e-06	0.0507353	0.0191344	0.0542236	20.6635	65573.3	173870	185824	-69.3365	0.0000000E+000	0.0000000E+000	0.0000000E+000	69.3365	0.0000000E+000	0.0000000E+000	0.0000000E+000	-69.3365	0.0000000E+000	0.0000000E+000	0.0000000E+000	-20.6635	0.0000000E+000	0.0000000E+000	0.0000000E+000	20.6635	2.65153	69.3365	-1.69445e-06	-3.12418e-06	19440.4
21.5517	20.8024	5.26769	21.459	-14.21	12.4393	0.246459	-0.016525	1401.9	84.4773	1	11	0.00496713	0.000231471	0	-1.45204e-05	0.0451747	0.0114394	0.0466005	14.21	84477.3	333606	344135	-75.79	0.0000000E+000	0.0000000E+000	0.0000000E+000	75.79	0.0000000E+000	0.0000000E+000	0.0000000E+000	-75.79	0.0000000E+000	0.0000000E+000	0.0000000E+000	-14.21	0.0000000E+000	0.0000000E+000	0.0000000E+000	14.21	3.94905	75.79	-1.76128e-06	-4.07274e-06	14914.3
10.0032	22.8872	3.58665	23.1665	-8.90639	13.3857	0.246476	-0.0155587	4436.01	106.328	1	11	0.00496895	0.000214489	0	-1.72318e-05	0.0426453	0.00668295	0.0431658	8.90639	106328	678504	686785	-81.0936	0.0000000E+000	0.0000000E+000	0.0000000E+000	81.0936	0.0000000E+000	0.0000000E+000	0.0000000E+000	-81.0936	0.0000000E+000	0.0000000E+000	0.0000000E+000	-8.90639	0.0000000E+000	0.0000000E+000	0.0000000E+000	8.90639	6.38121	81.0936	-1.06734e-06	-3.83483e-06	15841.7
4.63925	23.916	2.59906	24.0568	-6.20224	14.2463	0.246493	-0.0146644	13199.5	154.067	1	11	0.00496161	0.000206245	0	-2.1524e-05	0.0413249	0.00449095	0.0415682	6.20224	154067	1.4177e+06	1.42605e+06	-83.7978	0.0000000E+000	0.0000000E+000	0.0000000E+000	83.7978	0.0000000E+000	0.0000000E+000	0.0000000E+000	-83.7978	0.0000000E+000	0.0000000E+000	0.0000000E+000	-6.20224	0.0000000E+000	0.0000000E+000	0.0000000E+000	6.20224	9.20181	83.7978	-4.03413e-07	-3.61468e-06	16808.9
2.15577	24.7364	2.32386	24.8453	-5.36689	15.9728	0.246494	-0.0132856	31769.4	277.932	1	11	0.00497272	0.000200147	0	-2.82993e-05	0.0400726	0.00376461	0.040249	5.36689	277932	2.95846e+06	2.97149e+06	-84.6331	0.0000000E+000	0.0000000E+000	0.0000000E+000	84.6331	0.0000000E+000	0.0000000E+000	0.0000000E+000	-84.6331	0.0000000E+000	0.0000000E+000	0.0000000E+000	-5.36689	0.0000000E+000	0.0000000E+000	0.0000000E+000	5.36689	10.6445	84.6331	-6.27543e-06	-3.27482e-06	18553.5
1.00006	25.7293	2.49694	25.8502	-5.54299	20.6361	0.246493	-0.0125805	63735.9	594.665	1	12	0.00496564	0.000192093	0	-5.22847e-05	0.0385035	0.00373663	0.0386844	5.54299	594665	6.12763e+06	6.15642e+06	-84.457	0.0000000E+000	0.0000000E+000	0.0000000E+000	84.457	0.0000000E+000	0.0000000E+000	0.0000000E+000	-84.457	0.0000000E+000	0.0000000E+000	0.0000000E+000	-5.54299	0.0000000E+000	0.0000000E+000	0.0000000E+000	5.54299	10.3043	84.457	-1.34876e-05	-3.10101e-06	19593.2
0.464091	26.9031	2.78019	27.0463	-5.90006	28.3205	0.24648	-0.0117996	123351	1303.39	1	12	0.00496892	0.000183719	0	-6.00906e-05	0.0367777	0.00380065	0.0369736	5.90006	1.30339e+06	1.26125e+07	1.26797e+07	-84.0999	0.0000000E+000	0.0000000E+000	0.0000000E+000	84.0999	0.0000000E+000	0.0000000E+000	0.0000000E+000	-84.0999	0.0000000E+000	0.0000000E+000	0.0000000E+000	-5.90006	0.0000000E+000	0.0000000E+000	0.0000000E+000	5.90006	9.67669	84.0999	-2.69796e-06	-2.90838e-06	20888.8
0.215268	28.2564	3.23207	28.4407	-6.52532	44.7996	0.246498	-0.00810517	228750	2954.21	1	12	0.00497332	0.000174866	0	-8.55052e-05	0.0349331	0.00399577	0.0351609	6.52532	2.95421e+06	2.58273e+07	2.59957e+07	-83.4747	0.0000000E+000	0.0000000E+000	0.0000000E+000	83.4747	0.0000000E+000	0.0000000E+000	0.0000000E+000	-83.4747	0.0000000E+000	0.0000000E+000	0.0000000E+000	-6.52532	0.0000000E+000	0.0000000E+000	0.0000000E+000	6.52532	8.74253	83.4747	-1.93677e-05	-1.99791e-06	30412.5
0.0999041	29.7696	4.03748	30.0421	-7.72358	80.2061	0.246498	-0.00460699	394572	7126.66	1	12	0.00497084	0.000165462	0	-0.000202934	0.0329846	0.00447352	0.0332866	7.72358	7.12666e+06	5.25471e+07	5.30281e+07	-82.2764	0.0000000E+000	0.0000000E+000	0.0000000E+000	82.2764	0.0000000E+000	0.0000000E+000	0.0000000E+000	-82.2764	0.0000000E+000	0.0000000E+000	0.0000000E+000	-7.72358	0.0000000E+000	0.0000000E+000	0.0000000E+000	7.72358	7.37331	82.2764	-7.37487e-05	-1.13561e-06	53505.3
0.0464052	31.6406	5.21509	32.0675	-9.35951	156.442	0.246495	-0.00357352	657645	17393.4	1	12	0.00496892	0.000154952	0	-0.000406081	0.0307691	0.00507145	0.0311842	9.35951	1.73934e+07	1.05528e+08	1.06952e+08	-80.6405	0.0000000E+000	0.0000000E+000	0.0000000E+000	80.6405	0.0000000E+000	0.0000000E+000	0.0000000E+000	-80.6405	0.0000000E+000	0.0000000E+000	0.0000000E+000	-9.35951	0.0000000E+000	0.0000000E+000	0.0000000E+000	9.35951	6.06712	80.6405	-0.000105906	-8.80854e-07	68978.2
0.0215268	33.357	7.85635	34.2696	-13.253	320.672	0.246496	-0.00262507	941067	49458.7	1	12	0.00496977	0.00014502	0	-0.000431949	0.0284032	0.00668962	0.0291803	13.253	4.94586e+07	2.09995e+08	2.1574e+08	-76.747	0.0000000E+000	0.0000000E+000	0.0000000E+000	76.747	0.0000000E+000	0.0000000E+000	0.0000000E+000	-76.747	0.0000000E+000	0.0000000E+000	0.0000000E+000	-13.253	0.0000000E+000	0.0000000E+000	0.0000000E+000	13.253	4.24586	76.747	3.95674e-05	-6.4707e-07	93900.6
0.0100092	35.8669	12.6146	38.0205	-19.3771	673.886	0.246495	-0.000487873	1.26052e+06	138759	1	12	0.00496951	0.000130706	0	6.07544e-05	0.0248117	0.00872645	0.0263016	19.3771	1.38758e+08	3.94529e+08	4.18219e+08	-70.6229	0.0000000E+000	0.0000000E+000	0.0000000E+000	70.6229	0.0000000E+000	0.0000000E+000	0.0000000E+000	-70.6229	0.0000000E+000	0.0000000E+000	0.0000000E+000	-19.3771	0.0000000E+000	0.0000000E+000	0.0000000E+000	19.3771	2.84328	70.6229	0.000301506	-1.20258e-07	505245