File: txt/17400_R279_UA651_SOC00_C06.mpt
EC-Lab ASCII FILE
Nb header lines : 63

Potentio Electrochemical Impedance Spectroscopy

Run on channel : 6 (SN 65795)
User :
CE vs. WE compliance from -10 V to 10 V
Electrode connection : standard
Potential control : Ewe
Ewe ctrl range : min = -10.00 V, max = 10.00 V
Safety Limits :
	Do not start on E overload
Acquisition started on : 09/11/2025 15:38:54.924
Loaded Setting File :  C:\Users\Celltest\OneDrive - store-dot.com\Documents\EC-Lab\Data\Charmaine\R279\17383.mps
Saved on :
	File : 17400_C06.mpr
	Directory : C:\Users\Celltest\OneDrive - store-dot.com\Documents\EC-Lab\Data\Charmaine\R279\
	Host : 169.254.61.224
Device : VMP-3e (SN .003165)
Address : USB
EC-LAB for windows v11.62 (software)
Internet server v27.00 (firmware)
Command interpretor v12.03 (firmware)
Electrode material :
Initial state :
Electrolyte :
Comments :
Electrode surface area : 0.001 cm²
Characteristic mass : 0.001 g
Equivalent Weight : 0.000 g/eq.
Density : 0.000 g/cm3
Volume (V) : 0.001 cm³
Cycle Definition : Charge/Discharge alternance
Mode                Single sine
E (V)               0.0000
vs.                 Eoc
tE (h:m:s)          0:00:0.0000
record              0
dI                  0.000
unit dI             mA
dt (s)              0.000
fi                  100.000
unit fi             kHz
ff                  10.000
unit ff             mHz
Nd                  6
Points              per decade
spacing             Logarithmic
Va (mV)             5.0
pw                  0.10
Na                  2
corr                0
E range min (V)     -10.000
E range max (V)     10.000
I Range             Auto
Bandwidth           5
nc cycles           0
goto Ns'            0
nr cycles           0
inc. cycle          0

freq/Hz	Re(Z)/Ohm	-Im(Z)/Ohm	|Z|/Ohm	Phase(Z)/deg	time/s	<Ewe>/V	<I>/mA	Cs/µF	Cp/µF	cycle number	I Range	|Ewe|/V	|I|/A	Ns	(Q-Qo)/mA.h	Re(Y)/Ohm-1	Im(Y)/Ohm-1	|Y|/Ohm-1	Phase(Y)/deg	Re(C)/nF	Im(C)/nF	|C|/nF	Phase(C)/deg	Re(M)	Im(M)	|M|	Phase(M)/deg	Re(Permittivity)	Im(Permittivity)	|Permittivity|	Phase(Permittivity)/deg	Re(Resistivity)/Ohm.cm	Im(Resistivity)/Ohm.cm	|Resistivity|/Ohm.cm	Phase(Resistivity)/deg	Re(Conductivity)/mS/cm	Im(Conductivity)/mS/cm	|Conductivity|/mS/cm	Phase(Conductivity)/deg	Tan(Delta)	Loss Angle(Delta)/deg	dq/mA.h	Pwe/W	Rwe/Ohm
100004	2.58529	0.800359	2.70634	-17.2016	2.37549	0.243713	-0.0365304	1.98847	0.173909	1	9	0.00454379	0.00167894	0	-8.64529e-06	0.352974	0.109275	0.369502	17.2016	173.909	561.755	588.059	-72.7984	0.0000000E+000	0.0000000E+000	0.0000000E+000	72.7984	0.0000000E+000	0.0000000E+000	0.0000000E+000	-72.7984	0.0000000E+000	0.0000000E+000	0.0000000E+000	-17.2016	0.0000000E+000	0.0000000E+000	0.0000000E+000	17.2016	3.23016	72.7984	-8.64529e-06	-8.90294e-06	6671.5
46420.4	2.99261	0.900121	3.12505	-16.7403	3.53147	0.243701	-0.0430306	3.809	0.316009	1	9	0.00516493	0.00165276	0	-1.50309e-05	0.306434	0.0921697	0.319995	16.7403	316.009	1050.63	1097.12	-73.2597	0.0000000E+000	0.0000000E+000	0.0000000E+000	73.2597	0.0000000E+000	0.0000000E+000	0.0000000E+000	-73.2597	0.0000000E+000	0.0000000E+000	0.0000000E+000	-16.7403	0.0000000E+000	0.0000000E+000	0.0000000E+000	16.7403	3.32467	73.2597	-4.07311e-06	-1.04866e-05	5663.45
21544.7	3.41828	1.07213	3.58247	-17.4137	4.40648	0.24371	-0.0393614	6.89024	0.617106	1	9	0.00503229	0.0014047	0	-2.26268e-05	0.266344	0.0835372	0.279137	17.4137	617.106	1967.53	2062.04	-72.5863	0.0000000E+000	0.0000000E+000	0.0000000E+000	72.5863	0.0000000E+000	0.0000000E+000	0.0000000E+000	-72.5863	0.0000000E+000	0.0000000E+000	0.0000000E+000	-17.4137	0.0000000E+000	0.0000000E+000	0.0000000E+000	17.4137	3.18832	72.5863	-2.74476e-06	-9.59277e-06	6191.59
10002.2	3.93201	1.33615	4.15283	-18.7685	5.14048	0.243708	-0.0429561	11.9088	1.2328	1	9	0.00482334	0.00116146	0	-2.96089e-05	0.227996	0.0774762	0.2408	18.7685	1232.8	3627.86	3831.6	-71.2315	0.0000000E+000	0.0000000E+000	0.0000000E+000	71.2315	0.0000000E+000	0.0000000E+000	0.0000000E+000	-71.2315	0.0000000E+000	0.0000000E+000	0.0000000E+000	-18.7685	0.0000000E+000	0.0000000E+000	0.0000000E+000	18.7685	2.94278	71.2315	-3.55492e-06	-1.04687e-05	5673.42
4641.49	4.56592	1.69638	4.87087	-20.3815	6.1977	0.243882	-0.00106832	20.2135	2.45173	1	10	0.00477458	0.000980231	0	-2.94641e-05	0.192449	0.0715005	0.205302	20.3815	2451.73	6599.02	7039.74	-69.6185	0.0000000E+000	0.0000000E+000	0.0000000E+000	69.6185	0.0000000E+000	0.0000000E+000	0.0000000E+000	-69.6185	0.0000000E+000	0.0000000E+000	0.0000000E+000	-20.3815	0.0000000E+000	0.0000000E+000	0.0000000E+000	20.3815	2.69158	69.6185	5.42413e-07	-2.60545e-07	228285
2155.69	5.36625	2.23924	5.81471	-22.6499	7.13071	0.243879	-0.0011559	32.9711	4.88965	1	10	0.00468547	0.000805796	0	-2.91694e-05	0.158714	0.0662284	0.171978	22.6499	4889.65	11717.9	12697.1	-67.3501	0.0000000E+000	0.0000000E+000	0.0000000E+000	67.3501	0.0000000E+000	0.0000000E+000	0.0000000E+000	-67.3501	0.0000000E+000	0.0000000E+000	0.0000000E+000	-22.6499	0.0000000E+000	0.0000000E+000	0.0000000E+000	22.6499	2.39646	67.3501	3.65519e-07	-2.819e-07	210987
1000.32	6.44161	3.05261	7.12831	-25.3558	8.06671	0.243883	-0.00096958	52.1206	9.55827	1	10	0.0046171	0.000647712	0	-2.98239e-05	0.126771	0.0600756	0.140286	25.3558	9558.27	20169.8	22320	-64.6442	0.0000000E+000	0.0000000E+000	0.0000000E+000	64.6442	0.0000000E+000	0.0000000E+000	0.0000000E+000	-64.6442	0.0000000E+000	0.0000000E+000	0.0000000E+000	-25.3558	0.0000000E+000	0.0000000E+000	0.0000000E+000	25.3558	2.1102	64.6442	-2.68798e-07	-2.36464e-07	251534
463.961	7.98151	4.21796	9.0275	-27.8549	9.0012	0.243885	-0.000548482	81.3273	17.7544	1	10	0.0045869	0.000508104	0	-3.02439e-05	0.0979378	0.0517569	0.110773	27.8549	17754.4	33596.1	37999	-62.145	0.0000000E+000	0.0000000E+000	0.0000000E+000	62.145	0.0000000E+000	0.0000000E+000	0.0000000E+000	-62.145	0.0000000E+000	0.0000000E+000	0.0000000E+000	-27.8549	0.0000000E+000	0.0000000E+000	0.0000000E+000	27.8549	1.89227	62.145	1.70303e-07	-1.33766e-07	444654
215.345	10.3484	5.71834	11.8232	-28.9244	9.93543	0.243882	-0.0011056	129.246	30.2334	1	10	0.004572	0.000386698	0	-3.0697e-05	0.074029	0.0409073	0.0845796	28.9244	30233.4	54712.7	62510.3	-61.0756	0.0000000E+000	0.0000000E+000	0.0000000E+000	61.0756	0.0000000E+000	0.0000000E+000	0.0000000E+000	-61.0756	0.0000000E+000	0.0000000E+000	0.0000000E+000	-28.9244	0.0000000E+000	0.0000000E+000	0.0000000E+000	28.9244	1.80968	61.0756	-3.97209e-07	-2.69637e-07	220587
100.032	13.8773	7.0751	15.5768	-27.014	10.8667	0.243891	-0.000906236	224.879	46.3937	1	10	0.00456593	0.000293125	0	-3.09605e-05	0.0571938	0.0291593	0.0641982	27.014	46393.7	90997.7	102142	-62.986	0.0000000E+000	0.0000000E+000	0.0000000E+000	62.986	0.0000000E+000	0.0000000E+000	0.0000000E+000	-62.986	0.0000000E+000	0.0000000E+000	0.0000000E+000	-27.014	0.0000000E+000	0.0000000E+000	0.0000000E+000	27.014	1.96142	62.986	-8.89778e-08	-2.21023e-07	269125
46.4415	18.4827	7.32128	19.88	-21.6092	12.0486	0.243918	-0.00703953	468.087	63.4848	1	11	0.00457303	0.000230032	0	-3.17795e-05	0.0467666	0.0185249	0.0503019	21.6092	63484.8	160269	172384	-68.3907	0.0000000E+000	0.0000000E+000	0.0000000E+000	68.3907	0.0000000E+000	0.0000000E+000	0.0000000E+000	-68.3907	0.0000000E+000	0.0000000E+000	0.0000000E+000	-21.6092	0.0000000E+000	0.0000000E+000	0.0000000E+000	21.6092	2.52452	68.3907	-9.05691e-07	-1.71707e-06	34649.7
21.5517	22.4735	5.91762	23.2395	-14.752	12.9343	0.243901	-0.00793096	1247.93	80.9153	1	11	0.00456607	0.000196479	0	-3.29747e-05	0.0416117	0.010957	0.0430301	14.752	80915.3	307294	317769	-75.248	0.0000000E+000	0.0000000E+000	0.0000000E+000	75.248	0.0000000E+000	0.0000000E+000	0.0000000E+000	-75.248	0.0000000E+000	0.0000000E+000	0.0000000E+000	-14.752	0.0000000E+000	0.0000000E+000	0.0000000E+000	14.752	3.79772	75.248	-2.58062e-07	-1.93437e-06	30753
10.0032	24.7884	4.04322	25.116	-9.2639	13.8807	0.243916	-0.00669557	3935.08	101.978	1	11	0.00456446	0.000181735	0	-3.57997e-05	0.039296	0.00640954	0.0398153	9.2639	101978	625215	633477	-80.7361	0.0000000E+000	0.0000000E+000	0.0000000E+000	80.7361	0.0000000E+000	0.0000000E+000	0.0000000E+000	-80.7361	0.0000000E+000	0.0000000E+000	0.0000000E+000	-9.2639	0.0000000E+000	0.0000000E+000	0.0000000E+000	9.2639	6.13086	80.7361	-1.89939e-06	-1.63316e-06	36429.4
4.63925	25.9225	2.84976	26.0787	-6.27355	14.7403	0.243904	-0.00686009	12038.3	143.751	1	11	0.0045615	0.000174913	0	-3.87845e-05	0.0381159	0.00419022	0.0383455	6.27355	143751	1.30761e+06	1.31549e+06	-83.7264	0.0000000E+000	0.0000000E+000	0.0000000E+000	83.7264	0.0000000E+000	0.0000000E+000	0.0000000E+000	-83.7264	0.0000000E+000	0.0000000E+000	0.0000000E+000	-6.27355	0.0000000E+000	0.0000000E+000	0.0000000E+000	6.27355	9.09638	83.7264	-2.85465e-06	-1.6732e-06	35554
2.15577	26.8319	2.46739	26.9451	-5.25399	16.4658	0.243914	-0.00565949	29921.4	250.898	1	11	0.00456714	0.000169498	0	-3.67724e-05	0.0369566	0.00339843	0.0371125	5.25399	250898	2.72841e+06	2.73993e+06	-84.746	0.0000000E+000	0.0000000E+000	0.0000000E+000	84.746	0.0000000E+000	0.0000000E+000	0.0000000E+000	-84.746	0.0000000E+000	0.0000000E+000	0.0000000E+000	-5.25399	0.0000000E+000	0.0000000E+000	0.0000000E+000	5.25399	10.8746	84.746	9.99796e-07	-1.38043e-06	43098.1
1.00006	27.8558	2.64287	27.9809	-5.4198	21.1292	0.243906	-0.00510783	60216.7	537.209	1	12	0.00456897	0.000163289	0	-5.0913e-05	0.0355789	0.0033756	0.0357386	5.4198	537210	5.66219e+06	5.68762e+06	-84.5802	0.0000000E+000	0.0000000E+000	0.0000000E+000	84.5802	0.0000000E+000	0.0000000E+000	0.0000000E+000	-84.5802	0.0000000E+000	0.0000000E+000	0.0000000E+000	-5.4198	0.0000000E+000	0.0000000E+000	0.0000000E+000	5.4198	10.54	84.5802	-1.06501e-05	-1.24583e-06	47751.5
0.464091	29.1663	2.98117	29.3182	-5.83611	28.8145	0.24391	-0.00507424	115035	1189.4	1	12	0.00457037	0.000155889	0	-6.65006e-05	0.0339317	0.00346826	0.0341085	5.83611	1.1894e+06	1.16365e+07	1.16971e+07	-84.1639	0.0000000E+000	0.0000000E+000	0.0000000E+000	84.1639	0.0000000E+000	0.0000000E+000	0.0000000E+000	-84.1639	0.0000000E+000	0.0000000E+000	0.0000000E+000	-5.83611	0.0000000E+000	0.0000000E+000	0.0000000E+000	5.83611	9.78348	84.1639	-6.00005e-06	-1.23766e-06	48068.4
0.215268	30.4864	3.46886	30.6831	-6.49142	45.2928	0.243912	-0.00432176	213135	2724.14	1	12	0.00456699	0.000148844	0	-5.72798e-05	0.0323823	0.00368458	0.0325912	6.49142	2.72414e+06	2.39413e+07	2.40958e+07	-83.5086	0.0000000E+000	0.0000000E+000	0.0000000E+000	83.5086	0.0000000E+000	0.0000000E+000	0.0000000E+000	-83.5086	0.0000000E+000	0.0000000E+000	0.0000000E+000	-6.49142	0.0000000E+000	0.0000000E+000	0.0000000E+000	6.49142	8.78859	83.5086	8.07814e-06	-1.05413e-06	56438.1
0.0999041	32.232	4.30511	32.5182	-7.60777	80.6983	0.243902	-0.00210322	370043	6485.86	1	12	0.00456883	0.0001405	0	-5.28608e-05	0.0304813	0.00407128	0.030752	7.60777	6.48586e+06	4.85591e+07	4.89903e+07	-82.3922	0.0000000E+000	0.0000000E+000	0.0000000E+000	82.3922	0.0000000E+000	0.0000000E+000	0.0000000E+000	-82.3922	0.0000000E+000	0.0000000E+000	0.0000000E+000	-7.60777	0.0000000E+000	0.0000000E+000	0.0000000E+000	7.60777	7.48691	82.3922	-3.90685e-06	-5.12978e-07	115966
0.0464052	34.093	5.52635	34.538	-9.20734	156.935	0.243904	-0.000428335	620605	15889	1	12	0.00456977	0.000132311	0	-0.000157275	0.0285805	0.0046328	0.0289536	9.20734	1.5889e+07	9.80221e+07	9.93015e+07	-80.7927	0.0000000E+000	0.0000000E+000	0.0000000E+000	80.7927	0.0000000E+000	0.0000000E+000	0.0000000E+000	-80.7927	0.0000000E+000	0.0000000E+000	0.0000000E+000	-9.20734	0.0000000E+000	0.0000000E+000	0.0000000E+000	9.20734	6.16918	80.7927	-7.58891e-05	-1.04473e-07	569424
0.0215268	36.1693	7.74504	36.9892	-12.0864	321.165	0.243902	-0.00120206	954591	41851.7	1	12	0.00456871	0.000123514	0	-0.000428568	0.0264356	0.00566073	0.0270349	12.0864	4.18518e+07	1.95448e+08	1.99878e+08	-77.9136	0.0000000E+000	0.0000000E+000	0.0000000E+000	77.9136	0.0000000E+000	0.0000000E+000	0.0000000E+000	-77.9136	0.0000000E+000	0.0000000E+000	0.0000000E+000	-12.0864	0.0000000E+000	0.0000000E+000	0.0000000E+000	12.0864	4.67	77.9136	-0.000146337	-2.93186e-07	202903
0.0100092	38.5694	12.9886	40.6977	-18.6115	674.381	0.243904	-0.00116004	1.22422e+06	124694	1	12	0.00456837	0.000112251	0	-0.000420166	0.0232864	0.00784194	0.0245714	18.6115	1.24694e+08	3.70276e+08	3.90708e+08	-71.3885	0.0000000E+000	0.0000000E+000	0.0000000E+000	71.3885	0.0000000E+000	0.0000000E+000	0.0000000E+000	-71.3885	0.0000000E+000	0.0000000E+000	0.0000000E+000	-18.6115	0.0000000E+000	0.0000000E+000	0.0000000E+000	18.6115	2.96947	71.3885	9.48835e-05	-2.82939e-07	210254