File: txt/17417_R282_UA652_SOC00_C02.mpt
EC-Lab ASCII FILE
Nb header lines : 63

Potentio Electrochemical Impedance Spectroscopy

Run on channel : 2 (SN 66139)
User :
CE vs. WE compliance from -10 V to 10 V
Electrode connection : standard
Potential control : Ewe
Ewe ctrl range : min = -10.00 V, max = 10.00 V
Safety Limits :
	Do not start on E overload
Acquisition started on : 09/08/2025 17:23:55.952
Loaded Setting File :  C:\Users\Celltest\OneDrive - store-dot.com\Documents\EC-Lab\Data\Gyutae\R270\17153_C01.mpr
Saved on :
	File : 17417_C02.mpr
	Directory : C:\Users\Celltest\OneDrive - store-dot.com\Documents\EC-Lab\Data\Gyutae\R282\
	Host : 169.254.61.224
Device : VMP-3e (SN .003165)
Address : USB
EC-LAB for windows v11.62 (software)
Internet server v27.00 (firmware)
Command interpretor v12.03 (firmware)
Electrode material :
Initial state :
Electrolyte :
Comments :
Electrode surface area : 0.001 cm²
Characteristic mass : 0.001 g
Equivalent Weight : 0.000 g/eq.
Density : 0.000 g/cm3
Volume (V) : 0.001 cm³
Cycle Definition : Charge/Discharge alternance
Mode                Single sine
E (V)               0.0000
vs.                 Eoc
tE (h:m:s)          0:00:0.0000
record              0
dI                  0.000
unit dI             mA
dt (s)              0.000
fi                  100.000
unit fi             kHz
ff                  10.000
unit ff             mHz
Nd                  6
Points              per decade
spacing             Logarithmic
Va (mV)             5.0
pw                  0.10
Na                  2
corr                0
E range min (V)     -10.000
E range max (V)     10.000
I Range             Auto
Bandwidth           5
nc cycles           0
goto Ns'            0
nr cycles           0
inc. cycle          0

freq/Hz	Re(Z)/Ohm	-Im(Z)/Ohm	|Z|/Ohm	Phase(Z)/deg	time/s	<Ewe>/V	<I>/mA	Cs/µF	Cp/µF	cycle number	I Range	|Ewe|/V	|I|/A	Ns	(Q-Qo)/mA.h	Re(Y)/Ohm-1	Im(Y)/Ohm-1	|Y|/Ohm-1	Phase(Y)/deg	Re(C)/nF	Im(C)/nF	|C|/nF	Phase(C)/deg	Re(M)	Im(M)	|M|	Phase(M)/deg	Re(Permittivity)	Im(Permittivity)	|Permittivity|	Phase(Permittivity)/deg	Re(Resistivity)/Ohm.cm	Im(Resistivity)/Ohm.cm	|Resistivity|/Ohm.cm	Phase(Resistivity)/deg	Re(Conductivity)/mS/cm	Im(Conductivity)/mS/cm	|Conductivity|/mS/cm	Phase(Conductivity)/deg	Tan(Delta)	Loss Angle(Delta)/deg	dq/mA.h	Pwe/W	Rwe/Ohm
100004	1.2334	0.217462	1.25243	-9.99906	2.02549	0.274066	-0.000966089	7.31849	0.220638	1	9	0.00483077	0.00385712	0	-1.42761e-05	0.786321	0.138636	0.798449	9.99906	220.638	1251.42	1270.72	-80.0009	0.0000000E+000	0.0000000E+000	0.0000000E+000	80.0009	0.0000000E+000	0.0000000E+000	0.0000000E+000	-80.0009	0.0000000E+000	0.0000000E+000	0.0000000E+000	-9.99906	0.0000000E+000	0.0000000E+000	0.0000000E+000	9.99906	5.67183	80.0009	-1.42761e-05	-2.64772e-07	283686
46420.4	1.34858	0.301086	1.38178	-12.5855	3.04148	0.274049	-0.00199035	11.3873	0.540659	1	9	0.00510768	0.00369645	0	-1.0411e-05	0.706315	0.157693	0.723704	12.5855	540.659	2421.64	2481.26	-77.4145	0.0000000E+000	0.0000000E+000	0.0000000E+000	77.4145	0.0000000E+000	0.0000000E+000	0.0000000E+000	-77.4145	0.0000000E+000	0.0000000E+000	0.0000000E+000	-12.5855	0.0000000E+000	0.0000000E+000	0.0000000E+000	12.5855	4.47905	77.4145	1.24018e-06	-5.45453e-07	137689
21544.7	1.49962	0.392023	1.55001	-14.6501	4.05649	0.274046	0.00136178	18.8438	1.20537	1	9	0.00508183	0.00327858	0	-6.44106e-06	0.624182	0.163171	0.645157	14.6501	1205.37	4610.96	4765.9	-75.3499	0.0000000E+000	0.0000000E+000	0.0000000E+000	75.3499	0.0000000E+000	0.0000000E+000	0.0000000E+000	-75.3499	0.0000000E+000	0.0000000E+000	0.0000000E+000	-14.6501	0.0000000E+000	0.0000000E+000	0.0000000E+000	14.6501	3.82533	75.3499	-1.57766e-06	3.7319e-07	201241
10002.2	1.69708	0.513707	1.77312	-16.8411	5.07248	0.274037	-0.00321947	30.9748	2.59992	1	9	0.00507321	0.00286117	0	-7.26463e-06	0.539788	0.163394	0.563976	16.8411	2599.92	8589.09	8973.96	-73.1589	0.0000000E+000	0.0000000E+000	0.0000000E+000	73.1589	0.0000000E+000	0.0000000E+000	0.0000000E+000	-73.1589	0.0000000E+000	0.0000000E+000	0.0000000E+000	-16.8411	0.0000000E+000	0.0000000E+000	0.0000000E+000	16.8411	3.30359	73.1589	-5.13564e-06	-8.82253e-07	85118.6
4641.49	1.95236	0.672184	2.06483	-18.9982	6.32171	0.274043	-0.00502591	51.0123	5.40606	1	9	0.00532077	0.00257685	0	-9.00608e-06	0.45792	0.157659	0.484301	18.9982	5406.06	15701.9	16606.5	-71.0018	0.0000000E+000	0.0000000E+000	0.0000000E+000	71.0018	0.0000000E+000	0.0000000E+000	0.0000000E+000	-71.0018	0.0000000E+000	0.0000000E+000	0.0000000E+000	-18.9982	0.0000000E+000	0.0000000E+000	0.0000000E+000	18.9982	2.9045	71.0018	-5.47782e-06	-1.37731e-06	54526.1
2155.69	2.28421	0.879617	2.44772	-21.061	7.70169	0.274041	0.00151072	83.9344	10.8394	1	9	0.00505772	0.0020663	0	-8.49716e-06	0.381252	0.146815	0.408544	21.061	10839.4	28147.9	30162.9	-68.939	0.0000000E+000	0.0000000E+000	0.0000000E+000	68.939	0.0000000E+000	0.0000000E+000	0.0000000E+000	-68.939	0.0000000E+000	0.0000000E+000	0.0000000E+000	-21.061	0.0000000E+000	0.0000000E+000	0.0000000E+000	21.061	2.59682	68.939	-1.31005e-06	4.14e-07	181397
1000.32	2.72856	1.14806	2.96025	-22.8192	8.63771	0.274041	-0.00258633	138.585	20.8444	1	9	0.00503259	0.00170006	0	-1.00588e-05	0.31137	0.131011	0.33781	22.8192	20844.4	49540.2	53746.9	-67.1808	0.0000000E+000	0.0000000E+000	0.0000000E+000	67.1808	0.0000000E+000	0.0000000E+000	0.0000000E+000	-67.1808	0.0000000E+000	0.0000000E+000	0.0000000E+000	-22.8192	0.0000000E+000	0.0000000E+000	0.0000000E+000	22.8192	2.37667	67.1808	-5.48986e-08	-7.0876e-07	105957
463.961	3.29507	1.4981	3.61964	-24.4488	9.82621	0.274047	-0.0258695	228.98	39.2237	1	10	0.00494515	0.0013662	0	-1.74056e-05	0.251498	0.114343	0.276271	24.4488	39223.7	86272.6	94770.6	-65.5512	0.0000000E+000	0.0000000E+000	0.0000000E+000	65.5512	0.0000000E+000	0.0000000E+000	0.0000000E+000	-65.5512	0.0000000E+000	0.0000000E+000	0.0000000E+000	-24.4488	0.0000000E+000	0.0000000E+000	0.0000000E+000	24.4488	2.1995	65.5512	-2.79151e-06	-7.08947e-06	10593.4
215.345	4.05539	2.00979	4.52609	-26.3624	10.7604	0.274044	-0.0258546	367.735	72.509	1	10	0.00485088	0.00107176	0	-2.29865e-05	0.197964	0.0981083	0.220941	26.3624	72509	146310	163291	-63.6376	0.0000000E+000	0.0000000E+000	0.0000000E+000	63.6376	0.0000000E+000	0.0000000E+000	0.0000000E+000	-63.6376	0.0000000E+000	0.0000000E+000	0.0000000E+000	-26.3624	0.0000000E+000	0.0000000E+000	0.0000000E+000	26.3624	2.01781	63.6376	-3.12466e-06	-7.08531e-06	10599.4
100.032	5.19509	2.64319	5.82885	-26.9663	11.6917	0.27405	-0.0246849	601.94	123.778	1	10	0.00481149	0.000825462	0	-3.021e-05	0.152907	0.077797	0.171561	26.9663	123778	243282	272960	-63.0337	0.0000000E+000	0.0000000E+000	0.0000000E+000	63.0337	0.0000000E+000	0.0000000E+000	0.0000000E+000	-63.0337	0.0000000E+000	0.0000000E+000	0.0000000E+000	-26.9663	0.0000000E+000	0.0000000E+000	0.0000000E+000	26.9663	1.96547	63.0337	-3.6989e-06	-6.76491e-06	11101.9
46.4415	6.84512	3.14027	7.53107	-24.6438	12.6256	0.274044	-0.0259329	1091.31	189.744	1	10	0.00479773	0.000637059	0	-3.74545e-05	0.120689	0.0553674	0.132783	24.6438	189744	413601	455048	-65.3562	0.0000000E+000	0.0000000E+000	0.0000000E+000	65.3562	0.0000000E+000	0.0000000E+000	0.0000000E+000	-65.3562	0.0000000E+000	0.0000000E+000	0.0000000E+000	-24.6438	0.0000000E+000	0.0000000E+000	0.0000000E+000	24.6438	2.17979	65.3562	-3.70205e-06	-7.10674e-06	10567.4
21.5517	8.71288	3.11535	9.25309	-19.6749	13.5113	0.274035	-0.0270746	2370.45	268.703	1	10	0.0047954	0.000518248	0	-4.48339e-05	0.101763	0.0363859	0.108072	19.6749	268703	751495	798089	-70.3251	0.0000000E+000	0.0000000E+000	0.0000000E+000	70.3251	0.0000000E+000	0.0000000E+000	0.0000000E+000	-70.3251	0.0000000E+000	0.0000000E+000	0.0000000E+000	-19.6749	0.0000000E+000	0.0000000E+000	0.0000000E+000	19.6749	2.79675	70.3251	-4.48653e-06	-7.41941e-06	10121.5
10.0032	10.2677	2.70081	10.617	-14.7372	14.4587	0.274045	-0.0241839	5890.97	381.217	1	10	0.00479011	0.000451173	0	-5.14209e-05	0.0910901	0.0239602	0.0941886	14.7372	381217	1.44928e+06	1.49858e+06	-75.2628	0.0000000E+000	0.0000000E+000	0.0000000E+000	75.2628	0.0000000E+000	0.0000000E+000	0.0000000E+000	-75.2628	0.0000000E+000	0.0000000E+000	0.0000000E+000	-14.7372	0.0000000E+000	0.0000000E+000	0.0000000E+000	14.7372	3.80172	75.2628	-3.05045e-06	-6.62746e-06	11331.7
4.63925	11.5031	2.18342	11.7085	-10.7476	15.5243	0.274054	-0.0222874	15712.1	546.398	1	11	0.00479007	0.000409111	0	-6.25397e-05	0.08391	0.0159271	0.0854082	10.7476	546398	2.87863e+06	2.93003e+06	-79.2524	0.0000000E+000	0.0000000E+000	0.0000000E+000	79.2524	0.0000000E+000	0.0000000E+000	0.0000000E+000	-79.2524	0.0000000E+000	0.0000000E+000	0.0000000E+000	-10.7476	0.0000000E+000	0.0000000E+000	0.0000000E+000	10.7476	5.26838	79.2524	-6.81506e-06	-6.10793e-06	12296.4
2.15577	12.4192	1.75153	12.5421	-8.0277	17.2498	0.274062	-0.0205544	42150.3	822.041	1	11	0.00479105	0.000381997	0	-6.17197e-05	0.07895	0.0111346	0.0797313	8.0277	822041	5.82868e+06	5.88636e+06	-81.9723	0.0000000E+000	0.0000000E+000	0.0000000E+000	81.9723	0.0000000E+000	0.0000000E+000	0.0000000E+000	-81.9723	0.0000000E+000	0.0000000E+000	0.0000000E+000	-8.0277	0.0000000E+000	0.0000000E+000	0.0000000E+000	8.0277	7.0905	81.9723	-1.11116e-06	-5.6332e-06	13333.5
1.00006	13.107	1.41517	13.1832	-6.16239	20.8632	0.274068	-0.0182174	112456	1295.87	1	11	0.00479274	0.00036355	0	-9.81409e-05	0.075416	0.00814271	0.0758543	6.16239	1.29587e+06	1.20021e+07	1.20718e+07	-83.8376	0.0000000E+000	0.0000000E+000	0.0000000E+000	83.8376	0.0000000E+000	0.0000000E+000	0.0000000E+000	-83.8376	0.0000000E+000	0.0000000E+000	0.0000000E+000	-6.16239	0.0000000E+000	0.0000000E+000	0.0000000E+000	6.16239	9.26177	83.8376	-2.37578e-05	-4.99281e-06	15044.3
0.464091	13.6566	1.27083	13.7156	-5.31641	28.5479	0.27407	-0.0184663	269855	2316.73	1	11	0.00479338	0.000349485	0	-0.000153653	0.0725962	0.00675552	0.0729099	5.31641	2.31674e+06	2.48961e+07	2.50037e+07	-84.6836	0.0000000E+000	0.0000000E+000	0.0000000E+000	84.6836	0.0000000E+000	0.0000000E+000	0.0000000E+000	-84.6836	0.0000000E+000	0.0000000E+000	0.0000000E+000	-5.31641	0.0000000E+000	0.0000000E+000	0.0000000E+000	5.31641	10.7462	84.6836	-2.63871e-05	-5.06107e-06	14841.6
0.215268	14.1062	1.38895	14.1744	-5.62345	45.028	0.274059	-0.0175738	532297	5111.17	1	11	0.00479268	0.000338123	0	-0.000173296	0.0702104	0.0069132	0.0705499	5.62345	5.11117e+06	5.19089e+07	5.216e+07	-84.3765	0.0000000E+000	0.0000000E+000	0.0000000E+000	84.3765	0.0000000E+000	0.0000000E+000	0.0000000E+000	-84.3765	0.0000000E+000	0.0000000E+000	0.0000000E+000	-5.62345	0.0000000E+000	0.0000000E+000	0.0000000E+000	5.62345	10.156	84.3765	-4.12118e-06	-4.81627e-06	15594.7
0.0999041	14.72	1.85994	14.8371	-7.20141	80.4346	0.274063	-0.0125366	856521	13459.8	1	11	0.00479257	0.000323013	0	-0.00021363	0.0668671	0.00844895	0.0673988	7.20141	1.34598e+07	1.06525e+08	1.07372e+08	-82.7986	0.0000000E+000	0.0000000E+000	0.0000000E+000	82.7986	0.0000000E+000	0.0000000E+000	0.0000000E+000	-82.7986	0.0000000E+000	0.0000000E+000	0.0000000E+000	-7.20141	0.0000000E+000	0.0000000E+000	0.0000000E+000	7.20141	7.91425	82.7986	-3.58636e-05	-3.43581e-06	21861.1
0.0464052	15.546	2.881	15.8107	-10.499	156.67	0.274053	-0.0106799	1.19045e+06	39526.9	1	11	0.00479377	0.000303197	0	-0.000595289	0.0621893	0.011525	0.0632482	10.499	3.95269e+07	2.13289e+08	2.16921e+08	-79.501	0.0000000E+000	0.0000000E+000	0.0000000E+000	79.501	0.0000000E+000	0.0000000E+000	0.0000000E+000	-79.501	0.0000000E+000	0.0000000E+000	0.0000000E+000	-10.499	0.0000000E+000	0.0000000E+000	0.0000000E+000	10.499	5.39606	79.501	-0.000270213	-2.92687e-06	25660.6
0.0215268	16.8822	4.57371	17.4908	-15.1587	352.636	0.27405	-0.0133466	1.61649e+06	110533	1	12	0.00479254	0.000274004	0	-0.00183322	0.0551837	0.0149504	0.057173	15.1587	1.10533e+08	4.07992e+08	4.227e+08	-74.8413	0.0000000E+000	0.0000000E+000	0.0000000E+000	74.8413	0.0000000E+000	0.0000000E+000	0.0000000E+000	-74.8413	0.0000000E+000	0.0000000E+000	0.0000000E+000	-15.1587	0.0000000E+000	0.0000000E+000	0.0000000E+000	15.1587	3.69113	74.8413	-0.000653294	-3.65763e-06	20533.4
0.0100092	18.6916	7.88587	20.287	-22.8746	705.852	0.274048	-0.0147752	2.01638e+06	304674	1	12	0.00479424	0.000236321	0	-0.00307001	0.0454162	0.0191608	0.0492926	22.8746	3.04674e+08	7.22158e+08	7.83798e+08	-67.1254	0.0000000E+000	0.0000000E+000	0.0000000E+000	67.1254	0.0000000E+000	0.0000000E+000	0.0000000E+000	-67.1254	0.0000000E+000	0.0000000E+000	0.0000000E+000	-22.8746	0.0000000E+000	0.0000000E+000	0.0000000E+000	22.8746	2.37026	67.1254	-0.000545759	-4.04913e-06	18547.8