File: txt/17419_R282_UA652_SOC00_C04.mpt
EC-Lab ASCII FILE
Nb header lines : 63

Potentio Electrochemical Impedance Spectroscopy

Run on channel : 4 (SN 66756)
User :
CE vs. WE compliance from -10 V to 10 V
Electrode connection : standard
Potential control : Ewe
Ewe ctrl range : min = -10.00 V, max = 10.00 V
Safety Limits :
	Do not start on E overload
Acquisition started on : 09/08/2025 17:24:12.772
Loaded Setting File :  C:\Users\Celltest\OneDrive - store-dot.com\Documents\EC-Lab\Data\Gyutae\R270\17155_C03.mpr
Saved on :
	File : 17419_C04.mpr
	Directory : C:\Users\Celltest\OneDrive - store-dot.com\Documents\EC-Lab\Data\Gyutae\R282\
	Host : 169.254.61.224
Device : VMP-3e (SN .003165)
Address : USB
EC-LAB for windows v11.62 (software)
Internet server v27.00 (firmware)
Command interpretor v12.03 (firmware)
Electrode material :
Initial state :
Electrolyte :
Comments :
Electrode surface area : 0.001 cm²
Characteristic mass : 0.001 g
Equivalent Weight : 0.000 g/eq.
Density : 0.000 g/cm3
Volume (V) : 0.001 cm³
Cycle Definition : Charge/Discharge alternance
Mode                Single sine
E (V)               0.0000
vs.                 Eoc
tE (h:m:s)          0:00:0.0000
record              0
dI                  0.000
unit dI             mA
dt (s)              0.000
fi                  100.000
unit fi             kHz
ff                  10.000
unit ff             mHz
Nd                  6
Points              per decade
spacing             Logarithmic
Va (mV)             5.0
pw                  0.10
Na                  2
corr                0
E range min (V)     -10.000
E range max (V)     10.000
I Range             Auto
Bandwidth           5
nc cycles           0
goto Ns'            0
nr cycles           0
inc. cycle          0

freq/Hz	Re(Z)/Ohm	-Im(Z)/Ohm	|Z|/Ohm	Phase(Z)/deg	time/s	<Ewe>/V	<I>/mA	Cs/µF	Cp/µF	cycle number	I Range	|Ewe|/V	|I|/A	Ns	(Q-Qo)/mA.h	Re(Y)/Ohm-1	Im(Y)/Ohm-1	|Y|/Ohm-1	Phase(Y)/deg	Re(C)/nF	Im(C)/nF	|C|/nF	Phase(C)/deg	Re(M)	Im(M)	|M|	Phase(M)/deg	Re(Permittivity)	Im(Permittivity)	|Permittivity|	Phase(Permittivity)/deg	Re(Resistivity)/Ohm.cm	Im(Resistivity)/Ohm.cm	|Resistivity|/Ohm.cm	Phase(Resistivity)/deg	Re(Conductivity)/mS/cm	Im(Conductivity)/mS/cm	|Conductivity|/mS/cm	Phase(Conductivity)/deg	Tan(Delta)	Loss Angle(Delta)/deg	dq/mA.h	Pwe/W	Rwe/Ohm
100004	1.80045	0.355093	1.83513	-11.157	1.8655	0.282482	-0.0918859	4.48189	0.167808	1	9	0.00459715	0.00250508	0	-2.89319e-05	0.534621	0.10544	0.54492	11.157	167.808	850.844	867.234	-78.843	0.0000000E+000	0.0000000E+000	0.0000000E+000	78.843	0.0000000E+000	0.0000000E+000	0.0000000E+000	-78.843	0.0000000E+000	0.0000000E+000	0.0000000E+000	-11.157	0.0000000E+000	0.0000000E+000	0.0000000E+000	11.157	5.07036	78.843	-2.89319e-05	-2.59561e-05	3074.27
46420.4	1.9863	0.441728	2.03483	-12.5378	3.0215	0.28249	-0.0926691	7.7617	0.365773	1	9	0.00513777	0.00252492	0	-5.41662e-05	0.479723	0.106684	0.491442	12.5378	365.773	1644.76	1684.94	-77.4622	0.0000000E+000	0.0000000E+000	0.0000000E+000	77.4622	0.0000000E+000	0.0000000E+000	0.0000000E+000	-77.4622	0.0000000E+000	0.0000000E+000	0.0000000E+000	-12.5378	0.0000000E+000	0.0000000E+000	0.0000000E+000	12.5378	4.49666	77.4622	-1.30771e-05	-2.61781e-05	3048.38
21544.7	2.21008	0.588354	2.28705	-14.9072	3.89549	0.282738	-0.0862167	12.5557	0.830932	1	9	0.00496233	0.00216975	0	-7.62838e-05	0.422528	0.112483	0.437244	14.9072	830.932	3121.3	3230.01	-75.0928	0.0000000E+000	0.0000000E+000	0.0000000E+000	75.0928	0.0000000E+000	0.0000000E+000	0.0000000E+000	-75.0928	0.0000000E+000	0.0000000E+000	0.0000000E+000	-14.9072	0.0000000E+000	0.0000000E+000	0.0000000E+000	14.9072	3.75638	75.0928	-5.24719e-06	-2.43767e-05	3279.39
10002.2	2.49369	0.748162	2.60351	-16.7004	4.7695	0.282539	-0.085508	21.2681	1.75631	1	9	0.00503068	0.00193227	0	-9.58448e-05	0.367896	0.110377	0.384097	16.7004	1756.31	5853.94	6111.73	-73.2996	0.0000000E+000	0.0000000E+000	0.0000000E+000	73.2996	0.0000000E+000	0.0000000E+000	0.0000000E+000	-73.2996	0.0000000E+000	0.0000000E+000	0.0000000E+000	-16.7004	0.0000000E+000	0.0000000E+000	0.0000000E+000	16.7004	3.33309	73.2996	-9.59409e-06	-2.41593e-05	3304.24
4641.49	2.86051	0.990545	3.02716	-19.1001	5.61871	0.282577	-0.0344667	34.617	3.70652	1	9	0.00473891	0.00156546	0	-0.000109736	0.312157	0.108094	0.330343	19.1001	3706.52	10703.7	11327.3	-70.8999	0.0000000E+000	0.0000000E+000	0.0000000E+000	70.8999	0.0000000E+000	0.0000000E+000	0.0000000E+000	-70.8999	0.0000000E+000	0.0000000E+000	0.0000000E+000	-19.1001	0.0000000E+000	0.0000000E+000	0.0000000E+000	19.1001	2.88781	70.8999	-3.76649e-06	-9.7395e-06	8198.56
2155.69	3.37852	1.31183	3.62427	-21.2204	6.80668	0.282488	-0.0559884	56.2804	7.37343	1	10	0.00479806	0.00132387	0	-0.000124417	0.257209	0.0998702	0.275918	21.2204	7373.44	18989.8	20371.1	-68.7796	0.0000000E+000	0.0000000E+000	0.0000000E+000	68.7796	0.0000000E+000	0.0000000E+000	0.0000000E+000	-68.7796	0.0000000E+000	0.0000000E+000	0.0000000E+000	-21.2204	0.0000000E+000	0.0000000E+000	0.0000000E+000	21.2204	2.57543	68.7796	-9.57151e-06	-1.58161e-05	5045.47
1000.32	4.05492	1.7158	4.403	-22.9352	7.74367	0.282649	-0.0572194	92.7286	14.0816	1	10	0.0047107	0.00106989	0	-0.000138688	0.209164	0.0885056	0.227118	22.9352	14081.6	33278.8	36135.4	-67.0648	0.0000000E+000	0.0000000E+000	0.0000000E+000	67.0648	0.0000000E+000	0.0000000E+000	0.0000000E+000	-67.0648	0.0000000E+000	0.0000000E+000	0.0000000E+000	-22.9352	0.0000000E+000	0.0000000E+000	0.0000000E+000	22.9352	2.36328	67.0648	-6.24693e-06	-1.6173e-05	4939.74
463.961	4.94408	2.19495	5.40941	-23.9391	8.67819	0.2825	-0.0543882	156.284	25.7314	1	10	0.00466146	0.00086173	0	-0.000152126	0.168961	0.0750109	0.184863	23.9391	25731.4	57959.4	63414.5	-66.0609	0.0000000E+000	0.0000000E+000	0.0000000E+000	66.0609	0.0000000E+000	0.0000000E+000	0.0000000E+000	-66.0609	0.0000000E+000	0.0000000E+000	0.0000000E+000	-23.9391	0.0000000E+000	0.0000000E+000	0.0000000E+000	23.9391	2.25248	66.0609	-6.77536e-06	-1.53647e-05	5194.14
215.345	6.06912	2.79102	6.68012	-24.6964	9.61241	0.282487	-0.0542278	264.803	46.2255	1	10	0.00463668	0.000694101	0	-0.000164813	0.136006	0.0625454	0.149698	24.6964	46225.5	100518	110637	-65.3036	0.0000000E+000	0.0000000E+000	0.0000000E+000	65.3036	0.0000000E+000	0.0000000E+000	0.0000000E+000	-65.3036	0.0000000E+000	0.0000000E+000	0.0000000E+000	-24.6964	0.0000000E+000	0.0000000E+000	0.0000000E+000	24.6964	2.17451	65.3036	-6.34228e-06	-1.53187e-05	5209.26
100.032	7.55391	3.55514	8.34869	-25.2034	10.5417	0.282512	-0.0534165	447.532	81.1524	1	10	0.00463284	0.000554918	0	-0.000179137	0.108377	0.0510059	0.119779	25.2034	81152.4	172431	190574	-64.7966	0.0000000E+000	0.0000000E+000	0.0000000E+000	64.7966	0.0000000E+000	0.0000000E+000	0.0000000E+000	-64.7966	0.0000000E+000	0.0000000E+000	0.0000000E+000	-25.2034	0.0000000E+000	0.0000000E+000	0.0000000E+000	25.2034	2.12479	64.7966	-7.1043e-06	-1.50908e-05	5288.85
46.4415	9.60289	4.28517	10.5156	-24.0482	11.4755	0.28256	-0.0563466	799.733	132.804	1	10	0.00461015	0.000438409	0	-0.000192987	0.0868425	0.0387524	0.0950967	24.0482	132804	297609	325896	-65.9518	0.0000000E+000	0.0000000E+000	0.0000000E+000	65.9518	0.0000000E+000	0.0000000E+000	0.0000000E+000	-65.9518	0.0000000E+000	0.0000000E+000	0.0000000E+000	-24.0482	0.0000000E+000	0.0000000E+000	0.0000000E+000	24.0482	2.24096	65.9518	-7.16545e-06	-1.59213e-05	5014.67
21.5517	12.3789	4.47214	13.1619	-19.8634	12.3604	0.282552	-0.0595508	1651.29	190.64	1	10	0.00466054	0.000354092	0	-0.000207657	0.0714565	0.0258152	0.0759766	19.8634	190640	527691	561072	-70.1366	0.0000000E+000	0.0000000E+000	0.0000000E+000	70.1366	0.0000000E+000	0.0000000E+000	0.0000000E+000	-70.1366	0.0000000E+000	0.0000000E+000	0.0000000E+000	-19.8634	0.0000000E+000	0.0000000E+000	0.0000000E+000	19.8634	2.768	70.1366	-7.92538e-06	-1.68262e-05	4744.72
10.0032	14.7221	4.20307	15.3104	-15.9337	13.5667	0.282519	-0.0439335	3785.43	285.283	1	11	0.00462606	0.000302152	0	-0.000219954	0.0628058	0.0179306	0.0653152	15.9337	285283	999266	1.03919e+06	-74.0663	0.0000000E+000	0.0000000E+000	0.0000000E+000	74.0663	0.0000000E+000	0.0000000E+000	0.0000000E+000	-74.0663	0.0000000E+000	0.0000000E+000	0.0000000E+000	-15.9337	0.0000000E+000	0.0000000E+000	0.0000000E+000	15.9337	3.50272	74.0663	-3.3135e-06	-1.24121e-05	6430.61
4.63925	16.7416	3.50929	17.1055	-11.8386	14.4273	0.282527	-0.04266	9775.82	411.454	1	11	0.00463902	0.000271201	0	-0.000228782	0.0572174	0.0119936	0.0584609	11.8386	411454	1.96291e+06	2.00557e+06	-78.1614	0.0000000E+000	0.0000000E+000	0.0000000E+000	78.1614	0.0000000E+000	0.0000000E+000	0.0000000E+000	-78.1614	0.0000000E+000	0.0000000E+000	0.0000000E+000	-11.8386	0.0000000E+000	0.0000000E+000	0.0000000E+000	11.8386	4.77066	78.1614	-1.86113e-06	-1.20526e-05	6622.74
2.15577	18.1745	2.84255	18.3954	-8.88924	16.1528	0.282533	-0.0398004	25972.3	620.164	1	11	0.0046097	0.000250589	0	-0.000254961	0.0537084	0.00840018	0.0543613	8.88924	620164	3.96516e+06	4.01336e+06	-81.1108	0.0000000E+000	0.0000000E+000	0.0000000E+000	81.1108	0.0000000E+000	0.0000000E+000	0.0000000E+000	-81.1108	0.0000000E+000	0.0000000E+000	0.0000000E+000	-8.88924	0.0000000E+000	0.0000000E+000	0.0000000E+000	8.88924	6.39372	81.1108	-1.64638e-05	-1.12449e-05	7098.74
1.00006	19.4092	2.35301	19.5513	-6.91232	20.8163	0.282551	-0.0378927	67634.5	979.631	1	12	0.00462028	0.000236315	0	-0.000299899	0.0507756	0.0061556	0.0511474	6.91232	979631	8.08067e+06	8.13984e+06	-83.0877	0.0000000E+000	0.0000000E+000	0.0000000E+000	83.0877	0.0000000E+000	0.0000000E+000	0.0000000E+000	-83.0877	0.0000000E+000	0.0000000E+000	0.0000000E+000	-6.91232	0.0000000E+000	0.0000000E+000	0.0000000E+000	6.91232	8.24869	83.0877	-2.71079e-05	-1.07066e-05	7456.61
0.464091	20.2622	2.04836	20.3655	-5.77255	28.502	0.28256	-0.0339738	167422	1693.68	1	12	0.00461806	0.000226759	0	-0.000356328	0.0488536	0.00493872	0.0491026	5.77255	1.69368e+06	1.67538e+07	1.68392e+07	-84.2275	0.0000000E+000	0.0000000E+000	0.0000000E+000	84.2275	0.0000000E+000	0.0000000E+000	0.0000000E+000	-84.2275	0.0000000E+000	0.0000000E+000	0.0000000E+000	-5.77255	0.0000000E+000	0.0000000E+000	0.0000000E+000	5.77255	9.89196	84.2275	-3.53444e-05	-9.59963e-06	8317
0.215268	21.0439	1.99436	21.1382	-5.41384	44.982	0.282564	-0.028674	370712	3299.97	1	12	0.00462578	0.000218835	0	-0.000521207	0.0470967	0.00446343	0.0473077	5.41384	3.29997e+06	3.48202e+07	3.49762e+07	-84.5862	0.0000000E+000	0.0000000E+000	0.0000000E+000	84.5862	0.0000000E+000	0.0000000E+000	0.0000000E+000	-84.5862	0.0000000E+000	0.0000000E+000	0.0000000E+000	-5.41384	0.0000000E+000	0.0000000E+000	0.0000000E+000	5.41384	10.5517	84.5862	-0.00010228	-8.10223e-06	9854.38
0.0999041	21.8691	2.50191	22.0117	-6.5265	80.3886	0.282559	-0.0245969	636744	8226.22	1	12	0.00462301	0.000210025	0	-0.000863969	0.0451359	0.00516373	0.0454303	6.5265	8.22622e+06	7.1905e+07	7.2374e+07	-83.4735	0.0000000E+000	0.0000000E+000	0.0000000E+000	83.4735	0.0000000E+000	0.0000000E+000	0.0000000E+000	-83.4735	0.0000000E+000	0.0000000E+000	0.0000000E+000	-6.5265	0.0000000E+000	0.0000000E+000	0.0000000E+000	6.5265	8.74094	83.4735	-0.000194174	-6.95008e-06	11487.6
0.0464052	23.0498	3.69363	23.3439	-9.104	156.625	0.282561	-0.0222595	928538	23246.7	1	12	0.00463202	0.000198425	0	-0.00133772	0.0422981	0.00677809	0.0428378	9.104	2.32467e+07	1.45069e+08	1.4692e+08	-80.896	0.0000000E+000	0.0000000E+000	0.0000000E+000	80.896	0.0000000E+000	0.0000000E+000	0.0000000E+000	-80.896	0.0000000E+000	0.0000000E+000	0.0000000E+000	-9.104	0.0000000E+000	0.0000000E+000	0.0000000E+000	9.104	6.24042	80.896	-0.00024204	-6.28966e-06	12693.9
0.0215268	24.5553	5.51782	25.1676	-12.6646	320.854	0.282412	-0.0187632	1.3399e+06	64405.7	1	12	0.0046297	0.000183955	0	-0.00184699	0.0387669	0.0087113	0.0397336	12.6646	6.44057e+07	2.86617e+08	2.93764e+08	-77.3354	0.0000000E+000	0.0000000E+000	0.0000000E+000	77.3354	0.0000000E+000	0.0000000E+000	0.0000000E+000	-77.3354	0.0000000E+000	0.0000000E+000	0.0000000E+000	-12.6646	0.0000000E+000	0.0000000E+000	0.0000000E+000	12.6646	4.45018	77.3354	-0.000274231	-5.29894e-06	15051.4
0.0100092	26.9022	9.12681	28.4082	-18.7399	674.07	0.282555	-0.0174101	1.74222e+06	179826	1	12	0.00462655	0.000162859	0	-0.00331881	0.0333349	0.0113092	0.0352011	18.7399	1.79826e+08	5.30056e+08	5.59729e+08	-71.2601	0.0000000E+000	0.0000000E+000	0.0000000E+000	71.2601	0.0000000E+000	0.0000000E+000	0.0000000E+000	-71.2601	0.0000000E+000	0.0000000E+000	0.0000000E+000	-18.7399	0.0000000E+000	0.0000000E+000	0.0000000E+000	18.7399	2.9476	71.2601	-0.000982474	-4.91931e-06	16229.4