File: txt/17416_R282_UA652_SOC00_C01.mpt
EC-Lab ASCII FILE
Nb header lines : 63

Potentio Electrochemical Impedance Spectroscopy

Run on channel : 1 (SN 66354)
User :
CE vs. WE compliance from -10 V to 10 V
Electrode connection : standard
Potential control : Ewe
Ewe ctrl range : min = -10.00 V, max = 10.00 V
Safety Limits :
	Do not start on E overload
Acquisition started on : 09/08/2025 17:23:47.822
Loaded Setting File :  C:\Users\Celltest\OneDrive - store-dot.com\Documents\EC-Lab\Data\Gyutae\EIS_SOC0_C01.mpr
Saved on :
	File : 17416_C01.mpr
	Directory : C:\Users\Celltest\OneDrive - store-dot.com\Documents\EC-Lab\Data\Gyutae\R282\
	Host : 169.254.61.224
Device : VMP-3e (SN .003165)
Address : USB
EC-LAB for windows v11.62 (software)
Internet server v27.00 (firmware)
Command interpretor v12.03 (firmware)
Electrode material :
Initial state :
Electrolyte :
Comments :
Electrode surface area : 0.001 cm²
Characteristic mass : 0.001 g
Equivalent Weight : 0.000 g/eq.
Density : 0.000 g/cm3
Volume (V) : 0.001 cm³
Cycle Definition : Charge/Discharge alternance
Mode                Single sine
E (V)               0.0000
vs.                 Eoc
tE (h:m:s)          0:00:0.0000
record              0
dI                  0.000
unit dI             mA
dt (s)              0.000
fi                  100.000
unit fi             kHz
ff                  10.000
unit ff             mHz
Nd                  6
Points              per decade
spacing             Logarithmic
Va (mV)             5.0
pw                  0.10
Na                  2
corr                0
E range min (V)     -10.000
E range max (V)     10.000
I Range             Auto
Bandwidth           5
nc cycles           0
goto Ns'            0
nr cycles           0
inc. cycle          0

freq/Hz	Re(Z)/Ohm	-Im(Z)/Ohm	|Z|/Ohm	Phase(Z)/deg	time/s	<Ewe>/V	<I>/mA	Cs/µF	Cp/µF	cycle number	I Range	|Ewe|/V	|I|/A	Ns	(Q-Qo)/mA.h	Re(Y)/Ohm-1	Im(Y)/Ohm-1	|Y|/Ohm-1	Phase(Y)/deg	Re(C)/nF	Im(C)/nF	|C|/nF	Phase(C)/deg	Re(M)	Im(M)	|M|	Phase(M)/deg	Re(Permittivity)	Im(Permittivity)	|Permittivity|	Phase(Permittivity)/deg	Re(Resistivity)/Ohm.cm	Im(Resistivity)/Ohm.cm	|Resistivity|/Ohm.cm	Phase(Resistivity)/deg	Re(Conductivity)/mS/cm	Im(Conductivity)/mS/cm	|Conductivity|/mS/cm	Phase(Conductivity)/deg	Tan(Delta)	Loss Angle(Delta)/deg	dq/mA.h	Pwe/W	Rwe/Ohm
100004	1.27065	0.352566	1.31865	-15.5077	2.02549	0.271025	0.0526545	4.51402	0.322688	1	9	0.00494208	0.00374782	0	6.14091e-06	0.730741	0.202758	0.75835	15.5077	322.688	1162.97	1206.91	-74.4923	0.0000000E+000	0.0000000E+000	0.0000000E+000	74.4923	0.0000000E+000	0.0000000E+000	0.0000000E+000	-74.4923	0.0000000E+000	0.0000000E+000	0.0000000E+000	-15.5077	0.0000000E+000	0.0000000E+000	0.0000000E+000	15.5077	3.604	74.4923	6.14091e-06	1.42707e-05	5147.24
46420.4	1.45524	0.458341	1.52572	-17.4823	2.89949	0.271038	0.0556721	7.48037	0.675077	1	9	0.00545379	0.00357458	0	1.66718e-05	0.625156	0.196898	0.65543	17.4823	675.077	2143.38	2247.18	-72.5177	0.0000000E+000	0.0000000E+000	0.0000000E+000	72.5177	0.0000000E+000	0.0000000E+000	0.0000000E+000	-72.5177	0.0000000E+000	0.0000000E+000	0.0000000E+000	-17.4823	0.0000000E+000	0.0000000E+000	0.0000000E+000	17.4823	3.17502	72.5177	4.92629e-06	1.50893e-05	4868.48
21544.7	1.68098	0.591825	1.78212	-19.3957	3.7735	0.271045	0.0535113	12.4821	1.37658	1	9	0.00536966	0.00301308	0	3.90393e-05	0.529284	0.186346	0.56113	19.3957	1376.58	3909.93	4145.18	-70.6043	0.0000000E+000	0.0000000E+000	0.0000000E+000	70.6043	0.0000000E+000	0.0000000E+000	0.0000000E+000	-70.6043	0.0000000E+000	0.0000000E+000	0.0000000E+000	-19.3957	0.0000000E+000	0.0000000E+000	0.0000000E+000	19.3957	2.84033	70.6043	1.29403e-05	1.4504e-05	5065.2
10002.2	1.97573	0.759867	2.11682	-21.0367	4.64949	0.271039	0.0544054	20.9404	2.69832	1	9	0.00522883	0.00247014	0	5.21106e-05	0.440921	0.169578	0.472407	21.0367	2698.32	7015.92	7516.92	-68.9633	0.0000000E+000	0.0000000E+000	0.0000000E+000	68.9633	0.0000000E+000	0.0000000E+000	0.0000000E+000	-68.9633	0.0000000E+000	0.0000000E+000	0.0000000E+000	-21.0367	0.0000000E+000	0.0000000E+000	0.0000000E+000	21.0367	2.6001	68.9633	7.82812e-06	1.4746e-05	4981.84
4641.49	2.3595	0.977911	2.55413	-22.5119	5.89769	0.271025	0.0581867	35.0642	5.14017	1	9	0.00499576	0.00195596	0	7.56499e-05	0.361689	0.149905	0.391523	22.5119	5140.17	12402.2	13425.2	-67.4881	0.0000000E+000	0.0000000E+000	0.0000000E+000	67.4881	0.0000000E+000	0.0000000E+000	0.0000000E+000	-67.4881	0.0000000E+000	0.0000000E+000	0.0000000E+000	-22.5119	0.0000000E+000	0.0000000E+000	0.0000000E+000	22.5119	2.4128	67.4881	1.26572e-05	1.577e-05	4657.85
2155.69	2.8591	1.27157	3.12912	-23.9769	6.83071	0.271037	0.0639052	58.0621	9.58808	1	9	0.00492703	0.00157458	0	8.9004e-05	0.292002	0.129867	0.319579	23.9769	9588.08	21558.6	23594.6	-66.0231	0.0000000E+000	0.0000000E+000	0.0000000E+000	66.0231	0.0000000E+000	0.0000000E+000	0.0000000E+000	-66.0231	0.0000000E+000	0.0000000E+000	0.0000000E+000	-23.9769	0.0000000E+000	0.0000000E+000	0.0000000E+000	23.9769	2.24848	66.0231	7.20916e-06	1.73207e-05	4241.24
1000.32	3.55388	1.62996	3.90984	-24.6382	8.0207	0.271049	-0.0170568	97.612	16.9645	1	10	0.00486567	0.00124447	0	8.81442e-05	0.23248	0.106625	0.255765	24.6382	16964.5	36988.4	40693.2	-65.3618	0.0000000E+000	0.0000000E+000	0.0000000E+000	65.3618	0.0000000E+000	0.0000000E+000	0.0000000E+000	-65.3618	0.0000000E+000	0.0000000E+000	0.0000000E+000	-24.6382	0.0000000E+000	0.0000000E+000	0.0000000E+000	24.6382	2.18034	65.3618	-3.10829e-06	-4.62322e-06	15891
463.961	4.44681	2.01414	4.88169	-24.3677	8.95522	0.271046	-0.0173102	170.313	28.9927	1	10	0.00475507	0.000974061	0	8.35484e-05	0.186598	0.084518	0.204847	24.3677	28992.7	64009.9	70269.8	-65.6323	0.0000000E+000	0.0000000E+000	0.0000000E+000	65.6323	0.0000000E+000	0.0000000E+000	0.0000000E+000	-65.6323	0.0000000E+000	0.0000000E+000	0.0000000E+000	-24.3677	0.0000000E+000	0.0000000E+000	0.0000000E+000	24.3677	2.2078	65.6323	-1.96792e-06	-4.69185e-06	15658.1
215.345	5.56697	2.36501	6.04851	-23.0172	9.88941	0.271039	-0.0175655	312.502	47.7775	1	10	0.00471038	0.000778767	0	7.80715e-05	0.152168	0.0646453	0.16533	23.0172	47777.5	112463	122191	-66.9828	0.0000000E+000	0.0000000E+000	0.0000000E+000	66.9828	0.0000000E+000	0.0000000E+000	0.0000000E+000	-66.9828	0.0000000E+000	0.0000000E+000	0.0000000E+000	-23.0172	0.0000000E+000	0.0000000E+000	0.0000000E+000	23.0172	2.35389	66.9828	-2.80211e-06	-4.76094e-06	15430.2
100.032	6.89362	2.63504	7.38007	-20.919	10.8207	0.271052	-0.0169133	603.801	76.9746	1	10	0.00468827	0.00063526	0	7.49066e-05	0.126569	0.04838	0.1355	20.919	76974.6	201376	215586	-69.081	0.0000000E+000	0.0000000E+000	0.0000000E+000	69.081	0.0000000E+000	0.0000000E+000	0.0000000E+000	-69.081	0.0000000E+000	0.0000000E+000	0.0000000E+000	-20.919	0.0000000E+000	0.0000000E+000	0.0000000E+000	20.919	2.61613	69.081	-1.42614e-06	-4.58437e-06	16025.9
46.4415	8.37806	2.61258	8.77596	-17.3194	11.7545	0.27104	-0.019019	1311.73	116.25	1	10	0.0046873	0.000534107	0	7.15104e-05	0.108781	0.033922	0.113948	17.3194	116250	372793	390498	-72.6806	0.0000000E+000	0.0000000E+000	0.0000000E+000	72.6806	0.0000000E+000	0.0000000E+000	0.0000000E+000	-72.6806	0.0000000E+000	0.0000000E+000	0.0000000E+000	-17.3194	0.0000000E+000	0.0000000E+000	0.0000000E+000	17.3194	3.20681	72.6806	-1.94623e-06	-5.15491e-06	14251
21.5517	9.70773	2.32823	9.98302	-13.4867	12.6403	0.271028	-0.0207129	3171.85	172.52	1	10	0.00468054	0.00046885	0	6.66618e-05	0.0974078	0.0233616	0.10017	13.4867	172520	719336	739735	-76.5133	0.0000000E+000	0.0000000E+000	0.0000000E+000	76.5133	0.0000000E+000	0.0000000E+000	0.0000000E+000	-76.5133	0.0000000E+000	0.0000000E+000	0.0000000E+000	-13.4867	0.0000000E+000	0.0000000E+000	0.0000000E+000	13.4867	4.16957	76.5133	-2.33278e-06	-5.61379e-06	13085
10.0032	10.7924	1.90663	10.9595	-10.0187	13.5857	0.271034	-0.0175786	8344.8	252.561	1	10	0.00468426	0.000427416	0	6.56812e-05	0.0898538	0.015874	0.0912452	10.0187	252561	1.42961e+06	1.45175e+06	-79.9813	0.0000000E+000	0.0000000E+000	0.0000000E+000	79.9813	0.0000000E+000	0.0000000E+000	0.0000000E+000	-79.9813	0.0000000E+000	0.0000000E+000	0.0000000E+000	-10.0187	0.0000000E+000	0.0000000E+000	0.0000000E+000	10.0187	5.66045	79.9813	3.50801e-07	-4.76439e-06	15418.4
4.63925	11.633	1.50653	11.7302	-7.379	14.6513	0.271066	-0.015895	22771.7	375.614	1	11	0.00468472	0.000399374	0	6.09233e-05	0.0845443	0.0109489	0.0852503	7.379	375614	2.90039e+06	2.92461e+06	-82.621	0.0000000E+000	0.0000000E+000	0.0000000E+000	82.621	0.0000000E+000	0.0000000E+000	0.0000000E+000	-82.621	0.0000000E+000	0.0000000E+000	0.0000000E+000	-7.379	0.0000000E+000	0.0000000E+000	0.0000000E+000	7.379	7.72173	82.621	-3.11546e-06	-4.30859e-06	17053.5
2.15577	12.215	1.17528	12.2714	-5.49586	16.3768	0.271067	-0.0155309	62816.8	576.195	1	11	0.00468776	0.000382006	0	4.93396e-05	0.0811154	0.00780461	0.08149	5.49586	576194	5.98855e+06	6.0162e+06	-84.5041	0.0000000E+000	0.0000000E+000	0.0000000E+000	84.5041	0.0000000E+000	0.0000000E+000	0.0000000E+000	-84.5041	0.0000000E+000	0.0000000E+000	0.0000000E+000	-5.49586	0.0000000E+000	0.0000000E+000	0.0000000E+000	5.49586	10.3933	84.5041	-2.42004e-06	-4.20992e-06	17453.3
1.00006	12.6393	0.971265	12.6766	-4.39424	19.9901	0.271077	-0.0136532	163853	961.891	1	11	0.00468769	0.000369792	0	5.43549e-05	0.0786538	0.00604413	0.0788857	4.39424	961891	1.25173e+07	1.25542e+07	-85.6058	0.0000000E+000	0.0000000E+000	0.0000000E+000	85.6058	0.0000000E+000	0.0000000E+000	0.0000000E+000	-85.6058	0.0000000E+000	0.0000000E+000	0.0000000E+000	-4.39424	0.0000000E+000	0.0000000E+000	0.0000000E+000	4.39424	13.0133	85.6058	1.34198e-06	-3.70108e-06	19854.4
0.464091	12.9772	0.964254	13.013	-4.24947	27.6747	0.271072	-0.0112069	355652	1952.78	1	11	0.00469037	0.000360437	0	1.37785e-05	0.0766349	0.00569425	0.0768462	4.24947	1.95278e+06	2.62811e+07	2.63536e+07	-85.7505	0.0000000E+000	0.0000000E+000	0.0000000E+000	85.7505	0.0000000E+000	0.0000000E+000	0.0000000E+000	-85.7505	0.0000000E+000	0.0000000E+000	0.0000000E+000	-4.24947	0.0000000E+000	0.0000000E+000	0.0000000E+000	4.24947	13.4583	85.7505	-3.07382e-05	-3.03789e-06	24187.9
0.215268	13.3278	1.17813	13.3797	-5.05165	44.1547	0.271076	-0.0116843	627547	4865.65	1	11	0.00468988	0.000350521	0	-0.000108909	0.0744496	0.00658113	0.0747399	5.05165	4.86565e+06	5.50432e+07	5.52578e+07	-84.9484	0.0000000E+000	0.0000000E+000	0.0000000E+000	84.9484	0.0000000E+000	0.0000000E+000	0.0000000E+000	-84.9484	0.0000000E+000	0.0000000E+000	0.0000000E+000	-5.05165	0.0000000E+000	0.0000000E+000	0.0000000E+000	5.05165	11.3126	84.9484	-6.91872e-05	-3.16734e-06	23200
0.0999041	13.8323	1.79291	13.948	-7.38537	79.5602	0.271073	-0.0141694	888542	14681.5	1	11	0.00468819	0.000336119	0	-0.000219561	0.0711	0.00921581	0.0716948	7.38537	1.46815e+07	1.13268e+08	1.14215e+08	-82.6146	0.0000000E+000	0.0000000E+000	0.0000000E+000	82.6146	0.0000000E+000	0.0000000E+000	0.0000000E+000	-82.6146	0.0000000E+000	0.0000000E+000	0.0000000E+000	-7.38537	0.0000000E+000	0.0000000E+000	0.0000000E+000	7.38537	7.715	82.6146	-4.2506e-05	-3.84094e-06	19130.9
0.0464052	14.5741	2.79648	14.84	-10.8619	155.797	0.271072	-0.0124565	1.22643e+06	43551.2	1	11	0.00468772	0.000315885	0	-0.000196029	0.0661784	0.0126983	0.0673857	10.8619	4.35512e+07	2.26971e+08	2.31111e+08	-79.1381	0.0000000E+000	0.0000000E+000	0.0000000E+000	79.1381	0.0000000E+000	0.0000000E+000	0.0000000E+000	-79.1381	0.0000000E+000	0.0000000E+000	0.0000000E+000	-10.8619	0.0000000E+000	0.0000000E+000	0.0000000E+000	10.8619	5.21158	79.1381	3.31476e-05	-3.37661e-06	21761.4
0.0215268	15.7673	4.69738	16.4521	-16.5898	366.581	0.271067	-0.0135943	1.57393e+06	128308	1	12	0.00469024	0.000285084	0	-0.000691331	0.0582523	0.0173545	0.0607825	16.5898	1.28308e+08	4.30679e+08	4.49386e+08	-73.4102	0.0000000E+000	0.0000000E+000	0.0000000E+000	73.4102	0.0000000E+000	0.0000000E+000	0.0000000E+000	-73.4102	0.0000000E+000	0.0000000E+000	0.0000000E+000	-16.5898	0.0000000E+000	0.0000000E+000	0.0000000E+000	16.5898	3.35661	73.4102	-0.000470542	-3.68497e-06	19939.7
0.0100092	17.4348	7.87856	19.1322	-24.3176	719.797	0.27107	-0.0152661	2.01825e+06	342245	1	12	0.00468796	0.000245029	0	-0.00312539	0.0476304	0.0215236	0.0522678	24.3176	3.42245e+08	7.57367e+08	8.31106e+08	-65.6824	0.0000000E+000	0.0000000E+000	0.0000000E+000	65.6824	0.0000000E+000	0.0000000E+000	0.0000000E+000	-65.6824	0.0000000E+000	0.0000000E+000	0.0000000E+000	-24.3176	0.0000000E+000	0.0000000E+000	0.0000000E+000	24.3176	2.21294	65.6824	-0.00157493	-4.1382e-06	17756.3