File: txt/17418_C03.mpt
EC-Lab ASCII FILE
Nb header lines : 64

Potentio Electrochemical Impedance Spectroscopy

Run on channel : 3 (SN 65921)
User :
CE vs. WE compliance from -10 V to 10 V
Electrode connection : standard
Potential control : Ewe
Ewe ctrl range : min = -10.00 V, max = 10.00 V
Safety Limits :
	Do not start on E overload
Acquisition started on : 09/08/2025 17:24:03.900
Technique started on : 09/08/2025 17:24:05.765
Loaded Setting File :  C:\Users\Celltest\OneDrive - store-dot.com\Documents\EC-Lab\Data\Gyutae\R270\17154_C02.mpr
Saved on :
	File : 17418_C03.mpr
	Directory : C:\Users\Celltest\OneDrive - store-dot.com\Documents\EC-Lab\Data\Gyutae\R282\
	Host : 169.254.61.224
Device : VMP-3e (SN .003165)
Address : USB
EC-LAB for windows v11.62 (software)
Internet server v27.00 (firmware)
Command interpretor v12.03 (firmware)
Electrode material :
Initial state :
Electrolyte :
Comments :
Electrode surface area : 0.001 cm²
Characteristic mass : 0.001 g
Equivalent Weight : 0.000 g/eq.
Density : 0.000 g/cm3
Volume (V) : 0.001 cm³
Cycle Definition : Charge/Discharge alternance
Mode                Single sine
E (V)               0.0000
vs.                 Eoc
tE (h:m:s)          0:00:0.0000
record              0
dI                  0.000
unit dI             mA
dt (s)              0.000
fi                  100.000
unit fi             kHz
ff                  10.000
unit ff             mHz
Nd                  6
Points              per decade
spacing             Logarithmic
Va (mV)             5.0
pw                  0.10
Na                  2
corr                0
E range min (V)     -10.000
E range max (V)     10.000
I Range             Auto
Bandwidth           5
nc cycles           0
goto Ns'            0
nr cycles           0
inc. cycle          0

freq/Hz	Re(Z)/Ohm	-Im(Z)/Ohm	|Z|/Ohm	Phase(Z)/deg	time/s	<Ewe>/V	<I>/mA	Cs/µF	Cp/µF	cycle number	I Range	|Ewe|/V	|I|/A	Ns	(Q-Qo)/mA.h	Re(Y)/Ohm-1	Im(Y)/Ohm-1	|Y|/Ohm-1	Phase(Y)/deg	Re(C)/nF	Im(C)/nF	|C|/nF	Phase(C)/deg	Re(M)	Im(M)	|M|	Phase(M)/deg	Re(Permittivity)	Im(Permittivity)	|Permittivity|	Phase(Permittivity)/deg	Re(Resistivity)/Ohm.cm	Im(Resistivity)/Ohm.cm	|Resistivity|/Ohm.cm	Phase(Resistivity)/deg	Re(Conductivity)/mS/cm	Im(Conductivity)/mS/cm	|Conductivity|/mS/cm	Phase(Conductivity)/deg	Tan(Delta)	Loss Angle(Delta)/deg	dq/mA.h	Pwe/W	Rwe/Ohm
100004	1.52759	0.289142	1.55472	-10.7181	1.8655	0.281872	0.0585818	5.50417	0.190377	1	9	0.00461385	0.00296765	0	1.36928e-05	0.631983	0.119622	0.643205	10.7181	190.377	1005.8	1023.65	-79.2819	0.0000000E+000	0.0000000E+000	0.0000000E+000	79.2819	0.0000000E+000	0.0000000E+000	0.0000000E+000	-79.2819	0.0000000E+000	0.0000000E+000	0.0000000E+000	-10.7181	0.0000000E+000	0.0000000E+000	0.0000000E+000	10.7181	5.28318	79.2819	1.36928e-05	1.65126e-05	4811.6
46420.4	1.67196	0.347218	1.70764	-11.7319	3.02249	0.281873	0.0559713	9.87438	0.408246	1	9	0.00508555	0.00297812	0	3.39748e-05	0.573371	0.119072	0.585604	11.7319	408.246	1965.84	2007.78	-78.2681	0.0000000E+000	0.0000000E+000	0.0000000E+000	78.2681	0.0000000E+000	0.0000000E+000	0.0000000E+000	-78.2681	0.0000000E+000	0.0000000E+000	0.0000000E+000	-11.7319	0.0000000E+000	0.0000000E+000	0.0000000E+000	11.7319	4.81532	78.2681	1.05191e-05	1.57768e-05	5036.02
21544.7	1.84184	0.433776	1.89224	-13.2523	3.89747	0.28187	0.0591412	17.03	0.894943	1	9	0.00536592	0.00283576	0	5.13858e-05	0.514402	0.121148	0.528476	13.2523	894.943	3799.99	3903.96	-76.7477	0.0000000E+000	0.0000000E+000	0.0000000E+000	76.7477	0.0000000E+000	0.0000000E+000	0.0000000E+000	-76.7477	0.0000000E+000	0.0000000E+000	0.0000000E+000	-13.2523	0.0000000E+000	0.0000000E+000	0.0000000E+000	13.2523	4.24607	76.7477	4.72191e-06	1.66701e-05	4766.04
10002.2	2.04618	0.552399	2.11943	-15.1078	4.4905	0.281872	0.0531183	28.8052	1.95676	1	9	0.00504621	0.00238093	0	6.12988e-05	0.455517	0.122974	0.471825	15.1078	1956.76	7248.17	7507.65	-74.8922	0.0000000E+000	0.0000000E+000	0.0000000E+000	74.8922	0.0000000E+000	0.0000000E+000	0.0000000E+000	-74.8922	0.0000000E+000	0.0000000E+000	0.0000000E+000	-15.1078	0.0000000E+000	0.0000000E+000	0.0000000E+000	15.1078	3.70417	74.8922	6.13526e-06	1.49726e-05	5306.5
4641.49	2.31914	0.726406	2.43024	-17.3917	5.33971	0.281902	0.0944582	47.2045	4.21739	1	9	0.00476627	0.00196123	0	7.34117e-05	0.39267	0.122993	0.411482	17.3917	4217.39	13464.5	14109.6	-72.6083	0.0000000E+000	0.0000000E+000	0.0000000E+000	72.6083	0.0000000E+000	0.0000000E+000	0.0000000E+000	-72.6083	0.0000000E+000	0.0000000E+000	0.0000000E+000	-17.3917	0.0000000E+000	0.0000000E+000	0.0000000E+000	17.3917	3.19262	72.6083	1.19865e-05	2.6628e-05	2984.41
2155.69	2.67136	0.960401	2.83876	-19.7744	6.27368	0.281899	0.0928359	76.8743	8.79892	1	9	0.004662	0.00164227	0	9.72272e-05	0.331494	0.119178	0.352266	19.7744	8798.92	24474.3	26007.9	-70.2256	0.0000000E+000	0.0000000E+000	0.0000000E+000	70.2256	0.0000000E+000	0.0000000E+000	0.0000000E+000	-70.2256	0.0000000E+000	0.0000000E+000	0.0000000E+000	-19.7744	0.0000000E+000	0.0000000E+000	0.0000000E+000	19.7744	2.78151	70.2256	1.31128e-05	2.61703e-05	3036.53
1000.32	3.12972	1.28666	3.38388	-22.348	7.46471	0.281867	0.0142717	123.657	17.8778	1	10	0.00471123	0.00139226	0	0.000115801	0.273323	0.112365	0.295519	22.348	17877.8	43486.7	47018.2	-67.652	0.0000000E+000	0.0000000E+000	0.0000000E+000	67.652	0.0000000E+000	0.0000000E+000	0.0000000E+000	-67.652	0.0000000E+000	0.0000000E+000	0.0000000E+000	-22.348	0.0000000E+000	0.0000000E+000	0.0000000E+000	22.348	2.43245	67.652	6.44738e-06	4.02272e-06	19750.1
463.961	3.74063	1.7618	4.13476	-25.2199	8.39918	0.281872	0.0138839	194.708	35.3504	1	10	0.00465565	0.00112598	0	0.000119078	0.218798	0.103052	0.241852	25.2199	35350.4	75055.6	82963.8	-64.7801	0.0000000E+000	0.0000000E+000	0.0000000E+000	64.7801	0.0000000E+000	0.0000000E+000	0.0000000E+000	-64.7801	0.0000000E+000	0.0000000E+000	0.0000000E+000	-25.2199	0.0000000E+000	0.0000000E+000	0.0000000E+000	25.2199	2.12319	64.7801	2.43472e-06	3.91347e-06	20302.1
215.345	4.60801	2.49467	5.23996	-28.4301	9.33343	0.281862	0.0132835	296.26	67.1497	1	10	0.00462516	0.000882672	0	0.000122148	0.167826	0.0908568	0.190841	28.4301	67149.7	124035	141045	-61.5699	0.0000000E+000	0.0000000E+000	0.0000000E+000	61.5699	0.0000000E+000	0.0000000E+000	0.0000000E+000	-61.5699	0.0000000E+000	0.0000000E+000	0.0000000E+000	-28.4301	0.0000000E+000	0.0000000E+000	0.0000000E+000	28.4301	1.84714	61.5699	1.14739e-06	3.74411e-06	21218.9
100.032	5.97754	3.4441	6.89875	-29.9494	10.2647	0.281872	0.0128398	461.961	115.137	1	10	0.00460464	0.00066746	0	0.000126004	0.125598	0.072366	0.144954	29.9494	115137	199831	230627	-60.0506	0.0000000E+000	0.0000000E+000	0.0000000E+000	60.0506	0.0000000E+000	0.0000000E+000	0.0000000E+000	-60.0506	0.0000000E+000	0.0000000E+000	0.0000000E+000	-29.9494	0.0000000E+000	0.0000000E+000	0.0000000E+000	29.9494	1.73559	60.0506	1.96506e-06	3.61918e-06	21953.1
46.4415	8.10261	4.39846	9.21947	-28.4951	11.1985	0.281866	0.0109101	779.135	177.338	1	10	0.00460745	0.000499752	0	0.000129539	0.0953263	0.0517474	0.108466	28.4951	177338	326683	371713	-61.5049	0.0000000E+000	0.0000000E+000	0.0000000E+000	61.5049	0.0000000E+000	0.0000000E+000	0.0000000E+000	-61.5049	0.0000000E+000	0.0000000E+000	0.0000000E+000	-28.4951	0.0000000E+000	0.0000000E+000	0.0000000E+000	28.4951	1.84215	61.5049	1.33379e-06	3.07518e-06	25835.4
21.5517	10.8101	4.72919	11.7993	-23.6283	12.0843	0.281874	0.0074739	1561.53	250.848	1	10	0.00460137	0.000389969	0	0.000130725	0.0776456	0.0339682	0.0847507	23.6283	250848	573396	625866	-66.3717	0.0000000E+000	0.0000000E+000	0.0000000E+000	66.3717	0.0000000E+000	0.0000000E+000	0.0000000E+000	-66.3717	0.0000000E+000	0.0000000E+000	0.0000000E+000	-23.6283	0.0000000E+000	0.0000000E+000	0.0000000E+000	23.6283	2.28583	66.3717	-2.23479e-07	2.1067e-06	37714.5
10.0032	13.4326	4.38064	14.1288	-18.0622	13.2857	0.281889	0.0119667	3631.98	349.146	1	11	0.00460452	0.000325895	0	0.000137383	0.0672894	0.0219445	0.0707773	18.0622	349146	1.0706e+06	1.1261e+06	-71.9378	0.0000000E+000	0.0000000E+000	0.0000000E+000	71.9378	0.0000000E+000	0.0000000E+000	0.0000000E+000	-71.9378	0.0000000E+000	0.0000000E+000	0.0000000E+000	-18.0622	0.0000000E+000	0.0000000E+000	0.0000000E+000	18.0622	3.06634	71.9378	4.67301e-06	3.37329e-06	23556
4.63925	15.5157	3.69688	15.9501	-13.4018	14.1463	0.281884	0.0116242	9279.75	498.52	1	11	0.00460249	0.000288556	0	0.000137867	0.0609883	0.0145315	0.0626956	13.4018	498520	2.09228e+06	2.15085e+06	-76.5982	0.0000000E+000	0.0000000E+000	0.0000000E+000	76.5982	0.0000000E+000	0.0000000E+000	0.0000000E+000	-76.5982	0.0000000E+000	0.0000000E+000	0.0000000E+000	-13.4018	0.0000000E+000	0.0000000E+000	0.0000000E+000	13.4018	4.19698	76.5982	-1.6187e-06	3.27668e-06	24249.7
2.15577	17.1893	3.03937	17.456	-10.0272	15.8718	0.281904	0.0125152	24290.4	736.401	1	11	0.0046053	0.000263824	0	0.000151602	0.056412	0.00997461	0.057287	10.0272	736400	4.16476e+06	4.22936e+06	-79.9728	0.0000000E+000	0.0000000E+000	0.0000000E+000	79.9728	0.0000000E+000	0.0000000E+000	0.0000000E+000	-79.9728	0.0000000E+000	0.0000000E+000	0.0000000E+000	-10.0272	0.0000000E+000	0.0000000E+000	0.0000000E+000	10.0272	5.65556	79.9728	7.62645e-06	3.52808e-06	22525
1.00006	18.478	2.48723	18.6447	-7.66619	20.5361	0.2819	0.0115447	63984.9	1138.67	1	12	0.00460165	0.000246808	0	0.000155738	0.0531553	0.00715494	0.0536347	7.66619	1.13867e+06	8.45939e+06	8.53568e+06	-82.3338	0.0000000E+000	0.0000000E+000	0.0000000E+000	82.3338	0.0000000E+000	0.0000000E+000	0.0000000E+000	-82.3338	0.0000000E+000	0.0000000E+000	0.0000000E+000	-7.66619	0.0000000E+000	0.0000000E+000	0.0000000E+000	7.66619	7.42917	82.3338	1.05728e-06	3.25445e-06	24418.2
0.464091	19.46	2.0782	19.5706	-6.09572	28.2196	0.281905	0.00907109	165017	1860.78	1	12	0.00460701	0.000235404	0	0.000167756	0.050808	0.00542597	0.0510969	6.09572	1.86078e+06	1.74241e+07	1.75232e+07	-83.9043	0.0000000E+000	0.0000000E+000	0.0000000E+000	83.9043	0.0000000E+000	0.0000000E+000	0.0000000E+000	-83.9043	0.0000000E+000	0.0000000E+000	0.0000000E+000	-6.09572	0.0000000E+000	0.0000000E+000	0.0000000E+000	6.09572	9.36386	83.9043	1.11464e-05	2.55719e-06	31077.3
0.215268	20.271	1.99731	20.3692	-5.6272	44.6978	0.281904	0.0050487	370166	3559.09	1	12	0.00460741	0.000226195	0	0.000240438	0.0488572	0.00481391	0.0490938	5.6272	3.55909e+06	3.61218e+07	3.62967e+07	-84.3728	0.0000000E+000	0.0000000E+000	0.0000000E+000	84.3728	0.0000000E+000	0.0000000E+000	0.0000000E+000	-84.3728	0.0000000E+000	0.0000000E+000	0.0000000E+000	-5.6272	0.0000000E+000	0.0000000E+000	0.0000000E+000	5.6272	10.1492	84.3728	4.53065e-05	1.42325e-06	55836.9
0.0999041	21.2172	2.45395	21.3586	-6.59744	80.1032	0.281903	0.00301527	649189	8569.52	1	12	0.00460715	0.000215705	0	0.000335729	0.0465095	0.00537923	0.0468195	6.59744	8.56952e+06	7.40932e+07	7.45871e+07	-83.4026	0.0000000E+000	0.0000000E+000	0.0000000E+000	83.4026	0.0000000E+000	0.0000000E+000	0.0000000E+000	-83.4026	0.0000000E+000	0.0000000E+000	0.0000000E+000	-6.59744	0.0000000E+000	0.0000000E+000	0.0000000E+000	6.59744	8.64613	83.4026	4.28672e-05	8.50013e-07	93491.6
0.0464052	22.2967	3.54713	22.5771	-9.03928	156.339	0.281899	0.000411038	966889	23866.7	1	12	0.00460848	0.000204121	0	0.000237117	0.0437425	0.00695888	0.0442926	9.03928	2.38667e+07	1.50023e+08	1.51909e+08	-80.9607	0.0000000E+000	0.0000000E+000	0.0000000E+000	80.9607	0.0000000E+000	0.0000000E+000	0.0000000E+000	-80.9607	0.0000000E+000	0.0000000E+000	0.0000000E+000	-9.03928	0.0000000E+000	0.0000000E+000	0.0000000E+000	9.03928	6.28586	80.9607	-9.2527e-05	1.15871e-07	685823
0.0215268	24.0578	5.4305	24.6631	-12.72	320.569	0.281904	-0.00558585	1.36145e+06	66006.4	1	12	0.00460625	0.000186767	0	-0.000304713	0.0395513	0.00892781	0.0405464	12.72	6.60064e+07	2.92417e+08	2.99774e+08	-77.28	0.0000000E+000	0.0000000E+000	0.0000000E+000	77.28	0.0000000E+000	0.0000000E+000	0.0000000E+000	-77.28	0.0000000E+000	0.0000000E+000	0.0000000E+000	-12.72	0.0000000E+000	0.0000000E+000	0.0000000E+000	12.72	4.43013	77.28	-0.000326259	-1.57467e-06	50467.6
0.0100092	26.3325	9.13239	27.8711	-19.1271	673.782	0.281902	-0.00901458	1.74116e+06	186938	1	12	0.00460824	0.000165341	0	-0.000952694	0.0338987	0.0117564	0.0358794	19.1271	1.86938e+08	5.3902e+08	5.70516e+08	-70.8729	0.0000000E+000	0.0000000E+000	0.0000000E+000	70.8729	0.0000000E+000	0.0000000E+000	0.0000000E+000	-70.8729	0.0000000E+000	0.0000000E+000	0.0000000E+000	-19.1271	0.0000000E+000	0.0000000E+000	0.0000000E+000	19.1271	2.88342	70.8729	-0.000287454	-2.54123e-06	31271.7