File: txt/17420_R282_UA652_SOC00_C05.mpt
EC-Lab ASCII FILE
Nb header lines : 64

Potentio Electrochemical Impedance Spectroscopy

Run on channel : 5 (SN 65912)
User :
CE vs. WE compliance from -10 V to 10 V
Electrode connection : standard
Potential control : Ewe
Ewe ctrl range : min = -10.00 V, max = 10.00 V
Safety Limits :
	Do not start on E overload
Acquisition started on : 09/08/2025 17:24:23.855
Loaded Setting File :  C:\Users\Celltest\OneDrive - store-dot.com\Documents\EC-Lab\Data\Michael\R278\UC74_NCMA_16706_EIS_50_SOC.mps
Saved on :
	File : 17420_C05.mpr
	Directory : C:\Users\Celltest\OneDrive - store-dot.com\Documents\EC-Lab\Data\Gyutae\R282\
	Host : 169.254.61.224
Device : VMP-3e (SN .003165)
Address : USB
EC-LAB for windows v11.62 (software)
Internet server v27.00 (firmware)
Command interpretor v12.03 (firmware)
Electrode material :
Initial state :
Electrolyte :
Comments :
Electrode surface area : 0.001 cm²
Characteristic mass : 0.001 g
Equivalent Weight : 0.000 g/eq.
Density : 0.000 g/cm3
Volume (V) : 0.001 cm³
Record Ece
Cycle Definition : Charge/Discharge alternance
Mode                Multi sine
E (V)               0.0000
vs.                 Eoc
tE (h:m:s)          0:00:0.0000
record              0
dI                  0.000
unit dI             mA
dt (s)              0.000
fi                  1.000
unit fi             MHz
ff                  0.100
unit ff             mHz
Nd                  10
Points              per decade
spacing             Logarithmic
Va (mV)             5.0
pw                  0.10
Na                  2
corr                0
E range min (V)     -10.000
E range max (V)     10.000
I Range             Auto
Bandwidth           5
nc cycles           0
goto Ns'            0
nr cycles           0
inc. cycle          0

freq/Hz	Re(Z)/Ohm	-Im(Z)/Ohm	|Z|/Ohm	Phase(Z)/deg	time/s	<Ewe>/V	<I>/mA	Cs/µF	Cp/µF	cycle number	I Range	|Ewe|/V	|I|/A	Ns	(Q-Qo)/mA.h	<Ece>/V	|Ece|/V	Phase(Zce)/deg	|Zce|/Ohm	Re(Zce)/Ohm	-Im(Zce)/Ohm	Phase(Zwe-ce)/deg	|Zwe-ce|/Ohm	Re(Zwe-ce)/Ohm	-Im(Zwe-ce)/Ohm	Re(Y)/Ohm-1	Im(Y)/Ohm-1	|Y|/Ohm-1	Phase(Y)/deg	Re(C)/nF	Im(C)/nF	|C|/nF	Phase(C)/deg	Re(M)	Im(M)	|M|	Phase(M)/deg	Re(Permittivity)	Im(Permittivity)	|Permittivity|	Phase(Permittivity)/deg	Re(Resistivity)/Ohm.cm	Im(Resistivity)/Ohm.cm	|Resistivity|/Ohm.cm	Phase(Resistivity)/deg	Re(Conductivity)/mS/cm	Im(Conductivity)/mS/cm	|Conductivity|/mS/cm	Phase(Conductivity)/deg	Tan(Delta)	Loss Angle(Delta)/deg	dq/mA.h	Pwe/W	Pce/W	Pwe-ce/W	<Ewe-Ece>/V	Rwe/Ohm	Rce/Ohm	Rwe-ce/Ohm		Ewe-Ece/V
1.00002e+06	2.94452	2.07231	3.60065	-35.1373	2.26657	0.283955	0.0601458	0.0767992	0.0254393	1	10	0.000260732	7.24125e-05	0	1.24228e-05	0.000338839	0.000191079	-67.5679	2.63876	1.00692	2.43909	-48.7856	5.99722	3.95144	4.5114	0.227119	0.159843	0.277727	35.1373	25.4393	36.1464	44.2009	-54.8627	0.0000000E+000	0.0000000E+000	0.0000000E+000	54.8627	0.0000000E+000	0.0000000E+000	0.0000000E+000	-54.8627	0.0000000E+000	0.0000000E+000	0.0000000E+000	-35.1373	0.0000000E+000	0.0000000E+000	0.0000000E+000	35.1373	1.42089	54.8627	1.24228e-05	1.70787e-05	2.03798e-08	1.70583e-05	0.283616	4721.1	5.63363	4715.47
251206	2.02487	0.230978	2.03801	-6.50762	4.84754	0.282321	-0.0305954	2.74296	0.035233	1	9	0.00543591	0.00266727	0	5.17012e-06	-4.29852e-05	4.55758e-05	92.2956	0.0170871	-0.000684422	-0.0170734	-6.0323	2.03546	2.02419	0.213905	0.487514	0.0556109	0.490676	6.50762	35.233	308.871	310.874	-83.4924	0.0000000E+000	0.0000000E+000	0.0000000E+000	83.4924	0.0000000E+000	0.0000000E+000	0.0000000E+000	-83.4924	0.0000000E+000	0.0000000E+000	0.0000000E+000	-6.50762	0.0000000E+000	0.0000000E+000	0.0000000E+000	6.50762	8.76652	83.4924	-6.52443e-07	-8.63773e-06	1.31515e-09	-8.63905e-06	0.282364	9227.57	1.40496	9228.97
63093.8	2.38342	0.420919	2.42031	-10.0153	7.14752	0.282055	-0.0326808	5.99287	0.181255	1	9	0.00531147	0.00219454	0	-8.89606e-06	0.000167018	2.39114e-05	55.3618	0.0108958	0.00619311	-0.00896464	-9.78127	2.42487	2.38962	0.411954	0.406875	0.0718551	0.413171	10.0153	181.255	1026.35	1042.23	-79.9847	0.0000000E+000	0.0000000E+000	0.0000000E+000	79.9847	0.0000000E+000	0.0000000E+000	0.0000000E+000	-79.9847	0.0000000E+000	0.0000000E+000	0.0000000E+000	-10.0153	0.0000000E+000	0.0000000E+000	0.0000000E+000	10.0153	5.66244	79.9847	-1.51826e-06	-9.2178e-06	-5.4583e-09	-9.21234e-06	0.281888	8630.59	5.11058	8625.48
15847.7	2.79464	0.627366	2.8642	-12.6525	9.44752	0.282053	-0.0234454	16.0079	0.768016	1	9	0.00510859	0.0017836	0	-2.82211e-05	0.000109745	1.10892e-05	-118.96	0.00621731	-0.00301042	0.00543988	-12.772	2.86246	2.79163	0.632806	0.34066	0.0764744	0.349138	12.6525	768.016	3421.18	3506.32	-77.3475	0.0000000E+000	0.0000000E+000	0.0000000E+000	77.3475	0.0000000E+000	0.0000000E+000	0.0000000E+000	-77.3475	0.0000000E+000	0.0000000E+000	0.0000000E+000	-12.6525	0.0000000E+000	0.0000000E+000	0.0000000E+000	12.6525	4.45456	77.3475	-3.94065e-06	-6.61285e-06	-2.573e-09	-6.61027e-06	0.281943	12030.2	4.68086	12025.5
3983.6	3.40616	0.998923	3.54961	-16.3448	11.1731	0.28196	-0.0364793	39.9956	3.16749	1	9	0.00514747	0.00145015	0	-3.99242e-05	1.42885e-05	1.89317e-06	114.249	0.0013055	-0.000536175	-0.00119031	-16.3288	3.54876	3.40562	0.997733	0.270335	0.0792812	0.281721	16.3448	3167.49	10800.6	11255.5	-73.6552	0.0000000E+000	0.0000000E+000	0.0000000E+000	73.6552	0.0000000E+000	0.0000000E+000	0.0000000E+000	-73.6552	0.0000000E+000	0.0000000E+000	0.0000000E+000	-16.3448	0.0000000E+000	0.0000000E+000	0.0000000E+000	16.3448	3.40983	73.6552	-1.97867e-06	-1.02857e-05	-5.21233e-10	-1.02852e-05	0.281945	7729.3	0.391687	7728.91
1000.32	4.39356	1.67124	4.70068	-20.826	14.0479	0.282055	-0.0118053	95.2012	12.0337	1	10	0.00510545	0.00108611	0	-5.22191e-05	0.00035793	8.08291e-06	-46.3552	0.00744208	0.00513641	0.00538533	-20.865	4.7074	4.39869	1.67662	0.198836	0.075634	0.212735	20.826	12033.7	31635.6	33847	-69.174	0.0000000E+000	0.0000000E+000	0.0000000E+000	69.174	0.0000000E+000	0.0000000E+000	0.0000000E+000	-69.174	0.0000000E+000	0.0000000E+000	0.0000000E+000	-20.826	0.0000000E+000	0.0000000E+000	0.0000000E+000	20.826	2.62892	69.174	-1.78842e-06	-3.32975e-06	-4.22549e-09	-3.32552e-06	0.281697	23892.1	30.3194	23861.8
251.044	6.08508	2.84098	6.71561	-25.0268	16.749	0.282062	-0.0123788	223.152	39.9363	1	10	0.00503007	0.000749012	0	-6.21239e-05	7.15621e-05	1.17126e-05	-19.6429	0.0156374	0.0147274	0.00525662	-25.0143	6.73118	6.09981	2.84624	0.134926	0.0629938	0.148907	25.0268	39936.3	85539.2	94402.7	-64.9732	0.0000000E+000	0.0000000E+000	0.0000000E+000	64.9732	0.0000000E+000	0.0000000E+000	0.0000000E+000	-64.9732	0.0000000E+000	0.0000000E+000	0.0000000E+000	-25.0268	0.0000000E+000	0.0000000E+000	0.0000000E+000	25.0268	2.14189	64.9732	-1.7019e-06	-3.49158e-06	-8.8585e-10	-3.4907e-06	0.281991	22786	5.78104	22780.2
63.0823	9.303	4.72994	10.4364	-26.9502	19.471	0.282071	-0.0100181	533.405	109.564	1	10	0.00501087	0.000480135	0	-7.21068e-05	-2.3894e-05	6.16447e-06	27.1133	0.0128391	0.0114281	-0.00585143	-26.8932	10.4439	9.31443	4.72409	0.0854127	0.0434266	0.0958186	26.9502	109564	215494	241748	-63.0498	0.0000000E+000	0.0000000E+000	0.0000000E+000	63.0498	0.0000000E+000	0.0000000E+000	0.0000000E+000	-63.0498	0.0000000E+000	0.0000000E+000	0.0000000E+000	-26.9502	0.0000000E+000	0.0000000E+000	0.0000000E+000	26.9502	1.96683	63.0498	-1.10536e-06	-2.82583e-06	2.39373e-10	-2.82606e-06	0.282095	28156.1	2.38507	28158.5
15.8576	14.8612	5.5635	15.8685	-20.524	22.376	0.282068	-0.0059335	1804	221.748	1	11	0.00500611	0.000315475	0	-7.70619e-05	1.42885e-05	8.96202e-06	63.1575	0.028408	0.0128273	-0.0253471	-20.4221	15.8716	14.8741	5.53815	0.0590179	0.0220941	0.063018	20.524	221748	592335	632482	-69.476	0.0000000E+000	0.0000000E+000	0.0000000E+000	69.476	0.0000000E+000	0.0000000E+000	0.0000000E+000	-69.476	0.0000000E+000	0.0000000E+000	0.0000000E+000	-20.524	0.0000000E+000	0.0000000E+000	0.0000000E+000	20.524	2.6712	69.476	-2.71177e-07	-1.67365e-06	-8.47806e-11	-1.67357e-06	0.282054	47538.2	2.4081	47535.8
3.97785	19.6654	4.37685	20.1466	-12.5476	25.2893	0.282087	-0.00462722	9141.33	431.45	1	11	0.00500706	0.000248531	0	-8.47709e-05	3.33797e-05	4.41589e-06	116.336	0.017768	-0.00788251	-0.0159238	-12.5082	20.1354	19.6575	4.36093	0.0484507	0.0107835	0.0496362	12.5476	431450	1.93852e+06	1.98596e+06	-77.4524	0.0000000E+000	0.0000000E+000	0.0000000E+000	77.4524	0.0000000E+000	0.0000000E+000	0.0000000E+000	-77.4524	0.0000000E+000	0.0000000E+000	0.0000000E+000	-12.5476	0.0000000E+000	0.0000000E+000	0.0000000E+000	12.5476	4.49305	77.4524	-3.35498e-06	-1.30528e-06	-1.54455e-10	-1.30512e-06	0.282053	60962.5	7.21377	60955.2
1.00469	23.1125	3.12474	23.3228	-7.69953	240.102	0.282038	-0.00698371	50695.8	909.997	1	11	0.00507545	0.000217618	0	-0.00126913	-8.11676e-05	9.57338e-07	-9.14739	0.00439917	0.00434322	0.000699357	-7.69981	23.3272	23.1169	3.12544	0.04249	0.00574452	0.0428765	7.69953	909997	6.7309e+06	6.79213e+06	-82.3005	0.0000000E+000	0.0000000E+000	0.0000000E+000	82.3005	0.0000000E+000	0.0000000E+000	0.0000000E+000	-82.3005	0.0000000E+000	0.0000000E+000	0.0000000E+000	-7.69953	0.0000000E+000	0.0000000E+000	0.0000000E+000	7.69953	7.39661	82.3005	-0.00117697	-1.96967e-06	5.66852e-10	-1.97024e-06	0.282119	40385.1	11.6224	40396.7
0.251173	25.0794	2.53138	25.2068	-5.76362	240.103	0.282038	-0.00698371	250316	2524.46	1	11	0.00510585	0.000202558	0	-0.00126913	-8.11676e-05	1.20945e-06	-10.2499	0.00597089	0.0058756	0.00106247	-5.76468	25.2128	25.0853	2.53245	0.0394713	0.00398403	0.0396718	5.76362	2.52446e+06	2.50108e+07	2.51379e+07	-84.2364	0.0000000E+000	0.0000000E+000	0.0000000E+000	84.2364	0.0000000E+000	0.0000000E+000	0.0000000E+000	-84.2364	0.0000000E+000	0.0000000E+000	0.0000000E+000	-5.76362	0.0000000E+000	0.0000000E+000	0.0000000E+000	5.76362	9.90738	84.2364	0.000000000000000E+000	-1.96967e-06	5.66852e-10	-1.97024e-06	0.282119	40385.1	11.6224	40396.7
0.0602816	26.7048	3.58311	26.9441	-7.64201	240.104	0.282038	-0.00698371	736842	13030.7	1	11	0.00509515	0.000189101	0	-0.00126913	-8.11676e-05	8.50244e-07	-33.4457	0.00449625	0.00375171	0.00247809	-7.64617	26.9482	26.7086	3.58559	0.0367842	0.00493551	0.0371138	7.64201	1.30307e+07	9.71173e+07	9.79876e+07	-82.358	0.0000000E+000	0.0000000E+000	0.0000000E+000	82.358	0.0000000E+000	0.0000000E+000	0.0000000E+000	-82.358	0.0000000E+000	0.0000000E+000	0.0000000E+000	-7.64201	0.0000000E+000	0.0000000E+000	0.0000000E+000	7.64201	7.45296	82.358	0.000000000000000E+000	-1.96967e-06	5.66852e-10	-1.97024e-06	0.282119	40385.1	11.6224	40396.7
0.00796479	34.3773	11.362	36.2063	-18.2891	20329	0.282013	-0.00995194	1.7587e+06	173194	1	11	0.00509139	0.000140622	0	-0.0763266	-0.000138441	2.69928e-06	-6.42115	0.0191954	0.019075	0.00214673	-18.2829	36.2251	34.3964	11.3641	0.0262243	0.00866734	0.0276195	18.2891	1.73194e+08	5.24023e+08	5.51902e+08	-71.7109	0.0000000E+000	0.0000000E+000	0.0000000E+000	71.7109	0.0000000E+000	0.0000000E+000	0.0000000E+000	-71.7109	0.0000000E+000	0.0000000E+000	0.0000000E+000	-18.2891	0.0000000E+000	0.0000000E+000	0.0000000E+000	18.2891	3.02565	71.7109	-0.0750574	-2.80658e-06	1.37776e-09	-2.80795e-06	0.282151	28337.5	13.911	28351.4
0.0019912	46.218	26.3499	53.2017	-29.6884	20329	0.282013	-0.00995194	3.03338e+06	744105	1	11	0.0051017	9.58936e-05	0	-0.0763266	-0.000138441	1.98141e-06	-22.4971	0.0206626	0.0190901	0.00790625	-29.6856	53.2222	46.2371	26.3578	0.016329	0.00930954	0.0187964	29.6884	7.44105e+08	1.30517e+09	1.50238e+09	-60.3116	0.0000000E+000	0.0000000E+000	0.0000000E+000	60.3116	0.0000000E+000	0.0000000E+000	0.0000000E+000	-60.3116	0.0000000E+000	0.0000000E+000	0.0000000E+000	-29.6884	0.0000000E+000	0.0000000E+000	0.0000000E+000	29.6884	1.75401	60.3116	0.000000000000000E+000	-2.80658e-06	1.37776e-09	-2.80795e-06	0.282151	28337.5	13.911	28351.4
0.000497799	66.971	63.6245	92.3753	-43.5321	20329	0.282013	-0.00995194	5.02506e+06	2.38385e+06	1	11	0.00510085	5.52187e-05	0	-0.0763266	-0.000138441	1.25417e-06	-81.4566	0.0227128	0.0033742	0.0224608	-43.5408	92.3932	66.9744	63.647	0.0078483	0.00745612	0.0108254	43.5321	2.38385e+09	2.50923e+09	3.46107e+09	-46.4679	0.0000000E+000	0.0000000E+000	0.0000000E+000	46.4679	0.0000000E+000	0.0000000E+000	0.0000000E+000	-46.4679	0.0000000E+000	0.0000000E+000	0.0000000E+000	-43.5321	0.0000000E+000	0.0000000E+000	0.0000000E+000	43.5321	1.0526	46.4679	0.000000000000000E+000	-2.80658e-06	1.37776e-09	-2.80795e-06	0.282151	28337.5	13.911	28351.4
9.95598e-05	183.923	291.866	344.983	-57.7824	20329	0.282013	-0.00995194	5.47713e+06	3.92034e+06	1	11	0.00510058	1.4785e-05	0	-0.0763266	-0.000138441	2.45611e-06	68.192	0.166121	0.0617135	-0.154233	-57.76	344.885	183.985	291.711	0.0015454	0.00245238	0.00289869	57.7824	3.92034e+09	2.47046e+09	4.63381e+09	-32.2176	0.0000000E+000	0.0000000E+000	0.0000000E+000	32.2176	0.0000000E+000	0.0000000E+000	0.0000000E+000	-32.2176	0.0000000E+000	0.0000000E+000	0.0000000E+000	-57.7824	0.0000000E+000	0.0000000E+000	0.0000000E+000	57.7824	0.630164	32.2176	0.000000000000000E+000	-2.80658e-06	1.37776e-09	-2.80795e-06	0.282151	28337.5	13.911	28351.4