File: txt/17449_C05.mpt
EC-Lab ASCII FILE
Nb header lines : 64

Potentio Electrochemical Impedance Spectroscopy

Run on channel : 5 (SN 65912)
User :
CE vs. WE compliance from -10 V to 10 V
Electrode connection : standard
Potential control : Ewe
Ewe ctrl range : min = -10.00 V, max = 10.00 V
Safety Limits :
	Do not start on E overload
Acquisition started on : 09/11/2025 16:16:09.979
Technique started on : 09/11/2025 16:16:12.045
Loaded Setting File :  C:\Users\Celltest\OneDrive - store-dot.com\Documents\EC-Lab\Data\Charmaine\R279\17382_C01.mpr
Saved on :
	File : 17449_C05.mpr
	Directory : C:\Users\Celltest\OneDrive - store-dot.com\Documents\EC-Lab\Data\John\R281\
	Host : 169.254.61.224
Device : VMP-3e (SN .003165)
Address : USB
EC-LAB for windows v11.62 (software)
Internet server v27.00 (firmware)
Command interpretor v12.03 (firmware)
Electrode material :
Initial state :
Electrolyte :
Comments :
Electrode surface area : 0.001 cm²
Characteristic mass : 0.001 g
Equivalent Weight : 0.000 g/eq.
Density : 0.000 g/cm3
Volume (V) : 0.001 cm³
Cycle Definition : Charge/Discharge alternance
Mode                Single sine
E (V)               0.0000
vs.                 Eoc
tE (h:m:s)          0:00:0.0000
record              0
dI                  0.000
unit dI             mA
dt (s)              0.000
fi                  100.000
unit fi             kHz
ff                  10.000
unit ff             mHz
Nd                  6
Points              per decade
spacing             Logarithmic
Va (mV)             5.0
pw                  0.10
Na                  2
corr                0
E range min (V)     -10.000
E range max (V)     10.000
I Range             Auto
Bandwidth           5
nc cycles           0
goto Ns'            0
nr cycles           0
inc. cycle          0

freq/Hz	Re(Z)/Ohm	-Im(Z)/Ohm	|Z|/Ohm	Phase(Z)/deg	time/s	<Ewe>/V	<I>/mA	Cs/µF	Cp/µF	cycle number	I Range	|Ewe|/V	|I|/A	Ns	(Q-Qo)/mA.h	Re(Y)/Ohm-1	Im(Y)/Ohm-1	|Y|/Ohm-1	Phase(Y)/deg	Re(C)/nF	Im(C)/nF	|C|/nF	Phase(C)/deg	Re(M)	Im(M)	|M|	Phase(M)/deg	Re(Permittivity)	Im(Permittivity)	|Permittivity|	Phase(Permittivity)/deg	Re(Resistivity)/Ohm.cm	Im(Resistivity)/Ohm.cm	|Resistivity|/Ohm.cm	Phase(Resistivity)/deg	Re(Conductivity)/mS/cm	Im(Conductivity)/mS/cm	|Conductivity|/mS/cm	Phase(Conductivity)/deg	Tan(Delta)	Loss Angle(Delta)/deg	dq/mA.h	Pwe/W	Rwe/Ohm
100004	1.26488	0.257216	1.29077	-11.4945	2.06647	0.295009	-0.0168353	6.18736	0.2457	1	9	0.00469129	0.00363449	0	-6.73212e-06	0.759194	0.154384	0.774732	11.4945	245.7	1208.25	1232.98	-78.5055	0.0000000E+000	0.0000000E+000	0.0000000E+000	78.5055	0.0000000E+000	0.0000000E+000	0.0000000E+000	-78.5055	0.0000000E+000	0.0000000E+000	0.0000000E+000	-11.4945	0.0000000E+000	0.0000000E+000	0.0000000E+000	11.4945	4.91757	78.5055	-6.73212e-06	-4.96656e-06	17523.3
46420.4	1.39533	0.319771	1.4315	-12.9077	3.22247	0.294996	-0.0174497	10.7219	0.535015	1	9	0.00504657	0.00352536	0	-1.24219e-06	0.680914	0.156047	0.698566	12.9077	535.015	2334.55	2395.07	-77.0923	0.0000000E+000	0.0000000E+000	0.0000000E+000	77.0923	0.0000000E+000	0.0000000E+000	0.0000000E+000	-77.0923	0.0000000E+000	0.0000000E+000	0.0000000E+000	-12.9077	0.0000000E+000	0.0000000E+000	0.0000000E+000	12.9077	4.36353	77.0923	1.24431e-06	-5.1476e-06	16905.5
21544.7	1.555	0.414003	1.60917	-14.9086	4.23849	0.294985	-0.0194793	17.8434	1.18109	1	9	0.0051567	0.00320458	0	-8.77762e-06	0.600521	0.159883	0.62144	14.9086	1181.09	4436.17	4590.7	-75.0914	0.0000000E+000	0.0000000E+000	0.0000000E+000	75.0914	0.0000000E+000	0.0000000E+000	0.0000000E+000	-75.0914	0.0000000E+000	0.0000000E+000	0.0000000E+000	-14.9086	0.0000000E+000	0.0000000E+000	0.0000000E+000	14.9086	3.75601	75.0914	-3.3938e-08	-5.74611e-06	15143.5
10002.2	1.758	0.5391	1.8388	-17.0484	4.8305	0.294989	-0.017729	29.5158	2.53701	1	9	0.00471253	0.00256282	0	-1.12107e-05	0.519935	0.159441	0.543832	17.0484	2537.01	8273.18	8653.43	-72.9516	0.0000000E+000	0.0000000E+000	0.0000000E+000	72.9516	0.0000000E+000	0.0000000E+000	0.0000000E+000	-72.9516	0.0000000E+000	0.0000000E+000	0.0000000E+000	-17.0484	0.0000000E+000	0.0000000E+000	0.0000000E+000	17.0484	3.26099	72.9516	-2.55637e-06	-5.22988e-06	16638.7
4641.49	2.02264	0.712938	2.14461	-19.4165	5.90267	0.294993	0.0157681	48.0962	5.31517	1	9	0.00506502	0.00236174	0	-2.44826e-05	0.439765	0.155008	0.466284	19.4165	5315.16	15079.4	15988.7	-70.5835	0.0000000E+000	0.0000000E+000	0.0000000E+000	70.5835	0.0000000E+000	0.0000000E+000	0.0000000E+000	-70.5835	0.0000000E+000	0.0000000E+000	0.0000000E+000	-19.4165	0.0000000E+000	0.0000000E+000	0.0000000E+000	19.4165	2.83705	70.5835	-1.00365e-06	4.65149e-06	18708.1
2155.69	2.36637	0.958224	2.55302	-22.0447	6.83669	0.295	0.0109083	77.049	10.854	1	9	0.00494685	0.00193764	0	-2.26453e-05	0.363057	0.147014	0.391693	22.0447	10854	26804.5	28918.7	-67.9553	0.0000000E+000	0.0000000E+000	0.0000000E+000	67.9553	0.0000000E+000	0.0000000E+000	0.0000000E+000	-67.9553	0.0000000E+000	0.0000000E+000	0.0000000E+000	-22.0447	0.0000000E+000	0.0000000E+000	0.0000000E+000	22.0447	2.46954	67.9553	-4.45576e-07	3.21795e-06	27043.5
1000.32	2.77222	1.32558	3.07285	-25.5555	7.77268	0.294998	0.01264	120.026	22.336	1	9	0.00490114	0.00159498	0	-2.04967e-05	0.293593	0.140386	0.325431	25.5555	22336	46711.9	51777.4	-64.4445	0.0000000E+000	0.0000000E+000	0.0000000E+000	64.4445	0.0000000E+000	0.0000000E+000	0.0000000E+000	-64.4445	0.0000000E+000	0.0000000E+000	0.0000000E+000	-25.5555	0.0000000E+000	0.0000000E+000	0.0000000E+000	25.5555	2.09133	64.4445	1.80625e-06	3.72877e-06	23338.5
463.961	3.2867	1.97965	3.83685	-31.0614	8.96122	0.294965	-0.013708	173.281	46.1293	1	10	0.00493266	0.0012856	0	-2.41686e-05	0.22326	0.134474	0.26063	31.0614	46129.3	76586	89405.4	-58.9386	0.0000000E+000	0.0000000E+000	0.0000000E+000	58.9386	0.0000000E+000	0.0000000E+000	0.0000000E+000	-58.9386	0.0000000E+000	0.0000000E+000	0.0000000E+000	-31.0614	0.0000000E+000	0.0000000E+000	0.0000000E+000	31.0614	1.66024	58.9386	-2.03402e-06	-4.04338e-06	21517.7
215.345	4.20891	3.14629	5.2549	-36.7792	9.89545	0.294958	-0.0137061	234.903	84.2083	1	10	0.00489714	0.000931918	0	-2.63809e-05	0.152419	0.113938	0.190298	36.7792	84208.3	112649	140644	-53.2208	0.0000000E+000	0.0000000E+000	0.0000000E+000	53.2208	0.0000000E+000	0.0000000E+000	0.0000000E+000	-53.2208	0.0000000E+000	0.0000000E+000	0.0000000E+000	-36.7792	0.0000000E+000	0.0000000E+000	0.0000000E+000	36.7792	1.33774	53.2208	-7.98853e-07	-4.04273e-06	21520.1
100.032	6.06213	4.76497	7.71066	-38.1681	10.8257	0.294963	-0.0134958	333.904	127.514	1	10	0.00488002	0.000632892	0	-3.04955e-05	0.101963	0.080145	0.12969	38.1681	127514	162227	206343	-51.8319	0.0000000E+000	0.0000000E+000	0.0000000E+000	51.8319	0.0000000E+000	0.0000000E+000	0.0000000E+000	-51.8319	0.0000000E+000	0.0000000E+000	0.0000000E+000	-38.1681	0.0000000E+000	0.0000000E+000	0.0000000E+000	38.1681	1.27223	51.8319	-2.14822e-06	-3.98075e-06	21855.9
46.4415	9.17947	6.13787	11.0425	-33.7687	11.7595	0.294962	-0.0156516	558.336	172.504	1	10	0.00487587	0.000441557	0	-3.4346e-05	0.075281	0.0503368	0.0905595	33.7687	172504	257988	310347	-56.2313	0.0000000E+000	0.0000000E+000	0.0000000E+000	56.2313	0.0000000E+000	0.0000000E+000	0.0000000E+000	-56.2313	0.0000000E+000	0.0000000E+000	0.0000000E+000	-33.7687	0.0000000E+000	0.0000000E+000	0.0000000E+000	33.7687	1.49555	56.2313	-1.94308e-06	-4.61664e-06	18845.4
21.5517	13.0209	6.46567	14.5378	-26.4072	12.6454	0.294949	-0.0194514	1142.15	225.919	1	10	0.00487225	0.000335143	0	-3.82508e-05	0.0616086	0.0305924	0.068786	26.4072	225919	454967	507970	-63.5928	0.0000000E+000	0.0000000E+000	0.0000000E+000	63.5928	0.0000000E+000	0.0000000E+000	0.0000000E+000	-63.5928	0.0000000E+000	0.0000000E+000	0.0000000E+000	-26.4072	0.0000000E+000	0.0000000E+000	0.0000000E+000	26.4072	2.01385	63.5928	-2.02229e-06	-5.73716e-06	15163.4
10.0032	16.5154	5.72995	17.4812	-19.134	13.8517	0.294976	-0.00731351	2776.71	298.325	1	11	0.00486665	0.000278394	0	-4.27645e-05	0.0540441	0.0187503	0.0572044	19.134	298325	859863	910145	-70.866	0.0000000E+000	0.0000000E+000	0.0000000E+000	70.866	0.0000000E+000	0.0000000E+000	0.0000000E+000	-70.866	0.0000000E+000	0.0000000E+000	0.0000000E+000	-19.134	0.0000000E+000	0.0000000E+000	0.0000000E+000	19.134	2.8823	70.866	-1.66847e-07	-2.15731e-06	40333.1
4.63925	19.1627	4.56967	19.7	-13.4127	14.7113	0.294978	-0.00685537	7507.37	403.948	1	11	0.00486568	0.000246989	0	-4.24508e-05	0.0493769	0.0117748	0.0507615	13.4127	403948	1.69393e+06	1.74143e+06	-76.5873	0.0000000E+000	0.0000000E+000	0.0000000E+000	76.5873	0.0000000E+000	0.0000000E+000	0.0000000E+000	-76.5873	0.0000000E+000	0.0000000E+000	0.0000000E+000	-13.4127	0.0000000E+000	0.0000000E+000	0.0000000E+000	13.4127	4.19345	76.5873	6.62807e-07	-2.02218e-06	43028.8
2.15577	21.0668	3.57734	21.3684	-9.63742	16.4358	0.29499	-0.00585643	20637.5	578.408	1	11	0.00487196	0.000227998	0	-5.13722e-05	0.0461376	0.00783458	0.046798	9.63742	578408	3.40622e+06	3.45498e+06	-80.3626	0.0000000E+000	0.0000000E+000	0.0000000E+000	80.3626	0.0000000E+000	0.0000000E+000	0.0000000E+000	-80.3626	0.0000000E+000	0.0000000E+000	0.0000000E+000	-9.63742	0.0000000E+000	0.0000000E+000	0.0000000E+000	9.63742	5.88896	80.3626	-3.65527e-06	-1.72759e-06	50370.3
1.00006	22.398	2.88115	22.5826	-7.32993	21.1002	0.295002	-0.00448817	55236.6	899.107	1	12	0.00487285	0.000215779	0	-4.58869e-05	0.0439201	0.00564962	0.044282	7.32993	899107	6.98965e+06	7.04724e+06	-82.6701	0.0000000E+000	0.0000000E+000	0.0000000E+000	82.6701	0.0000000E+000	0.0000000E+000	0.0000000E+000	-82.6701	0.0000000E+000	0.0000000E+000	0.0000000E+000	-7.32993	0.0000000E+000	0.0000000E+000	0.0000000E+000	7.32993	7.774	82.6701	4.05062e-06	-1.32402e-06	65728.7
0.464091	23.4505	2.60226	23.5945	-6.33209	28.7849	0.295002	-0.00309429	131785	1603.05	1	12	0.00487527	0.000206627	0	-5.39357e-05	0.0421242	0.00467444	0.0423828	6.33209	1.60305e+06	1.44461e+07	1.45347e+07	-83.6679	0.0000000E+000	0.0000000E+000	0.0000000E+000	83.6679	0.0000000E+000	0.0000000E+000	0.0000000E+000	-83.6679	0.0000000E+000	0.0000000E+000	0.0000000E+000	-6.33209	0.0000000E+000	0.0000000E+000	0.0000000E+000	6.33209	9.01161	83.6679	-8.8583e-06	-9.1282e-07	95337.5
0.215268	24.4052	2.85135	24.5712	-6.66386	45.2649	0.295	-0.00274052	259293	3491.7	1	12	0.00487303	0.000198322	0	-0.00011014	0.040423	0.00472277	0.040698	6.66386	3.49171e+06	2.98861e+07	3.00894e+07	-83.3361	0.0000000E+000	0.0000000E+000	0.0000000E+000	83.3361	0.0000000E+000	0.0000000E+000	0.0000000E+000	-83.3361	0.0000000E+000	0.0000000E+000	0.0000000E+000	-6.66386	0.0000000E+000	0.0000000E+000	0.0000000E+000	6.66386	8.55918	83.3361	-3.39275e-05	-8.08454e-07	107644
0.0999041	25.8188	3.88972	26.1101	-8.56744	80.6715	0.295005	-0.00344212	409561	9089.43	1	12	0.00487407	0.000186673	0	-0.000162768	0.0378719	0.00570558	0.0382993	8.56744	9.08943e+06	6.03329e+07	6.10138e+07	-81.4326	0.0000000E+000	0.0000000E+000	0.0000000E+000	81.4326	0.0000000E+000	0.0000000E+000	0.0000000E+000	-81.4326	0.0000000E+000	0.0000000E+000	0.0000000E+000	-8.56744	0.0000000E+000	0.0000000E+000	0.0000000E+000	8.56744	6.6377	81.4326	-1.77801e-05	-1.01544e-06	85704.4
0.0464052	27.7822	5.47535	28.3166	-11.149	156.908	0.295003	-0.00252481	626386	23419.8	1	12	0.00487401	0.000172126	0	-7.97409e-05	0.0346485	0.00682858	0.035315	11.149	2.34198e+07	1.18833e+08	1.21119e+08	-78.851	0.0000000E+000	0.0000000E+000	0.0000000E+000	78.851	0.0000000E+000	0.0000000E+000	0.0000000E+000	-78.851	0.0000000E+000	0.0000000E+000	0.0000000E+000	-11.149	0.0000000E+000	0.0000000E+000	0.0000000E+000	11.149	5.07405	78.851	6.93429e-05	-7.44829e-07	116842
0.0215268	30.622	7.82768	31.6066	-14.3391	321.136	0.295007	0.000166921	944514	57931.9	1	12	0.00487323	0.000154184	0	0.000115399	0.0306533	0.00783568	0.0316389	14.3391	5.79319e+07	2.2663e+08	2.33918e+08	-75.6609	0.0000000E+000	0.0000000E+000	0.0000000E+000	75.6609	0.0000000E+000	0.0000000E+000	0.0000000E+000	-75.6609	0.0000000E+000	0.0000000E+000	0.0000000E+000	-14.3391	0.0000000E+000	0.0000000E+000	0.0000000E+000	14.3391	3.91201	75.6609	8.81051e-05	4.92428e-08	1.76735e+06
0.0100092	33.5808	12.1021	35.6949	-19.8186	674.351	0.295008	0.00056806	1.31389e+06	151033	1	12	0.00487272	0.00013651	0	-0.00018077	0.0263559	0.00949835	0.0280152	19.8186	1.51033e+08	4.19082e+08	4.45467e+08	-70.1814	0.0000000E+000	0.0000000E+000	0.0000000E+000	70.1814	0.0000000E+000	0.0000000E+000	0.0000000E+000	-70.1814	0.0000000E+000	0.0000000E+000	0.0000000E+000	-19.8186	0.0000000E+000	0.0000000E+000	0.0000000E+000	19.8186	2.77478	70.1814	-0.000264101	1.67582e-07	519325