File: txt/17451_C07.mpt
EC-Lab ASCII FILE
Nb header lines : 64

Potentio Electrochemical Impedance Spectroscopy

Run on channel : 7 (SN 66126)
User :
CE vs. WE compliance from -10 V to 10 V
Electrode connection : standard
Potential control : Ewe
Ewe ctrl range : min = -10.00 V, max = 10.00 V
Safety Limits :
	Do not start on E overload
Acquisition started on : 09/11/2025 16:16:31.856
Technique started on : 09/11/2025 16:16:33.924
Loaded Setting File :  C:\Users\Celltest\OneDrive - store-dot.com\Documents\EC-Lab\Data\Charmaine\R279\17382_C01.mpr
Saved on :
	File : 17451_C07.mpr
	Directory : C:\Users\Celltest\OneDrive - store-dot.com\Documents\EC-Lab\Data\John\R281\
	Host : 169.254.61.224
Device : VMP-3e (SN .003165)
Address : USB
EC-LAB for windows v11.62 (software)
Internet server v27.00 (firmware)
Command interpretor v12.03 (firmware)
Electrode material :
Initial state :
Electrolyte :
Comments :
Electrode surface area : 0.001 cm²
Characteristic mass : 0.001 g
Equivalent Weight : 0.000 g/eq.
Density : 0.000 g/cm3
Volume (V) : 0.001 cm³
Cycle Definition : Charge/Discharge alternance
Mode                Single sine
E (V)               0.0000
vs.                 Eoc
tE (h:m:s)          0:00:0.0000
record              0
dI                  0.000
unit dI             mA
dt (s)              0.000
fi                  100.000
unit fi             kHz
ff                  10.000
unit ff             mHz
Nd                  6
Points              per decade
spacing             Logarithmic
Va (mV)             5.0
pw                  0.10
Na                  2
corr                0
E range min (V)     -10.000
E range max (V)     10.000
I Range             Auto
Bandwidth           5
nc cycles           0
goto Ns'            0
nr cycles           0
inc. cycle          0

freq/Hz	Re(Z)/Ohm	-Im(Z)/Ohm	|Z|/Ohm	Phase(Z)/deg	time/s	<Ewe>/V	<I>/mA	Cs/µF	Cp/µF	cycle number	I Range	|Ewe|/V	|I|/A	Ns	(Q-Qo)/mA.h	Re(Y)/Ohm-1	Im(Y)/Ohm-1	|Y|/Ohm-1	Phase(Y)/deg	Re(C)/nF	Im(C)/nF	|C|/nF	Phase(C)/deg	Re(M)	Im(M)	|M|	Phase(M)/deg	Re(Permittivity)	Im(Permittivity)	|Permittivity|	Phase(Permittivity)/deg	Re(Resistivity)/Ohm.cm	Im(Resistivity)/Ohm.cm	|Resistivity|/Ohm.cm	Phase(Resistivity)/deg	Re(Conductivity)/mS/cm	Im(Conductivity)/mS/cm	|Conductivity|/mS/cm	Phase(Conductivity)/deg	Tan(Delta)	Loss Angle(Delta)/deg	dq/mA.h	Pwe/W	Rwe/Ohm
100004	1.36164	0.261525	1.38653	-10.8721	2.06848	0.298396	0.0602925	6.08543	0.2165	1	9	0.00463746	0.00334465	0	-1.41573e-06	0.708279	0.136036	0.721225	10.8721	216.5	1127.22	1147.82	-79.1279	0.0000000E+000	0.0000000E+000	0.0000000E+000	79.1279	0.0000000E+000	0.0000000E+000	0.0000000E+000	-79.1279	0.0000000E+000	0.0000000E+000	0.0000000E+000	-10.8721	0.0000000E+000	0.0000000E+000	0.0000000E+000	10.8721	5.20656	79.1279	-1.41573e-06	1.7991e-05	4949.13
46420.4	1.49891	0.332451	1.53533	-12.5055	3.22448	0.298409	0.0566248	10.313	0.483543	1	9	0.00508186	0.00330995	0	1.91987e-05	0.635873	0.141034	0.651326	12.5055	483.543	2180.13	2233.11	-77.4945	0.0000000E+000	0.0000000E+000	0.0000000E+000	77.4945	0.0000000E+000	0.0000000E+000	0.0000000E+000	-77.4945	0.0000000E+000	0.0000000E+000	0.0000000E+000	-12.5055	0.0000000E+000	0.0000000E+000	0.0000000E+000	12.5055	4.50865	77.4945	1.0867e-05	1.68974e-05	5269.94
21544.7	1.66296	0.434974	1.71891	-14.6582	4.2395	0.298403	0.0564014	16.9831	1.08752	1	9	0.00521473	0.00303374	0	4.31925e-05	0.56283	0.147217	0.581765	14.6582	1087.52	4157.74	4297.61	-75.3418	0.0000000E+000	0.0000000E+000	0.0000000E+000	75.3418	0.0000000E+000	0.0000000E+000	0.0000000E+000	-75.3418	0.0000000E+000	0.0000000E+000	0.0000000E+000	-14.6582	0.0000000E+000	0.0000000E+000	0.0000000E+000	14.6582	3.82313	75.3418	8.90528e-06	1.68303e-05	5290.7
10002.2	1.86963	0.569384	1.95441	-16.9378	5.11448	0.298403	0.0582259	27.9459	2.37191	1	9	0.00491364	0.00251413	0	5.74975e-05	0.489469	0.149065	0.511664	16.9378	2371.91	7788.41	8141.58	-73.0622	0.0000000E+000	0.0000000E+000	0.0000000E+000	73.0622	0.0000000E+000	0.0000000E+000	0.0000000E+000	-73.0622	0.0000000E+000	0.0000000E+000	0.0000000E+000	-16.9378	0.0000000E+000	0.0000000E+000	0.0000000E+000	16.9378	3.2836	73.0622	4.63165e-06	1.73748e-05	5124.91
4641.49	2.14996	0.768901	2.28332	-19.6788	5.96371	0.298409	0.0872514	44.5957	5.05709	1	9	0.00450144	0.00197145	0	6.27778e-05	0.41238	0.147481	0.437959	19.6788	5057.09	14140.4	15017.5	-70.3212	0.0000000E+000	0.0000000E+000	0.0000000E+000	70.3212	0.0000000E+000	0.0000000E+000	0.0000000E+000	-70.3212	0.0000000E+000	0.0000000E+000	0.0000000E+000	-19.6788	0.0000000E+000	0.0000000E+000	0.0000000E+000	19.6788	2.79615	70.3212	1.05437e-05	2.60366e-05	3420.11
2155.69	2.51108	1.02416	2.71191	-22.1883	7.12069	0.298401	0.0875679	72.0888	10.2814	1	9	0.00489992	0.00180682	0	8.61932e-05	0.341438	0.139257	0.368744	22.1883	10281.4	25208.4	27224.5	-67.8117	0.0000000E+000	0.0000000E+000	0.0000000E+000	67.8117	0.0000000E+000	0.0000000E+000	0.0000000E+000	-67.8117	0.0000000E+000	0.0000000E+000	0.0000000E+000	-22.1883	0.0000000E+000	0.0000000E+000	0.0000000E+000	22.1883	2.45186	67.8117	8.43742e-06	2.61304e-05	3407.66
1000.32	2.98022	1.40825	3.29619	-25.2922	8.31071	0.298367	-0.014827	112.98	20.6222	1	10	0.00496577	0.00150652	0	9.98599e-05	0.274299	0.129615	0.303381	25.2922	20622.2	43642	48269.1	-64.7078	0.0000000E+000	0.0000000E+000	0.0000000E+000	64.7078	0.0000000E+000	0.0000000E+000	0.0000000E+000	-64.7078	0.0000000E+000	0.0000000E+000	0.0000000E+000	-25.2922	0.0000000E+000	0.0000000E+000	0.0000000E+000	25.2922	2.11626	64.7078	3.3508e-06	-4.42388e-06	20123.2
463.961	3.55947	2.06139	4.11329	-30.0764	9.24522	0.298365	-0.0148568	166.409	41.7947	1	10	0.00489506	0.00119006	0	9.64847e-05	0.210381	0.121838	0.243114	30.0764	41794.7	72168.1	83396.8	-59.9236	0.0000000E+000	0.0000000E+000	0.0000000E+000	59.9236	0.0000000E+000	0.0000000E+000	0.0000000E+000	-59.9236	0.0000000E+000	0.0000000E+000	0.0000000E+000	-30.0764	0.0000000E+000	0.0000000E+000	0.0000000E+000	30.0764	1.72673	59.9236	-2.33561e-06	-4.43274e-06	20082.8
215.345	4.51657	3.21374	5.54324	-35.4335	10.1795	0.298357	-0.0153873	229.973	77.2982	1	10	0.00487051	0.00087864	0	9.22633e-05	0.146988	0.104588	0.1804	35.4335	77298.2	108634	133328	-54.5665	0.0000000E+000	0.0000000E+000	0.0000000E+000	54.5665	0.0000000E+000	0.0000000E+000	0.0000000E+000	-54.5665	0.0000000E+000	0.0000000E+000	0.0000000E+000	-35.4335	0.0000000E+000	0.0000000E+000	0.0000000E+000	35.4335	1.4054	54.5665	-1.75093e-06	-4.59089e-06	19389.8
100.032	6.35856	4.81529	7.97611	-37.1363	11.1097	0.298361	-0.015445	330.414	120.426	1	10	0.0048509	0.000608179	0	8.88975e-05	0.0999486	0.0756902	0.125374	37.1363	120426	159022	199476	-52.8637	0.0000000E+000	0.0000000E+000	0.0000000E+000	52.8637	0.0000000E+000	0.0000000E+000	0.0000000E+000	-52.8637	0.0000000E+000	0.0000000E+000	0.0000000E+000	-37.1363	0.0000000E+000	0.0000000E+000	0.0000000E+000	37.1363	1.32049	52.8636	-1.69838e-06	-4.60818e-06	19317.7
46.4415	9.4481	6.28297	11.3465	-33.6239	12.0435	0.298354	-0.0183432	545.441	167.247	1	10	0.00485239	0.000427656	0	8.54157e-05	0.0733877	0.0488027	0.0881331	33.6239	167247	251499	302032	-56.3761	0.0000000E+000	0.0000000E+000	0.0000000E+000	56.3761	0.0000000E+000	0.0000000E+000	0.0000000E+000	-56.3761	0.0000000E+000	0.0000000E+000	0.0000000E+000	-33.6239	0.0000000E+000	0.0000000E+000	0.0000000E+000	33.6239	1.50376	56.3761	-1.86985e-06	-5.47276e-06	16265.2
21.5517	13.3624	6.7991	14.9927	-26.9681	12.9263	0.298351	-0.0224847	1086.14	223.372	1	10	0.00484738	0.000323316	0	8.15551e-05	0.0594462	0.0302476	0.0666991	26.9681	223372	438998	492559	-63.032	0.0000000E+000	0.0000000E+000	0.0000000E+000	63.032	0.0000000E+000	0.0000000E+000	0.0000000E+000	-63.032	0.0000000E+000	0.0000000E+000	0.0000000E+000	-26.9681	0.0000000E+000	0.0000000E+000	0.0000000E+000	26.9681	1.96532	63.032	-1.59877e-06	-6.70835e-06	13269.1
10.0032	17.1693	6.22075	18.2615	-19.9163	14.1317	0.298393	-0.00820237	2557.63	296.79	1	11	0.00484243	0.000265171	0	7.50457e-05	0.0514848	0.0186538	0.0547599	19.9163	296790	819143	871252	-70.0837	0.0000000E+000	0.0000000E+000	0.0000000E+000	70.0837	0.0000000E+000	0.0000000E+000	0.0000000E+000	-70.0837	0.0000000E+000	0.0000000E+000	0.0000000E+000	-19.9163	0.0000000E+000	0.0000000E+000	0.0000000E+000	19.9163	2.76001	70.0837	-2.12553e-06	-2.44753e-06	36378.8
4.63925	20.1526	5.10438	20.789	-14.2133	14.9923	0.298396	-0.00703589	6720.93	405.182	1	11	0.00484627	0.000233117	0	7.42909e-05	0.0466299	0.0118107	0.0481024	14.2133	405182	1.59969e+06	1.65021e+06	-75.7867	0.0000000E+000	0.0000000E+000	0.0000000E+000	75.7867	0.0000000E+000	0.0000000E+000	0.0000000E+000	-75.7867	0.0000000E+000	0.0000000E+000	0.0000000E+000	-14.2133	0.0000000E+000	0.0000000E+000	0.0000000E+000	14.2133	3.94809	75.7867	-2.55072e-06	-2.09948e-06	42410.5
2.15577	22.2793	4.08719	22.6511	-10.3954	16.7178	0.298402	-0.0061143	18063.1	588.115	1	11	0.00484286	0.000213802	0	7.05579e-05	0.0434232	0.00796607	0.0441479	10.3954	588115	3.20583e+06	3.25933e+06	-79.6046	0.0000000E+000	0.0000000E+000	0.0000000E+000	79.6046	0.0000000E+000	0.0000000E+000	0.0000000E+000	-79.6046	0.0000000E+000	0.0000000E+000	0.0000000E+000	-10.3954	0.0000000E+000	0.0000000E+000	0.0000000E+000	10.3954	5.45102	79.6046	5.05285e-07	-1.82452e-06	48804
1.00006	23.8524	3.26983	24.0755	-7.80581	21.3821	0.298409	-0.00524032	48670.6	897.777	1	12	0.00484493	0.000201239	0	7.29096e-05	0.0411512	0.00564126	0.0415361	7.80581	897777	6.549e+06	6.61025e+06	-82.1942	0.0000000E+000	0.0000000E+000	0.0000000E+000	82.1942	0.0000000E+000	0.0000000E+000	0.0000000E+000	-82.1942	0.0000000E+000	0.0000000E+000	0.0000000E+000	-7.80581	0.0000000E+000	0.0000000E+000	0.0000000E+000	7.80581	7.29468	82.1942	-9.14647e-07	-1.56376e-06	56944.7
0.464091	25.0024	2.91671	25.172	-6.65389	29.0668	0.298411	-0.00397873	117577	1578.62	1	12	0.00484756	0.000192578	0	4.70134e-05	0.0394591	0.00460319	0.0397267	6.65389	1.57862e+06	1.35321e+07	1.36239e+07	-83.3461	0.0000000E+000	0.0000000E+000	0.0000000E+000	83.3461	0.0000000E+000	0.0000000E+000	0.0000000E+000	-83.3461	0.0000000E+000	0.0000000E+000	0.0000000E+000	-6.65389	0.0000000E+000	0.0000000E+000	0.0000000E+000	6.65389	8.57213	83.3461	-1.76509e-05	-1.1873e-06	75001.6
0.215268	26.1433	3.21722	26.3405	-7.0156	45.5469	0.298417	-0.00416529	229806	3428.26	1	12	0.00484398	0.000183899	0	2.75781e-06	0.0376801	0.00463695	0.0379643	7.0156	3.42826e+06	2.78582e+07	2.80684e+07	-82.9844	0.0000000E+000	0.0000000E+000	0.0000000E+000	82.9844	0.0000000E+000	0.0000000E+000	0.0000000E+000	-82.9844	0.0000000E+000	0.0000000E+000	0.0000000E+000	-7.0156	0.0000000E+000	0.0000000E+000	0.0000000E+000	7.0156	8.12605	82.9844	-2.09428e-05	-1.24299e-06	71643.8
0.0999041	27.5924	4.34622	27.9326	-8.95139	80.9536	0.298424	-0.00365746	366543	8874.11	1	12	0.0048492	0.000173603	0	1.55451e-05	0.0353644	0.00557042	0.0358004	8.95139	8.87411e+06	5.63382e+07	5.70328e+07	-81.0486	0.0000000E+000	0.0000000E+000	0.0000000E+000	81.0486	0.0000000E+000	0.0000000E+000	0.0000000E+000	-81.0486	0.0000000E+000	0.0000000E+000	0.0000000E+000	-8.95139	0.0000000E+000	0.0000000E+000	0.0000000E+000	8.95139	6.34861	81.0486	1.90762e-05	-1.09147e-06	81593.1
0.0464052	29.965	5.96512	30.553	-11.2586	157.189	0.298415	-0.00153415	574956	21916.2	1	12	0.00485014	0.000158745	0	0.000106481	0.0321001	0.00639015	0.03273	11.2586	2.19162e+07	1.10093e+08	1.12253e+08	-78.7414	0.0000000E+000	0.0000000E+000	0.0000000E+000	78.7414	0.0000000E+000	0.0000000E+000	0.0000000E+000	-78.7414	0.0000000E+000	0.0000000E+000	0.0000000E+000	-11.2586	0.0000000E+000	0.0000000E+000	0.0000000E+000	11.2586	5.02338	78.7414	5.18338e-05	-4.57815e-07	194515
0.0215268	32.9115	8.54003	34.0015	-14.5465	321.42	0.298415	0.000569106	865728	54614.1	1	12	0.00484805	0.000142584	0	4.28317e-05	0.0284677	0.00738693	0.0294105	14.5465	5.46141e+07	2.10472e+08	2.17442e+08	-75.4535	0.0000000E+000	0.0000000E+000	0.0000000E+000	75.4535	0.0000000E+000	0.0000000E+000	0.0000000E+000	-75.4535	0.0000000E+000	0.0000000E+000	0.0000000E+000	-14.5465	0.0000000E+000	0.0000000E+000	0.0000000E+000	14.5465	3.85379	75.4535	-7.80976e-05	1.6983e-07	524358
0.0100092	36.2306	12.6247	38.3672	-19.2111	674.637	0.298415	-0.000218688	1.25951e+06	136372	1	12	0.00484449	0.000126266	0	-0.000536128	0.0246125	0.00857635	0.026064	19.2111	1.36372e+08	3.91362e+08	4.14441e+08	-70.7889	0.0000000E+000	0.0000000E+000	0.0000000E+000	70.7889	0.0000000E+000	0.0000000E+000	0.0000000E+000	-70.7889	0.0000000E+000	0.0000000E+000	0.0000000E+000	-19.2111	0.0000000E+000	0.0000000E+000	0.0000000E+000	19.2111	2.86981	70.7889	-0.000359188	-6.52598e-08	1.36457e+06