File: txt/17459_C01.mpt
EC-Lab ASCII FILE
Nb header lines : 64

Potentio Electrochemical Impedance Spectroscopy

Run on channel : 1 (SN 66354)
User :
CE vs. WE compliance from -10 V to 10 V
Electrode connection : standard
Potential control : Ewe
Ewe ctrl range : min = -10.00 V, max = 10.00 V
Safety Limits :
	Do not start on E overload
Acquisition started on : 09/12/2025 09:48:20.444
Technique started on : 09/12/2025 09:48:22.511
Loaded Setting File :  C:\Users\Celltest\OneDrive - store-dot.com\Documents\EC-Lab\Data\Gyutae\EIS_SOC0_C01.mpr
Saved on :
	File : 17459_C01.mpr
	Directory : C:\Users\Celltest\OneDrive - store-dot.com\Documents\EC-Lab\Data\Gyutae\R277\
	Host : 169.254.61.224
Device : VMP-3e (SN .003165)
Address : USB
EC-LAB for windows v11.62 (software)
Internet server v27.00 (firmware)
Command interpretor v12.03 (firmware)
Electrode material :
Initial state :
Electrolyte :
Comments :
Electrode surface area : 0.001 cm²
Characteristic mass : 0.001 g
Equivalent Weight : 0.000 g/eq.
Density : 0.000 g/cm3
Volume (V) : 0.001 cm³
Cycle Definition : Charge/Discharge alternance
Mode                Single sine
E (V)               0.0000
vs.                 Eoc
tE (h:m:s)          0:00:0.0000
record              0
dI                  0.000
unit dI             mA
dt (s)              0.000
fi                  100.000
unit fi             kHz
ff                  10.000
unit ff             mHz
Nd                  6
Points              per decade
spacing             Logarithmic
Va (mV)             5.0
pw                  0.10
Na                  2
corr                0
E range min (V)     -10.000
E range max (V)     10.000
I Range             Auto
Bandwidth           5
nc cycles           0
goto Ns'            0
nr cycles           0
inc. cycle          0

freq/Hz	Re(Z)/Ohm	-Im(Z)/Ohm	|Z|/Ohm	Phase(Z)/deg	time/s	<Ewe>/V	<I>/mA	Cs/µF	Cp/µF	cycle number	I Range	|Ewe|/V	|I|/A	Ns	(Q-Qo)/mA.h	Re(Y)/Ohm-1	Im(Y)/Ohm-1	|Y|/Ohm-1	Phase(Y)/deg	Re(C)/nF	Im(C)/nF	|C|/nF	Phase(C)/deg	Re(M)	Im(M)	|M|	Phase(M)/deg	Re(Permittivity)	Im(Permittivity)	|Permittivity|	Phase(Permittivity)/deg	Re(Resistivity)/Ohm.cm	Im(Resistivity)/Ohm.cm	|Resistivity|/Ohm.cm	Phase(Resistivity)/deg	Re(Conductivity)/mS/cm	Im(Conductivity)/mS/cm	|Conductivity|/mS/cm	Phase(Conductivity)/deg	Tan(Delta)	Loss Angle(Delta)/deg	dq/mA.h	Pwe/W	Rwe/Ohm
100004	1.14112	0.241004	1.16629	-11.9256	2.06748	0.274847	0.0766649	6.60357	0.281978	1	9	0.00463439	0.00397361	0	9.05904e-06	0.838912	0.177178	0.857418	11.9256	281.978	1335.12	1364.57	-78.0744	0.0000000E+000	0.0000000E+000	0.0000000E+000	78.0744	0.0000000E+000	0.0000000E+000	0.0000000E+000	-78.0744	0.0000000E+000	0.0000000E+000	0.0000000E+000	-11.9256	0.0000000E+000	0.0000000E+000	0.0000000E+000	11.9256	4.73485	78.0744	9.05904e-06	2.10711e-05	3585.05
46420.4	1.2626	0.283146	1.29396	-12.6398	3.0835	0.274841	0.0752492	12.1088	0.579803	1	9	0.00507035	0.00391847	0	3.50824e-05	0.754092	0.16911	0.772821	12.6398	579.803	2585.45	2649.66	-77.3602	0.0000000E+000	0.0000000E+000	0.0000000E+000	77.3602	0.0000000E+000	0.0000000E+000	0.0000000E+000	-77.3602	0.0000000E+000	0.0000000E+000	0.0000000E+000	-12.6398	0.0000000E+000	0.0000000E+000	0.0000000E+000	12.6398	4.45918	77.3602	1.45656e-05	2.06816e-05	3652.42
21544.7	1.40248	0.359328	1.44778	-14.3706	4.09848	0.274847	0.0816197	20.5584	1.26638	1	9	0.00531728	0.00367271	0	6.60166e-05	0.6691	0.171429	0.690712	14.3706	1266.38	4942.78	5102.43	-75.6294	0.0000000E+000	0.0000000E+000	0.0000000E+000	75.6294	0.0000000E+000	0.0000000E+000	0.0000000E+000	-75.6294	0.0000000E+000	0.0000000E+000	0.0000000E+000	-14.3706	0.0000000E+000	0.0000000E+000	0.0000000E+000	14.3706	3.90307	75.6294	7.94273e-06	2.24329e-05	3367.41
10002.2	1.57222	0.450509	1.63549	-15.9893	4.97249	0.274848	0.0819922	35.3199	2.67998	1	9	0.0049171	0.0030065	0	7.99248e-05	0.587783	0.168426	0.611438	15.9893	2679.98	9352.78	9729.17	-74.0107	0.0000000E+000	0.0000000E+000	0.0000000E+000	74.0107	0.0000000E+000	0.0000000E+000	0.0000000E+000	-74.0107	0.0000000E+000	0.0000000E+000	0.0000000E+000	-15.9893	0.0000000E+000	0.0000000E+000	0.0000000E+000	15.9893	3.48987	74.0107	8.35309e-06	2.25354e-05	3352.13
4641.49	1.80016	0.581156	1.89164	-17.892	6.04471	0.274809	0.105556	59.0025	5.56901	1	9	0.00498149	0.00263342	0	9.64784e-05	0.503075	0.162411	0.528642	17.892	5569.02	17250.3	18126.9	-72.108	0.0000000E+000	0.0000000E+000	0.0000000E+000	72.108	0.0000000E+000	0.0000000E+000	0.0000000E+000	-72.108	0.0000000E+000	0.0000000E+000	0.0000000E+000	-17.892	0.0000000E+000	0.0000000E+000	0.0000000E+000	17.892	3.09754	72.108	2.00593e-05	2.90076e-05	2603.45
2155.69	2.10605	0.75337	2.23674	-19.683	6.9787	0.274825	0.106245	97.9998	11.1176	1	9	0.00486288	0.00217409	0	0.000121048	0.420956	0.150583	0.447078	19.683	11117.6	31079.2	33007.9	-70.317	0.0000000E+000	0.0000000E+000	0.0000000E+000	70.317	0.0000000E+000	0.0000000E+000	0.0000000E+000	-70.317	0.0000000E+000	0.0000000E+000	0.0000000E+000	-19.683	0.0000000E+000	0.0000000E+000	0.0000000E+000	19.683	2.79551	70.317	1.36689e-05	2.91987e-05	2586.71
1000.32	2.50108	0.93784	2.67113	-20.5547	7.91567	0.274828	0.107847	169.649	20.9131	1	9	0.00482713	0.00180715	0	0.000146283	0.350539	0.131443	0.374373	20.5547	20913.1	55772.2	59564.3	-69.4453	0.0000000E+000	0.0000000E+000	0.0000000E+000	69.4453	0.0000000E+000	0.0000000E+000	0.0000000E+000	-69.4453	0.0000000E+000	0.0000000E+000	0.0000000E+000	-20.5547	0.0000000E+000	0.0000000E+000	0.0000000E+000	20.5547	2.66685	69.4453	1.12212e-05	2.96393e-05	2548.32
463.961	3.03439	1.14672	3.24384	-20.7019	9.10418	0.274811	-0.0128975	299.146	37.3832	1	10	0.00485686	0.00149726	0	0.00016399	0.288372	0.108978	0.308277	20.7019	37383.2	98921.8	105750	-69.2981	0.0000000E+000	0.0000000E+000	0.0000000E+000	69.2981	0.0000000E+000	0.0000000E+000	0.0000000E+000	-69.2981	0.0000000E+000	0.0000000E+000	0.0000000E+000	-20.7019	0.0000000E+000	0.0000000E+000	0.0000000E+000	20.7019	2.64616	69.2981	6.46022e-06	-3.54438e-06	21307.3
215.345	3.68874	1.32476	3.91942	-19.7551	10.0385	0.274811	-0.013982	557.889	63.7356	1	10	0.00482727	0.00123163	0	0.000159901	0.240124	0.0862375	0.25514	19.7551	63735.6	177469	188567	-70.2449	0.0000000E+000	0.0000000E+000	0.0000000E+000	70.2449	0.0000000E+000	0.0000000E+000	0.0000000E+000	-70.2449	0.0000000E+000	0.0000000E+000	0.0000000E+000	-19.7551	0.0000000E+000	0.0000000E+000	0.0000000E+000	19.7551	2.78445	70.2449	-1.73272e-06	-3.84242e-06	19654.6
100.032	4.46063	1.37809	4.66865	-17.1683	10.9697	0.274805	-0.0131528	1154.53	100.595	1	10	0.00480676	0.00102958	0	0.000157791	0.20465	0.0632256	0.214194	17.1683	100595	325607	340792	-72.8317	0.0000000E+000	0.0000000E+000	0.0000000E+000	72.8317	0.0000000E+000	0.0000000E+000	0.0000000E+000	-72.8317	0.0000000E+000	0.0000000E+000	0.0000000E+000	-17.1683	0.0000000E+000	0.0000000E+000	0.0000000E+000	17.1683	3.23683	72.8317	-8.21011e-07	-3.61446e-06	20893.3
46.4415	5.21729	1.2167	5.35728	-13.127	11.9035	0.274797	-0.0176643	2816.64	145.28	1	10	0.00480867	0.000897595	0	0.000155973	0.181784	0.042393	0.186662	13.127	145280	622973	639689	-76.873	0.0000000E+000	0.0000000E+000	0.0000000E+000	76.873	0.0000000E+000	0.0000000E+000	0.0000000E+000	-76.873	0.0000000E+000	0.0000000E+000	0.0000000E+000	-13.127	0.0000000E+000	0.0000000E+000	0.0000000E+000	13.127	4.28807	76.873	-1.16925e-06	-4.85408e-06	15556.6
21.5517	5.77133	0.945248	5.84823	-9.30151	12.7904	0.274799	-0.0200607	7812.54	204.096	1	10	0.00480766	0.000822072	0	0.000153565	0.168744	0.0276374	0.170992	9.30151	204096	1.24614e+06	1.26274e+06	-80.6985	0.0000000E+000	0.0000000E+000	0.0000000E+000	80.6985	0.0000000E+000	0.0000000E+000	0.0000000E+000	-80.6985	0.0000000E+000	0.0000000E+000	0.0000000E+000	-9.30151	0.0000000E+000	0.0000000E+000	0.0000000E+000	9.30151	6.10563	80.6985	9.50863e-09	-5.51266e-06	13698.4
10.0032	6.14905	0.68623	6.18722	-6.36783	13.7377	0.27481	-0.0127093	23185.2	285.207	1	10	0.00481813	0.000778722	0	0.000151814	0.160626	0.0179258	0.161623	6.36783	285207	2.55563e+06	2.57149e+06	-83.6322	0.0000000E+000	0.0000000E+000	0.0000000E+000	83.6322	0.0000000E+000	0.0000000E+000	0.0000000E+000	-83.6322	0.0000000E+000	0.0000000E+000	0.0000000E+000	-6.36783	0.0000000E+000	0.0000000E+000	0.0000000E+000	6.36783	8.96062	83.6322	-1.42705e-06	-3.49264e-06	21622.7
4.63925	6.38613	0.526116	6.40776	-4.70963	14.5983	0.274831	-0.00441128	65206.4	439.583	1	10	0.00481048	0.000750727	0	0.000145259	0.155534	0.0128135	0.156061	4.70963	439583	5.33577e+06	5.35384e+06	-85.2904	0.0000000E+000	0.0000000E+000	0.0000000E+000	85.2904	0.0000000E+000	0.0000000E+000	0.0000000E+000	-85.2904	0.0000000E+000	0.0000000E+000	0.0000000E+000	-4.70963	0.0000000E+000	0.0000000E+000	0.0000000E+000	4.70963	12.1382	85.2904	-6.56551e-07	-1.21235e-06	62301.8
2.15577	6.5749	0.447146	6.59009	-3.89058	16.8378	0.274859	-0.00149657	165108	760.125	1	11	0.0048124	0.000730248	0	0.000151312	0.151393	0.010296	0.151743	3.89058	760124	1.1177e+07	1.12028e+07	-86.1094	0.0000000E+000	0.0000000E+000	0.0000000E+000	86.1094	0.0000000E+000	0.0000000E+000	0.0000000E+000	-86.1094	0.0000000E+000	0.0000000E+000	0.0000000E+000	-3.89058	0.0000000E+000	0.0000000E+000	0.0000000E+000	3.89058	14.7042	86.1094	-5.34708e-06	-4.11346e-07	183659
1.00006	6.7224	0.461464	6.73822	-3.92695	20.4512	0.274853	-0.00413384	344869	1617.48	1	11	0.00481244	0.0007142	0	0.000122398	0.148059	0.0101636	0.148407	3.92695	1.61748e+06	2.35628e+07	2.36182e+07	-86.0731	0.0000000E+000	0.0000000E+000	0.0000000E+000	86.0731	0.0000000E+000	0.0000000E+000	0.0000000E+000	-86.0731	0.0000000E+000	0.0000000E+000	0.0000000E+000	-3.92695	0.0000000E+000	0.0000000E+000	0.0000000E+000	3.92695	14.5676	86.0731	-9.63784e-06	-1.1362e-06	66488.5
0.464091	6.86982	0.612921	6.89711	-5.0984	28.1357	0.274856	-0.00579486	559516	4418.63	1	11	0.00481332	0.000697875	0	0.000169868	0.144415	0.0128846	0.144988	5.0984	4.41863e+06	4.95255e+07	4.97222e+07	-84.9016	0.0000000E+000	0.0000000E+000	0.0000000E+000	84.9016	0.0000000E+000	0.0000000E+000	0.0000000E+000	-84.9016	0.0000000E+000	0.0000000E+000	0.0000000E+000	-5.0984	0.0000000E+000	0.0000000E+000	0.0000000E+000	5.0984	11.2083	84.9016	3.74092e-05	-1.59275e-06	47430.9
0.215268	7.10879	0.929039	7.16924	-7.44571	44.6136	0.274852	0.0025576	795806	13363.7	1	11	0.00481181	0.000671173	0	0.000262073	0.138309	0.0180754	0.139485	7.44571	1.33637e+07	1.02256e+08	1.03126e+08	-82.5543	0.0000000E+000	0.0000000E+000	0.0000000E+000	82.5543	0.0000000E+000	0.0000000E+000	0.0000000E+000	-82.5543	0.0000000E+000	0.0000000E+000	0.0000000E+000	-7.44571	0.0000000E+000	0.0000000E+000	0.0000000E+000	7.44571	7.65177	82.5543	3.93589e-05	7.02962e-07	107465
0.0999041	7.41861	1.56018	7.58089	-11.8766	80.0211	0.274855	0.00437406	1.02109e+06	43248.4	1	11	0.00481627	0.000635317	0	0.000119079	0.129087	0.0271477	0.131911	11.8766	4.32485e+07	2.05645e+08	2.10144e+08	-78.1234	0.0000000E+000	0.0000000E+000	0.0000000E+000	78.1234	0.0000000E+000	0.0000000E+000	0.0000000E+000	-78.1234	0.0000000E+000	0.0000000E+000	0.0000000E+000	-11.8766	0.0000000E+000	0.0000000E+000	0.0000000E+000	11.8766	4.75498	78.1234	-0.000123943	1.20223e-06	62837.5
0.0464052	7.99444	2.62403	8.41407	-18.1715	156.258	0.274853	-0.00162949	1.30703e+06	127119	1	11	0.00481304	0.000572023	0	-0.000394732	0.112921	0.0370643	0.118849	18.1715	1.27119e+08	3.87284e+08	4.07612e+08	-71.8285	0.0000000E+000	0.0000000E+000	0.0000000E+000	71.8285	0.0000000E+000	0.0000000E+000	0.0000000E+000	-71.8285	0.0000000E+000	0.0000000E+000	0.0000000E+000	-18.1715	0.0000000E+000	0.0000000E+000	0.0000000E+000	18.1715	3.04663	71.8285	-0.000291388	-4.47871e-07	168675
0.0215268	8.77641	4.76545	9.98674	-28.5012	320.487	0.274852	-0.00173322	1.55145e+06	353262	1	11	0.00481228	0.000481867	0	-0.000127643	0.0879974	0.0477811	0.100133	28.5012	3.53262e+08	6.50595e+08	7.40316e+08	-61.4988	0.0000000E+000	0.0000000E+000	0.0000000E+000	61.4988	0.0000000E+000	0.0000000E+000	0.0000000E+000	-61.4988	0.0000000E+000	0.0000000E+000	0.0000000E+000	-28.5012	0.0000000E+000	0.0000000E+000	0.0000000E+000	28.5012	1.84168	61.4988	0.000363728	-4.76379e-07	158579
0.0100092	10.385	8.31727	13.3051	-38.691	673.704	0.27485	0.000626469	1.91179e+06	747083	1	11	0.00481353	0.000361782	0	0.00164156	0.058664	0.0469837	0.0751593	38.691	7.47083e+08	9.32811e+08	1.1951e+09	-51.309	0.0000000E+000	0.0000000E+000	0.0000000E+000	51.309	0.0000000E+000	0.0000000E+000	0.0000000E+000	-51.309	0.0000000E+000	0.0000000E+000	0.0000000E+000	-38.691	0.0000000E+000	0.0000000E+000	0.0000000E+000	38.691	1.2486	51.309	0.000929106	1.72185e-07	438728