File: txt/17456_R281_UA646_SOC00_C03.mpt
EC-Lab ASCII FILE
Nb header lines : 63

Potentio Electrochemical Impedance Spectroscopy

Run on channel : 3 (SN 65921)
User :
CE vs. WE compliance from -10 V to 10 V
Electrode connection : standard
Potential control : Ewe
Ewe ctrl range : min = -10.00 V, max = 10.00 V
Safety Limits :
	Do not start on E overload
Acquisition started on : 09/11/2025 16:15:48.615
Loaded Setting File :  C:\Users\Celltest\OneDrive - store-dot.com\Documents\EC-Lab\Data\Charmaine\R279\17382_C01.mpr
Saved on :
	File : 17456_C03.mpr
	Directory : C:\Users\Celltest\OneDrive - store-dot.com\Documents\EC-Lab\Data\John\R281\
	Host : 169.254.61.224
Device : VMP-3e (SN .003165)
Address : USB
EC-LAB for windows v11.62 (software)
Internet server v27.00 (firmware)
Command interpretor v12.03 (firmware)
Electrode material :
Initial state :
Electrolyte :
Comments :
Electrode surface area : 0.001 cm²
Characteristic mass : 0.001 g
Equivalent Weight : 0.000 g/eq.
Density : 0.000 g/cm3
Volume (V) : 0.001 cm³
Cycle Definition : Charge/Discharge alternance
Mode                Single sine
E (V)               0.0000
vs.                 Eoc
tE (h:m:s)          0:00:0.0000
record              0
dI                  0.000
unit dI             mA
dt (s)              0.000
fi                  100.000
unit fi             kHz
ff                  10.000
unit ff             mHz
Nd                  6
Points              per decade
spacing             Logarithmic
Va (mV)             5.0
pw                  0.10
Na                  2
corr                0
E range min (V)     -10.000
E range max (V)     10.000
I Range             Auto
Bandwidth           5
nc cycles           0
goto Ns'            0
nr cycles           0
inc. cycle          0

freq/Hz	Re(Z)/Ohm	-Im(Z)/Ohm	|Z|/Ohm	Phase(Z)/deg	time/s	<Ewe>/V	<I>/mA	Cs/µF	Cp/µF	cycle number	I Range	|Ewe|/V	|I|/A	Ns	(Q-Qo)/mA.h	Re(Y)/Ohm-1	Im(Y)/Ohm-1	|Y|/Ohm-1	Phase(Y)/deg	Re(C)/nF	Im(C)/nF	|C|/nF	Phase(C)/deg	Re(M)	Im(M)	|M|	Phase(M)/deg	Re(Permittivity)	Im(Permittivity)	|Permittivity|	Phase(Permittivity)/deg	Re(Resistivity)/Ohm.cm	Im(Resistivity)/Ohm.cm	|Resistivity|/Ohm.cm	Phase(Resistivity)/deg	Re(Conductivity)/mS/cm	Im(Conductivity)/mS/cm	|Conductivity|/mS/cm	Phase(Conductivity)/deg	Tan(Delta)	Loss Angle(Delta)/deg	dq/mA.h	Pwe/W	Rwe/Ohm
100004	2.48647	0.349875	2.51096	-8.0096	2.0245	0.291137	0.0464241	4.54873	0.0883154	1	9	0.0048982	0.00195073	0	6.49477e-06	0.394368	0.0554923	0.398253	8.0096	88.3155	627.634	633.817	-81.9904	0.0000000E+000	0.0000000E+000	0.0000000E+000	81.9904	0.0000000E+000	0.0000000E+000	0.0000000E+000	-81.9904	0.0000000E+000	0.0000000E+000	0.0000000E+000	-8.0096	0.0000000E+000	0.0000000E+000	0.0000000E+000	8.0096	7.10673	81.9904	6.49477e-06	1.35158e-05	6271.26
46420.4	2.65628	0.449408	2.69403	-9.60276	2.90049	0.291125	0.0425642	7.62905	0.212299	1	9	0.00530861	0.00197051	0	1.70826e-05	0.36599	0.0619207	0.371191	9.60276	212.299	1254.82	1272.65	-80.3972	0.0000000E+000	0.0000000E+000	0.0000000E+000	80.3972	0.0000000E+000	0.0000000E+000	0.0000000E+000	-80.3972	0.0000000E+000	0.0000000E+000	0.0000000E+000	-9.60276	0.0000000E+000	0.0000000E+000	0.0000000E+000	9.60276	5.91062	80.3972	5.91484e-06	1.23915e-05	6839.67
21544.7	2.87352	0.588989	2.93326	-11.5836	3.7745	0.291138	0.0460138	12.5422	0.505692	1	9	0.00530774	0.0018095	0	2.19626e-05	0.333974	0.0684552	0.340918	11.5836	505.692	2467.14	2518.43	-78.4164	0.0000000E+000	0.0000000E+000	0.0000000E+000	78.4164	0.0000000E+000	0.0000000E+000	0.0000000E+000	-78.4164	0.0000000E+000	0.0000000E+000	0.0000000E+000	-11.5836	0.0000000E+000	0.0000000E+000	0.0000000E+000	11.5836	4.87873	78.4164	2.93363e-06	1.33964e-05	6327.19
10002.2	3.15658	0.77739	3.2509	-13.8352	4.64848	0.291137	0.0406249	20.4684	1.17046	1	9	0.00527381	0.00162226	0	2.81861e-05	0.298683	0.0735584	0.307607	13.8352	1170.46	4752.63	4894.63	-76.1647	0.0000000E+000	0.0000000E+000	0.0000000E+000	76.1647	0.0000000E+000	0.0000000E+000	0.0000000E+000	-76.1647	0.0000000E+000	0.0000000E+000	0.0000000E+000	-13.8352	0.0000000E+000	0.0000000E+000	0.0000000E+000	13.8352	4.06049	76.1647	4.29615e-06	1.18274e-05	7166.47
4641.49	3.55224	1.02358	3.69677	-16.0744	5.89667	0.291154	0.0482141	33.4996	2.56828	1	9	0.00511647	0.00138404	0	4.52239e-05	0.25993	0.0748994	0.270506	16.0744	2568.28	8912.92	9275.57	-73.9256	0.0000000E+000	0.0000000E+000	0.0000000E+000	73.9256	0.0000000E+000	0.0000000E+000	0.0000000E+000	-73.9256	0.0000000E+000	0.0000000E+000	0.0000000E+000	-16.0744	0.0000000E+000	0.0000000E+000	0.0000000E+000	16.0744	3.47039	73.9256	1.05973e-05	1.40377e-05	6038.76
2155.69	4.01785	1.38254	4.24907	-18.9883	7.30768	0.291165	-0.00569648	53.4017	5.6536	1	10	0.00506642	0.00119236	0	4.82225e-05	0.222539	0.0765758	0.235346	18.9883	5653.6	16430.1	17375.6	-71.0117	0.0000000E+000	0.0000000E+000	0.0000000E+000	71.0117	0.0000000E+000	0.0000000E+000	0.0000000E+000	-71.0117	0.0000000E+000	0.0000000E+000	0.0000000E+000	-18.9883	0.0000000E+000	0.0000000E+000	0.0000000E+000	18.9883	2.90613	71.0117	-1.628e-07	-1.65862e-06	51113.1
1000.32	4.69054	1.87111	5.04997	-21.7476	8.24369	0.291168	-0.00485003	85.0321	11.6735	1	10	0.00503768	0.000997565	0	4.69592e-05	0.183927	0.0733702	0.198021	21.7476	11673.5	29263.5	31505.9	-68.2524	0.0000000E+000	0.0000000E+000	0.0000000E+000	68.2524	0.0000000E+000	0.0000000E+000	0.0000000E+000	-68.2524	0.0000000E+000	0.0000000E+000	0.0000000E+000	-21.7476	0.0000000E+000	0.0000000E+000	0.0000000E+000	21.7476	2.50683	68.2524	-1.37335e-06	-1.41217e-06	60034.2
463.961	5.54645	2.57964	6.117	-24.943	9.17818	0.291168	-0.00498987	132.978	23.6495	1	10	0.00493854	0.000807347	0	4.53207e-05	0.148231	0.0689418	0.163479	24.943	23649.5	50848.4	56079	-65.057	0.0000000E+000	0.0000000E+000	0.0000000E+000	65.057	0.0000000E+000	0.0000000E+000	0.0000000E+000	-65.057	0.0000000E+000	0.0000000E+000	0.0000000E+000	-24.943	0.0000000E+000	0.0000000E+000	0.0000000E+000	24.943	2.15009	65.057	-3.75989e-07	-1.45289e-06	58351.7
215.345	6.74925	3.71224	7.70279	-28.8118	10.1124	0.291163	-0.00507937	199.09	46.2408	1	10	0.00488343	0.000633981	0	4.32627e-05	0.113752	0.0625661	0.129823	28.8118	46240.8	84070.8	95948.4	-61.1882	0.0000000E+000	0.0000000E+000	0.0000000E+000	61.1882	0.0000000E+000	0.0000000E+000	0.0000000E+000	-61.1882	0.0000000E+000	0.0000000E+000	0.0000000E+000	-28.8118	0.0000000E+000	0.0000000E+000	0.0000000E+000	28.8118	1.81811	61.1882	-1.21199e-06	-1.47893e-06	57322.7
100.032	8.75027	5.38839	10.2763	-31.6246	11.0437	0.291163	-0.00484259	295.272	81.1835	1	10	0.00486017	0.00047295	0	4.2731e-05	0.0828608	0.0510254	0.0973114	31.6246	81183.5	131835	154826	-58.3754	0.0000000E+000	0.0000000E+000	0.0000000E+000	58.3754	0.0000000E+000	0.0000000E+000	0.0000000E+000	-58.3754	0.0000000E+000	0.0000000E+000	0.0000000E+000	-31.6246	0.0000000E+000	0.0000000E+000	0.0000000E+000	31.6246	1.62391	58.3754	-1.62481e-07	-1.40998e-06	60125.4
46.4415	12.0873	7.12462	14.0308	-30.5165	11.9766	0.291162	-0.00536464	481.007	124.026	1	10	0.00484792	0.000345521	0	4.19492e-05	0.0613996	0.0361909	0.071272	30.5165	124026	210416	244249	-59.4835	0.0000000E+000	0.0000000E+000	0.0000000E+000	59.4835	0.0000000E+000	0.0000000E+000	0.0000000E+000	-59.4835	0.0000000E+000	0.0000000E+000	0.0000000E+000	-30.5165	0.0000000E+000	0.0000000E+000	0.0000000E+000	30.5165	1.69655	59.4835	-5.38713e-07	-1.56198e-06	54274.3
21.5517	16.5816	8.05559	18.4348	-25.9112	13.1043	0.291169	-0.0087131	916.728	175.049	1	11	0.00484674	0.000262913	0	3.95803e-05	0.0487921	0.023704	0.0542453	25.9112	175049	360320	400590	-64.0888	0.0000000E+000	0.0000000E+000	0.0000000E+000	64.0888	0.0000000E+000	0.0000000E+000	0.0000000E+000	-64.0888	0.0000000E+000	0.0000000E+000	0.0000000E+000	-25.9112	0.0000000E+000	0.0000000E+000	0.0000000E+000	25.9112	2.05839	64.0888	-1.59392e-06	-2.53698e-06	33417.3
10.0032	21.1589	7.61328	22.4869	-19.7895	14.0507	0.291178	-0.00821528	2089.82	239.55	1	11	0.00484473	0.000215447	0	3.87474e-05	0.0418441	0.0150562	0.0444704	19.7895	239550	665757	707542	-70.2105	0.0000000E+000	0.0000000E+000	0.0000000E+000	70.2105	0.0000000E+000	0.0000000E+000	0.0000000E+000	-70.2105	0.0000000E+000	0.0000000E+000	0.0000000E+000	-19.7895	0.0000000E+000	0.0000000E+000	0.0000000E+000	19.7895	2.7792	70.2105	1.98326e-07	-2.39211e-06	35443.5
4.63925	24.8411	6.43244	25.6604	-14.5175	14.9103	0.29118	-0.00776444	5333.3	335.136	1	11	0.00484192	0.000188692	0	3.82581e-05	0.0377262	0.00976896	0.0389705	14.5175	335136	1.29424e+06	1.33693e+06	-75.4825	0.0000000E+000	0.0000000E+000	0.0000000E+000	75.4825	0.0000000E+000	0.0000000E+000	0.0000000E+000	-75.4825	0.0000000E+000	0.0000000E+000	0.0000000E+000	-14.5175	0.0000000E+000	0.0000000E+000	0.0000000E+000	14.5175	3.86185	75.4825	1.18806e-06	-2.26085e-06	37501.8
2.15577	27.6591	5.22272	28.1479	-10.693	16.6348	0.291194	-0.00636489	14135.8	486.657	1	11	0.00484404	0.000172092	0	2.97784e-05	0.0349097	0.00659182	0.0355266	10.693	486658	2.5773e+06	2.62284e+06	-79.307	0.0000000E+000	0.0000000E+000	0.0000000E+000	79.307	0.0000000E+000	0.0000000E+000	0.0000000E+000	-79.307	0.0000000E+000	0.0000000E+000	0.0000000E+000	-10.693	0.0000000E+000	0.0000000E+000	0.0000000E+000	10.693	5.29592	79.307	-4.6885e-06	-1.85342e-06	45750
1.00006	29.7599	4.29017	30.0675	-8.20322	21.2991	0.291193	-0.00646013	37095.2	755.217	1	12	0.00484763	0.000161225	0	2.82008e-05	0.0329182	0.00474547	0.0332585	8.20322	755216	5.23876e+06	5.29291e+06	-81.7968	0.0000000E+000	0.0000000E+000	0.0000000E+000	81.7968	0.0000000E+000	0.0000000E+000	0.0000000E+000	-81.7968	0.0000000E+000	0.0000000E+000	0.0000000E+000	-8.20322	0.0000000E+000	0.0000000E+000	0.0000000E+000	8.20322	6.93676	81.7968	2.67095e-07	-1.88114e-06	45075.3
0.464091	31.3411	3.76162	31.566	-6.84401	28.9839	0.291185	-0.00517965	91168.1	1294.65	1	12	0.00484892	0.000153612	0	2.33631e-05	0.0314539	0.00377516	0.0316796	6.84401	1.29465e+06	1.07868e+07	1.08642e+07	-83.156	0.0000000E+000	0.0000000E+000	0.0000000E+000	83.156	0.0000000E+000	0.0000000E+000	0.0000000E+000	-83.156	0.0000000E+000	0.0000000E+000	0.0000000E+000	-6.84401	0.0000000E+000	0.0000000E+000	0.0000000E+000	6.84401	8.33181	83.156	-5.46748e-06	-1.50824e-06	56217.1
0.215268	32.6531	4.02083	32.8997	-7.01994	45.4636	0.29119	-0.00413657	183876	2746.45	1	12	0.00484892	0.000147385	0	-2.49041e-05	0.0301675	0.00371476	0.0303954	7.01994	2.74645e+06	2.23039e+07	2.24723e+07	-82.9801	0.0000000E+000	0.0000000E+000	0.0000000E+000	82.9801	0.0000000E+000	0.0000000E+000	0.0000000E+000	-82.9801	0.0000000E+000	0.0000000E+000	0.0000000E+000	-7.01994	0.0000000E+000	0.0000000E+000	0.0000000E+000	7.01994	8.12098	82.9801	-3.10922e-05	-1.20453e-06	70394
0.0999041	34.4734	5.16452	34.8581	-8.52022	80.87	0.291186	-0.00391145	308466	6771.11	1	12	0.0048458	0.000139015	0	-0.000107623	0.0283712	0.00425033	0.0286878	8.52022	6.77111e+06	4.51974e+07	4.57018e+07	-81.4798	0.0000000E+000	0.0000000E+000	0.0000000E+000	81.4798	0.0000000E+000	0.0000000E+000	0.0000000E+000	-81.4798	0.0000000E+000	0.0000000E+000	0.0000000E+000	-8.52022	0.0000000E+000	0.0000000E+000	0.0000000E+000	8.52022	6.67504	81.4798	-4.08537e-05	-1.13896e-06	74444.5
0.0464052	36.9802	7.17994	37.6708	-10.9876	157.105	0.29118	-0.00340367	477675	17352.6	1	12	0.00484572	0.000128633	0	-0.000117709	0.0260591	0.00505955	0.0265458	10.9876	1.73526e+07	8.93745e+07	9.10435e+07	-79.0124	0.0000000E+000	0.0000000E+000	0.0000000E+000	79.0124	0.0000000E+000	0.0000000E+000	0.0000000E+000	-79.0124	0.0000000E+000	0.0000000E+000	0.0000000E+000	-10.9876	0.0000000E+000	0.0000000E+000	0.0000000E+000	10.9876	5.15049	79.0124	1.59225e-05	-9.91082e-07	85548.9
0.0215268	40.3958	9.47902	41.493	-13.2058	321.334	0.291182	-0.00111607	779969	40705.6	1	12	0.00484532	0.000116774	0	3.32796e-05	0.0234631	0.00550571	0.0241004	13.2058	4.07056e+07	1.73471e+08	1.78183e+08	-76.7942	0.0000000E+000	0.0000000E+000	0.0000000E+000	76.7942	0.0000000E+000	0.0000000E+000	0.0000000E+000	-76.7942	0.0000000E+000	0.0000000E+000	0.0000000E+000	-13.2058	0.0000000E+000	0.0000000E+000	0.0000000E+000	13.2058	4.2616	76.7942	8.7949e-05	-3.24979e-07	260900
0.0100092	43.9796	14.0182	46.1597	-17.6793	674.548	0.291181	0.000140496	1.13431e+06	104613	1	12	0.00484662	0.000104997	0	-1.93299e-05	0.0206408	0.00657908	0.0216639	17.6793	1.04613e+08	3.28207e+08	3.44476e+08	-72.3207	0.0000000E+000	0.0000000E+000	0.0000000E+000	72.3207	0.0000000E+000	0.0000000E+000	0.0000000E+000	-72.3207	0.0000000E+000	0.0000000E+000	0.0000000E+000	-17.6793	0.0000000E+000	0.0000000E+000	0.0000000E+000	17.6793	3.13733	72.3207	-0.000100958	4.09097e-08	2.07253e+06