File: txt/17452_C08.mpt
EC-Lab ASCII FILE
Nb header lines : 64

Potentio Electrochemical Impedance Spectroscopy

Run on channel : 8 (SN 65398)
User :
CE vs. WE compliance from -10 V to 10 V
Electrode connection : standard
Potential control : Ewe
Ewe ctrl range : min = -10.00 V, max = 10.00 V
Safety Limits :
	Do not start on E overload
Acquisition started on : 09/11/2025 16:16:39.416
Technique started on : 09/11/2025 16:16:41.297
Loaded Setting File :  C:\Users\Celltest\OneDrive - store-dot.com\Documents\EC-Lab\Data\Charmaine\R279\17383_C02.mpr
Saved on :
	File : 17452_C08.mpr
	Directory : C:\Users\Celltest\OneDrive - store-dot.com\Documents\EC-Lab\Data\John\R281\
	Host : 169.254.61.224
Device : VMP-3e (SN .003165)
Address : USB
EC-LAB for windows v11.62 (software)
Internet server v27.00 (firmware)
Command interpretor v12.03 (firmware)
Electrode material :
Initial state :
Electrolyte :
Comments :
Electrode surface area : 0.001 cm²
Characteristic mass : 0.001 g
Equivalent Weight : 0.000 g/eq.
Density : 0.000 g/cm3
Volume (V) : 0.001 cm³
Cycle Definition : Charge/Discharge alternance
Mode                Single sine
E (V)               0.0000
vs.                 Eoc
tE (h:m:s)          0:00:0.0000
record              0
dI                  0.000
unit dI             mA
dt (s)              0.000
fi                  100.000
unit fi             kHz
ff                  10.000
unit ff             mHz
Nd                  6
Points              per decade
spacing             Logarithmic
Va (mV)             5.0
pw                  0.10
Na                  2
corr                0
E range min (V)     -10.000
E range max (V)     10.000
I Range             Auto
Bandwidth           5
nc cycles           0
goto Ns'            0
nr cycles           0
inc. cycle          0

freq/Hz	Re(Z)/Ohm	-Im(Z)/Ohm	|Z|/Ohm	Phase(Z)/deg	time/s	<Ewe>/V	<I>/mA	Cs/µF	Cp/µF	cycle number	I Range	|Ewe|/V	|I|/A	Ns	(Q-Qo)/mA.h	Re(Y)/Ohm-1	Im(Y)/Ohm-1	|Y|/Ohm-1	Phase(Y)/deg	Re(C)/nF	Im(C)/nF	|C|/nF	Phase(C)/deg	Re(M)	Im(M)	|M|	Phase(M)/deg	Re(Permittivity)	Im(Permittivity)	|Permittivity|	Phase(Permittivity)/deg	Re(Resistivity)/Ohm.cm	Im(Resistivity)/Ohm.cm	|Resistivity|/Ohm.cm	Phase(Resistivity)/deg	Re(Conductivity)/mS/cm	Im(Conductivity)/mS/cm	|Conductivity|/mS/cm	Phase(Conductivity)/deg	Tan(Delta)	Loss Angle(Delta)/deg	dq/mA.h	Pwe/W	Rwe/Ohm
100004	1.45249	0.255792	1.47484	-9.9877	1.88148	0.299997	0.0255417	6.22182	0.187155	1	9	0.00475632	0.00322497	0	-1.25172e-06	0.667764	0.117597	0.678039	9.9877	187.154	1062.74	1079.09	-80.0123	0.0000000E+000	0.0000000E+000	0.0000000E+000	80.0123	0.0000000E+000	0.0000000E+000	0.0000000E+000	-80.0123	0.0000000E+000	0.0000000E+000	0.0000000E+000	-9.9877	0.0000000E+000	0.0000000E+000	0.0000000E+000	9.9877	5.67841	80.0123	-1.25172e-06	7.66246e-06	11745.4
46420.4	1.58472	0.326543	1.61801	-11.6433	3.03749	0.299998	0.0223238	10.4996	0.427651	1	9	0.00506894	0.00313282	0	1.2012e-05	0.605326	0.124732	0.618043	11.6433	427.651	2075.39	2119	-78.3567	0.0000000E+000	0.0000000E+000	0.0000000E+000	78.3567	0.0000000E+000	0.0000000E+000	0.0000000E+000	-78.3567	0.0000000E+000	0.0000000E+000	0.0000000E+000	-11.6433	0.0000000E+000	0.0000000E+000	0.0000000E+000	11.6433	4.85301	78.3567	1.48388e-05	6.69708e-06	13438.5
21544.7	1.75195	0.43524	1.80521	-13.9516	4.0525	0.299992	0.0232352	16.9727	0.98663	1	9	0.0050527	0.00279896	0	2.81898e-05	0.537611	0.133559	0.553953	13.9516	986.63	3971.44	4092.16	-76.0484	0.0000000E+000	0.0000000E+000	0.0000000E+000	76.0484	0.0000000E+000	0.0000000E+000	0.0000000E+000	-76.0484	0.0000000E+000	0.0000000E+000	0.0000000E+000	-13.9516	0.0000000E+000	0.0000000E+000	0.0000000E+000	13.9516	4.02526	76.0484	6.41501e-06	6.97039e-06	12911.1
10002.2	1.95712	0.564367	2.03686	-16.0858	4.78549	0.299989	0.0262858	28.1943	2.16452	1	9	0.00453817	0.00222802	0	3.18007e-05	0.471729	0.136031	0.490951	16.0858	2164.52	7506.13	7811.98	-73.9142	0.0000000E+000	0.0000000E+000	0.0000000E+000	73.9142	0.0000000E+000	0.0000000E+000	0.0000000E+000	-73.9142	0.0000000E+000	0.0000000E+000	0.0000000E+000	-16.0858	0.0000000E+000	0.0000000E+000	0.0000000E+000	16.0858	3.46781	73.9142	9.4345e-07	7.88544e-06	11412.6
4641.49	2.23676	0.763805	2.36357	-18.854	5.81171	0.300047	0.0865906	44.8932	4.68822	1	9	0.00474129	0.00200599	0	2.64452e-05	0.400388	0.136724	0.423088	18.854	4688.22	13729.2	14507.6	-71.146	0.0000000E+000	0.0000000E+000	0.0000000E+000	71.146	0.0000000E+000	0.0000000E+000	0.0000000E+000	-71.146	0.0000000E+000	0.0000000E+000	0.0000000E+000	-18.854	0.0000000E+000	0.0000000E+000	0.0000000E+000	18.854	2.92844	71.146	1.15441e-05	2.59812e-05	3465.12
2155.69	2.5975	1.01407	2.78843	-21.3257	6.74568	0.300043	0.0874834	72.8058	9.62899	1	9	0.00465214	0.00166837	0	4.55991e-05	0.334069	0.130421	0.358624	21.3257	9628.99	24664.3	26477.3	-68.6743	0.0000000E+000	0.0000000E+000	0.0000000E+000	68.6743	0.0000000E+000	0.0000000E+000	0.0000000E+000	-68.6743	0.0000000E+000	0.0000000E+000	0.0000000E+000	-21.3257	0.0000000E+000	0.0000000E+000	0.0000000E+000	21.3257	2.56147	68.6743	1.07056e-05	2.62488e-05	3429.71
1000.32	3.05335	1.3855	3.35299	-24.4068	7.93571	0.299948	-0.0122496	114.835	19.6075	1	10	0.00471522	0.00140627	0	5.85763e-05	0.271589	0.123237	0.298241	24.4068	19607.5	43210.8	47451.3	-65.5932	0.0000000E+000	0.0000000E+000	0.0000000E+000	65.5932	0.0000000E+000	0.0000000E+000	0.0000000E+000	-65.5932	0.0000000E+000	0.0000000E+000	0.0000000E+000	-24.4068	0.0000000E+000	0.0000000E+000	0.0000000E+000	24.4068	2.2038	65.5932	1.75277e-06	-3.67424e-06	24486.4
463.961	3.63541	2.01785	4.15788	-29.0327	8.87022	0.29995	-0.0124002	170	40.0392	1	10	0.004657	0.00112004	0	5.49228e-05	0.210286	0.11672	0.240507	29.0327	40039.2	72135.5	82502.5	-60.9673	0.0000000E+000	0.0000000E+000	0.0000000E+000	60.9673	0.0000000E+000	0.0000000E+000	0.0000000E+000	-60.9673	0.0000000E+000	0.0000000E+000	0.0000000E+000	-29.0327	0.0000000E+000	0.0000000E+000	0.0000000E+000	29.0327	1.80162	60.9673	-9.98613e-07	-3.71946e-06	24189.1
215.345	4.57571	3.12633	5.54175	-34.3426	9.80445	0.299947	-0.0127927	236.402	75.2362	1	10	0.00462487	0.000834551	0	5.10944e-05	0.148992	0.101798	0.180448	34.3426	75236.2	110116	133364	-55.6574	0.0000000E+000	0.0000000E+000	0.0000000E+000	55.6574	0.0000000E+000	0.0000000E+000	0.0000000E+000	-55.6574	0.0000000E+000	0.0000000E+000	0.0000000E+000	-34.3426	0.0000000E+000	0.0000000E+000	0.0000000E+000	34.3426	1.4636	55.6574	-2.2625e-06	-3.83713e-06	23446.7
100.032	6.38855	4.66397	7.90988	-36.1314	10.7357	0.299958	-0.0126142	341.134	118.603	1	10	0.00461083	0.00058292	0	4.83799e-05	0.102109	0.0745446	0.126424	36.1314	118603	162459	201146	-53.8686	0.0000000E+000	0.0000000E+000	0.0000000E+000	53.8686	0.0000000E+000	0.0000000E+000	0.0000000E+000	-53.8686	0.0000000E+000	0.0000000E+000	0.0000000E+000	-36.1314	0.0000000E+000	0.0000000E+000	0.0000000E+000	36.1314	1.36977	53.8686	-1.19689e-06	-3.78372e-06	23779.5
46.4415	9.39693	5.95392	11.1244	-32.3584	11.6696	0.299958	-0.0149912	575.587	164.879	1	10	0.00460685	0.000414123	0	4.54768e-05	0.0759339	0.0481119	0.0898928	32.3584	164879	260225	308062	-57.6416	0.0000000E+000	0.0000000E+000	0.0000000E+000	57.6416	0.0000000E+000	0.0000000E+000	0.0000000E+000	-57.6416	0.0000000E+000	0.0000000E+000	0.0000000E+000	-32.3584	0.0000000E+000	0.0000000E+000	0.0000000E+000	32.3584	1.57828	57.6416	-1.87107e-06	-4.49674e-06	20008.9
21.5517	13.0635	6.32315	14.5133	-25.8285	12.5553	0.299946	-0.0203554	1167.9	221.686	1	10	0.00460405	0.000317229	0	4.02508e-05	0.062019	0.0300192	0.0689022	25.8285	221686	457997	508828	-64.1715	0.0000000E+000	0.0000000E+000	0.0000000E+000	64.1715	0.0000000E+000	0.0000000E+000	0.0000000E+000	-64.1715	0.0000000E+000	0.0000000E+000	0.0000000E+000	-25.8285	0.0000000E+000	0.0000000E+000	0.0000000E+000	25.8285	2.06598	64.1715	-3.18228e-06	-6.10553e-06	14735.5
10.0032	16.5706	5.68018	17.5171	-18.921	13.7607	0.299982	-0.00839856	2801.04	294.523	1	11	0.00460171	0.000262698	0	4.13055e-05	0.0540024	0.0185113	0.057087	18.921	294523	859200	908278	-71.079	0.0000000E+000	0.0000000E+000	0.0000000E+000	71.079	0.0000000E+000	0.0000000E+000	0.0000000E+000	-71.079	0.0000000E+000	0.0000000E+000	0.0000000E+000	-18.921	0.0000000E+000	0.0000000E+000	0.0000000E+000	18.921	2.91726	71.079	1.82076e-07	-2.51941e-06	35718.3
4.63925	19.2432	4.67424	19.8028	-13.6529	14.6203	0.299989	-0.00799412	7339.41	408.914	1	11	0.00460457	0.000232522	0	3.84912e-05	0.0490711	0.0119196	0.050498	13.6529	408914	1.68344e+06	1.73239e+06	-76.3471	0.0000000E+000	0.0000000E+000	0.0000000E+000	76.3471	0.0000000E+000	0.0000000E+000	0.0000000E+000	-76.3471	0.0000000E+000	0.0000000E+000	0.0000000E+000	-13.6529	0.0000000E+000	0.0000000E+000	0.0000000E+000	13.6529	4.11686	76.3471	7.99548e-07	-2.39815e-06	37526.2
2.15577	21.2052	3.70441	21.5264	-9.90919	16.3468	0.299994	-0.00600694	19929.6	590.195	1	11	0.00460857	0.000214089	0	3.55181e-05	0.0457616	0.00799425	0.0464547	9.90919	590195	3.37847e+06	3.42963e+06	-80.0908	0.0000000E+000	0.0000000E+000	0.0000000E+000	80.0908	0.0000000E+000	0.0000000E+000	0.0000000E+000	-80.0908	0.0000000E+000	0.0000000E+000	0.0000000E+000	-9.90919	0.0000000E+000	0.0000000E+000	0.0000000E+000	9.90919	5.72432	80.0908	-4.2238e-06	-1.80204e-06	49941.3
1.00006	22.6035	2.98102	22.7992	-7.513	21.0102	0.299993	-0.00594267	53386	912.679	1	12	0.00460899	0.000202156	0	1.9278e-05	0.0434846	0.0057349	0.0438612	7.513	912678	6.92035e+06	6.98028e+06	-82.487	0.0000000E+000	0.0000000E+000	0.0000000E+000	82.487	0.0000000E+000	0.0000000E+000	0.0000000E+000	-82.487	0.0000000E+000	0.0000000E+000	0.0000000E+000	-7.513	0.0000000E+000	0.0000000E+000	0.0000000E+000	7.513	7.58246	82.487	-8.26895e-06	-1.78276e-06	50481.2
0.464091	23.6273	2.71991	23.7833	-6.56682	28.695	0.299994	-0.0057695	126085	1649.02	1	12	0.00461112	0.00019388	0	2.47e-05	0.0417704	0.00480849	0.0420463	6.56682	1.64902e+06	1.43247e+07	1.44193e+07	-83.4332	0.0000000E+000	0.0000000E+000	0.0000000E+000	83.4332	0.0000000E+000	0.0000000E+000	0.0000000E+000	-83.4332	0.0000000E+000	0.0000000E+000	0.0000000E+000	-6.56682	0.0000000E+000	0.0000000E+000	0.0000000E+000	6.56682	8.68681	83.4332	5.34036e-06	-1.73081e-06	51996.4
0.215268	24.7073	3.07772	24.8983	-7.10059	45.175	0.299992	-0.00359306	240222	3670.55	1	12	0.00460808	0.000185076	0	2.74441e-05	0.0398554	0.00496467	0.0401634	7.10059	3.67055e+06	2.94665e+07	2.96942e+07	-82.8994	0.0000000E+000	0.0000000E+000	0.0000000E+000	82.8994	0.0000000E+000	0.0000000E+000	0.0000000E+000	-82.8994	0.0000000E+000	0.0000000E+000	0.0000000E+000	-7.10059	0.0000000E+000	0.0000000E+000	0.0000000E+000	7.10059	8.02781	82.8994	-3.03727e-06	-1.07789e-06	83492.1
0.0999041	26.1017	4.19094	26.4361	-9.12166	80.5816	0.300005	-0.00143574	380124	9553.34	1	12	0.00461402	0.000174535	0	-5.27738e-05	0.0373488	0.00599678	0.0378271	9.12166	9.55334e+06	5.94995e+07	6.02615e+07	-80.8783	0.0000000E+000	0.0000000E+000	0.0000000E+000	80.8783	0.0000000E+000	0.0000000E+000	0.0000000E+000	-80.8783	0.0000000E+000	0.0000000E+000	0.0000000E+000	-9.12166	0.0000000E+000	0.0000000E+000	0.0000000E+000	9.12166	6.22813	80.8783	-5.43118e-05	-4.30731e-07	208955
0.0464052	28.4296	5.79455	29.0141	-11.5203	156.817	0.299994	-0.00192325	591880	23607.8	1	12	0.00461277	0.000158984	0	-0.000227232	0.0337717	0.00688339	0.034466	11.5203	2.36078e+07	1.15826e+08	1.18207e+08	-78.4797	0.0000000E+000	0.0000000E+000	0.0000000E+000	78.4797	0.0000000E+000	0.0000000E+000	0.0000000E+000	-78.4797	0.0000000E+000	0.0000000E+000	0.0000000E+000	-11.5203	0.0000000E+000	0.0000000E+000	0.0000000E+000	11.5203	4.90626	78.4797	-9.27291e-05	-5.76963e-07	155983
0.0215268	31.1881	8.37415	32.2928	-15.0297	321.047	0.299993	-0.00212858	882877	59370.6	1	12	0.00461135	0.000142798	0	-0.000236931	0.0299074	0.00803027	0.0309667	15.0297	5.93706e+07	2.21115e+08	2.28947e+08	-74.9703	0.0000000E+000	0.0000000E+000	0.0000000E+000	74.9703	0.0000000E+000	0.0000000E+000	0.0000000E+000	-74.9703	0.0000000E+000	0.0000000E+000	0.0000000E+000	-15.0297	0.0000000E+000	0.0000000E+000	0.0000000E+000	15.0297	3.72433	74.9703	4.46098e-05	-6.38559e-07	140935
0.0100092	34.4047	12.4656	36.5934	-19.9165	674.265	0.299988	-0.000419933	1.27559e+06	148023	1	12	0.00461375	0.000126082	0	0.000255705	0.0256929	0.00930909	0.0273274	19.9165	1.48023e+08	4.08541e+08	4.3453e+08	-70.0835	0.0000000E+000	0.0000000E+000	0.0000000E+000	70.0835	0.0000000E+000	0.0000000E+000	0.0000000E+000	-70.0835	0.0000000E+000	0.0000000E+000	0.0000000E+000	-19.9165	0.0000000E+000	0.0000000E+000	0.0000000E+000	19.9165	2.75998	70.0835	0.000308832	-1.25975e-07	714369