File: txt/17450_C06.mpt
EC-Lab ASCII FILE
Nb header lines : 64

Potentio Electrochemical Impedance Spectroscopy

Run on channel : 6 (SN 65795)
User :
CE vs. WE compliance from -10 V to 10 V
Electrode connection : standard
Potential control : Ewe
Ewe ctrl range : min = -10.00 V, max = 10.00 V
Safety Limits :
	Do not start on E overload
Acquisition started on : 09/11/2025 16:16:20.400
Technique started on : 09/11/2025 16:16:22.264
Loaded Setting File :  C:\Users\Celltest\OneDrive - store-dot.com\Documents\EC-Lab\Data\Charmaine\R279\17383.mps
Saved on :
	File : 17450_C06.mpr
	Directory : C:\Users\Celltest\OneDrive - store-dot.com\Documents\EC-Lab\Data\John\R281\
	Host : 169.254.61.224
Device : VMP-3e (SN .003165)
Address : USB
EC-LAB for windows v11.62 (software)
Internet server v27.00 (firmware)
Command interpretor v12.03 (firmware)
Electrode material :
Initial state :
Electrolyte :
Comments :
Electrode surface area : 0.001 cm²
Characteristic mass : 0.001 g
Equivalent Weight : 0.000 g/eq.
Density : 0.000 g/cm3
Volume (V) : 0.001 cm³
Cycle Definition : Charge/Discharge alternance
Mode                Single sine
E (V)               0.0000
vs.                 Eoc
tE (h:m:s)          0:00:0.0000
record              0
dI                  0.000
unit dI             mA
dt (s)              0.000
fi                  100.000
unit fi             kHz
ff                  10.000
unit ff             mHz
Nd                  6
Points              per decade
spacing             Logarithmic
Va (mV)             5.0
pw                  0.10
Na                  2
corr                0
E range min (V)     -10.000
E range max (V)     10.000
I Range             Auto
Bandwidth           5
nc cycles           0
goto Ns'            0
nr cycles           0
inc. cycle          0

freq/Hz	Re(Z)/Ohm	-Im(Z)/Ohm	|Z|/Ohm	Phase(Z)/deg	time/s	<Ewe>/V	<I>/mA	Cs/µF	Cp/µF	cycle number	I Range	|Ewe|/V	|I|/A	Ns	(Q-Qo)/mA.h	Re(Y)/Ohm-1	Im(Y)/Ohm-1	|Y|/Ohm-1	Phase(Y)/deg	Re(C)/nF	Im(C)/nF	|C|/nF	Phase(C)/deg	Re(M)	Im(M)	|M|	Phase(M)/deg	Re(Permittivity)	Im(Permittivity)	|Permittivity|	Phase(Permittivity)/deg	Re(Resistivity)/Ohm.cm	Im(Resistivity)/Ohm.cm	|Resistivity|/Ohm.cm	Phase(Resistivity)/deg	Re(Conductivity)/mS/cm	Im(Conductivity)/mS/cm	|Conductivity|/mS/cm	Phase(Conductivity)/deg	Tan(Delta)	Loss Angle(Delta)/deg	dq/mA.h	Pwe/W	Rwe/Ohm
100004	1.42511	0.228734	1.44335	-9.11836	1.86449	0.218986	0.0389194	6.95782	0.17474	1	9	0.00453499	0.00314199	0	-6.35022e-06	0.684078	0.109796	0.692833	9.11836	174.74	1088.7	1102.64	-80.8816	0.0000000E+000	0.0000000E+000	0.0000000E+000	80.8816	0.0000000E+000	0.0000000E+000	0.0000000E+000	-80.8816	0.0000000E+000	0.0000000E+000	0.0000000E+000	-9.11836	0.0000000E+000	0.0000000E+000	0.0000000E+000	9.11836	6.23042	80.8816	-6.35022e-06	8.52279e-06	5626.65
46420.4	1.54434	0.28476	1.57038	-10.4474	3.02049	0.218962	0.0342445	12.0402	0.395897	1	9	0.00504183	0.00321059	0	1.26125e-05	0.626233	0.11547	0.63679	10.4474	395.897	2147.08	2183.27	-79.5526	0.0000000E+000	0.0000000E+000	0.0000000E+000	79.5526	0.0000000E+000	0.0000000E+000	0.0000000E+000	-79.5526	0.0000000E+000	0.0000000E+000	0.0000000E+000	-10.4474	0.0000000E+000	0.0000000E+000	0.0000000E+000	10.4474	5.42332	79.5526	1.0093e-05	7.49824e-06	6394.07
21544.7	1.68609	0.37897	1.72815	-12.6675	4.0355	0.218954	0.0337975	19.4928	0.937394	1	9	0.00523169	0.00302734	0	1.89908e-05	0.564569	0.126894	0.578654	12.6675	937.395	4170.58	4274.63	-77.3325	0.0000000E+000	0.0000000E+000	0.0000000E+000	77.3325	0.0000000E+000	0.0000000E+000	0.0000000E+000	-77.3325	0.0000000E+000	0.0000000E+000	0.0000000E+000	-12.6675	0.0000000E+000	0.0000000E+000	0.0000000E+000	12.6675	4.44912	77.3325	6.01715e-06	7.40012e-06	6478.42
10002.2	1.86569	0.499985	1.93152	-15.0021	4.62748	0.218959	0.0344866	31.8249	2.13245	1	9	0.00450818	0.002334	0	2.41951e-05	0.50008	0.134016	0.517726	15.0021	2132.45	7957.24	8238.03	-74.9979	0.0000000E+000	0.0000000E+000	0.0000000E+000	74.9979	0.0000000E+000	0.0000000E+000	0.0000000E+000	-74.9979	0.0000000E+000	0.0000000E+000	0.0000000E+000	-15.0021	0.0000000E+000	0.0000000E+000	0.0000000E+000	15.0021	3.7315	74.9979	1.47853e-06	7.55114e-06	6349.09
4641.49	2.11715	0.676448	2.22259	-17.7192	5.65369	0.218969	0.0704701	50.6907	4.69547	1	9	0.00472982	0.00212807	0	2.0576e-05	0.428581	0.136936	0.449926	17.7192	4695.47	14695.9	15427.8	-72.2808	0.0000000E+000	0.0000000E+000	0.0000000E+000	72.2808	0.0000000E+000	0.0000000E+000	0.0000000E+000	-72.2808	0.0000000E+000	0.0000000E+000	0.0000000E+000	-17.7192	0.0000000E+000	0.0000000E+000	0.0000000E+000	17.7192	3.1298	72.2808	9.7076e-06	1.54308e-05	3107.27
2155.69	2.43776	0.917057	2.60455	-20.6157	6.58769	0.218976	0.0725002	80.5077	9.98079	1	9	0.0046241	0.00177539	0	3.70893e-05	0.359357	0.135186	0.383944	20.6157	9980.79	26531.4	28346.6	-69.3843	0.0000000E+000	0.0000000E+000	0.0000000E+000	69.3843	0.0000000E+000	0.0000000E+000	0.0000000E+000	-69.3843	0.0000000E+000	0.0000000E+000	0.0000000E+000	-20.6157	0.0000000E+000	0.0000000E+000	0.0000000E+000	20.6157	2.65825	69.3843	8.72405e-06	1.58758e-05	3020.35
1000.32	2.86064	1.23715	3.11669	-23.3872	7.52368	0.218979	0.0736177	128.605	20.2635	1	9	0.00458808	0.0014721	0	5.43228e-05	0.294493	0.12736	0.320853	23.3872	20263.5	46855	51049	-66.6128	0.0000000E+000	0.0000000E+000	0.0000000E+000	66.6128	0.0000000E+000	0.0000000E+000	0.0000000E+000	-66.6128	0.0000000E+000	0.0000000E+000	0.0000000E+000	-23.3872	0.0000000E+000	0.0000000E+000	0.0000000E+000	23.3872	2.31228	66.6128	7.36609e-06	1.61207e-05	2974.54
463.961	3.41968	1.7826	3.85641	-27.5319	8.71322	0.218923	-0.0150969	192.436	41.1174	1	10	0.00461457	0.0011966	0	5.4932e-05	0.229943	0.119864	0.259309	27.5319	41117.4	78878.6	88952.1	-62.4681	0.0000000E+000	0.0000000E+000	0.0000000E+000	62.4681	0.0000000E+000	0.0000000E+000	0.0000000E+000	-62.4681	0.0000000E+000	0.0000000E+000	0.0000000E+000	-27.5319	0.0000000E+000	0.0000000E+000	0.0000000E+000	27.5319	1.91837	62.4681	-2.29553e-06	-3.30507e-06	14501.2
215.345	4.29867	2.67392	5.06245	-31.883	9.64744	0.218919	-0.0151994	276.4	77.1103	1	10	0.0045855	0.000905786	0	5.1673e-05	0.167731	0.104334	0.197533	31.883	77110.3	123965	145991	-58.117	0.0000000E+000	0.0000000E+000	0.0000000E+000	58.117	0.0000000E+000	0.0000000E+000	0.0000000E+000	-58.117	0.0000000E+000	0.0000000E+000	0.0000000E+000	-31.883	0.0000000E+000	0.0000000E+000	0.0000000E+000	31.883	1.60763	58.117	-1.24309e-06	-3.32744e-06	14403.1
100.032	5.91708	3.79389	7.0289	-32.667	10.5787	0.218931	-0.0142827	419.369	122.177	1	10	0.00457164	0.000650405	0	4.79533e-05	0.119766	0.0767909	0.14227	32.667	122177	190552	226357	-57.333	0.0000000E+000	0.0000000E+000	0.0000000E+000	57.333	0.0000000E+000	0.0000000E+000	0.0000000E+000	-57.333	0.0000000E+000	0.0000000E+000	0.0000000E+000	-32.667	0.0000000E+000	0.0000000E+000	0.0000000E+000	32.667	1.55963	57.333	-1.83758e-06	-3.12693e-06	15328.4
46.4415	8.4102	4.56476	9.56914	-28.4915	11.5126	0.218916	-0.0170963	750.751	170.838	1	10	0.00456654	0.000477216	0	4.45647e-05	0.0918461	0.0498508	0.104503	28.4915	170838	314756	358130	-61.5085	0.0000000E+000	0.0000000E+000	0.0000000E+000	61.5085	0.0000000E+000	0.0000000E+000	0.0000000E+000	-61.5085	0.0000000E+000	0.0000000E+000	0.0000000E+000	-28.4915	0.0000000E+000	0.0000000E+000	0.0000000E+000	28.4915	1.84242	61.5085	-1.72272e-06	-3.74264e-06	12804.9
21.5517	11.1895	4.35054	12.0055	-21.2464	12.3973	0.218906	-0.0205266	1697.44	222.906	1	10	0.00456927	0.000380599	0	4.12756e-05	0.0776338	0.0301845	0.0832953	21.2464	222906	573309	615118	-68.7536	0.0000000E+000	0.0000000E+000	0.0000000E+000	68.7536	0.0000000E+000	0.0000000E+000	0.0000000E+000	-68.7536	0.0000000E+000	0.0000000E+000	0.0000000E+000	-21.2464	0.0000000E+000	0.0000000E+000	0.0000000E+000	21.2464	2.57198	68.7536	-1.15598e-06	-4.49339e-06	10664.5
10.0032	13.384	3.49248	13.8321	-14.6249	13.5987	0.218953	-0.00982872	4555.61	290.427	1	11	0.00455897	0.000329593	0	3.58458e-05	0.069953	0.0182539	0.0722955	14.6249	290427	1.11298e+06	1.15025e+06	-75.3751	0.0000000E+000	0.0000000E+000	0.0000000E+000	75.3751	0.0000000E+000	0.0000000E+000	0.0000000E+000	-75.3751	0.0000000E+000	0.0000000E+000	0.0000000E+000	-14.6249	0.0000000E+000	0.0000000E+000	0.0000000E+000	14.6249	3.83222	75.3751	-3.71051e-06	-2.15203e-06	22276.8
4.63925	14.7798	2.58825	15.0047	-9.93297	14.4583	0.218958	-0.00948625	13254.6	394.388	1	11	0.00455909	0.000303844	0	3.56161e-05	0.0656467	0.0114961	0.0666457	9.93297	394388	2.25209e+06	2.28636e+06	-80.067	0.0000000E+000	0.0000000E+000	0.0000000E+000	80.067	0.0000000E+000	0.0000000E+000	0.0000000E+000	-80.067	0.0000000E+000	0.0000000E+000	0.0000000E+000	-9.93297	0.0000000E+000	0.0000000E+000	0.0000000E+000	9.93297	5.71034	80.067	2.60535e-06	-2.07709e-06	23081.6
2.15577	15.7441	1.99442	15.87	-7.2196	16.1828	0.218955	-0.00759451	37017	584.633	1	11	0.00456735	0.000287799	0	2.31691e-05	0.0625125	0.0079189	0.0630121	7.2196	584633	4.61514e+06	4.65203e+06	-82.7804	0.0000000E+000	0.0000000E+000	0.0000000E+000	82.7804	0.0000000E+000	0.0000000E+000	0.0000000E+000	-82.7804	0.0000000E+000	0.0000000E+000	0.0000000E+000	-7.2196	0.0000000E+000	0.0000000E+000	0.0000000E+000	7.2196	7.89409	82.7804	-7.39932e-06	-1.66285e-06	28830.7
1.00006	16.4479	1.68779	16.5342	-5.85888	20.8461	0.218954	-0.00768179	94291.8	982.524	1	12	0.00456859	0.000276311	0	2.31694e-05	0.0601647	0.00617377	0.0604806	5.85888	982524	9.57489e+06	9.62517e+06	-84.1411	0.0000000E+000	0.0000000E+000	0.0000000E+000	84.1411	0.0000000E+000	0.0000000E+000	0.0000000E+000	-84.1411	0.0000000E+000	0.0000000E+000	0.0000000E+000	-5.85888	0.0000000E+000	0.0000000E+000	0.0000000E+000	5.85888	9.7452	84.1411	2.65659e-06	-1.68196e-06	28503
0.464091	17.0369	1.67309	17.1188	-5.60869	28.5308	0.21895	-0.00497278	204974	1957.89	1	12	0.004567	0.000266782	0	2.55527e-05	0.0581355	0.00570914	0.0584152	5.60869	1.95789e+06	1.9937e+07	2.00329e+07	-84.3913	0.0000000E+000	0.0000000E+000	0.0000000E+000	84.3913	0.0000000E+000	0.0000000E+000	0.0000000E+000	-84.3913	0.0000000E+000	0.0000000E+000	0.0000000E+000	-5.60869	0.0000000E+000	0.0000000E+000	0.0000000E+000	5.60869	10.1829	84.3913	-2.46437e-06	-1.08879e-06	44029.6
0.215268	17.6058	2.11034	17.7318	-6.83523	45.0099	0.218953	-0.00216951	350338	4962.35	1	12	0.00456787	0.000257609	0	-3.26149e-05	0.055995	0.00671192	0.0563958	6.83523	4.96235e+06	4.1399e+07	4.16954e+07	-83.1648	0.0000000E+000	0.0000000E+000	0.0000000E+000	83.1648	0.0000000E+000	0.0000000E+000	0.0000000E+000	-83.1648	0.0000000E+000	0.0000000E+000	0.0000000E+000	-6.83523	0.0000000E+000	0.0000000E+000	0.0000000E+000	6.83523	8.34262	83.1648	-3.98129e-05	-4.7502e-07	100923
0.0999041	18.5425	3.09645	18.7992	-9.48047	80.4171	0.218946	-0.00377295	514486	13957.9	1	12	0.0045693	0.000243058	0	-0.000148483	0.0524671	0.0087616	0.0531937	9.48047	1.39579e+07	8.35842e+07	8.47416e+07	-80.5195	0.0000000E+000	0.0000000E+000	0.0000000E+000	80.5195	0.0000000E+000	0.0000000E+000	0.0000000E+000	-80.5195	0.0000000E+000	0.0000000E+000	0.0000000E+000	-9.48047	0.0000000E+000	0.0000000E+000	0.0000000E+000	9.48047	5.98831	80.5195	-5.83948e-05	-8.26074e-07	58030.4
0.0464052	19.7835	5.02331	20.4112	-14.2471	156.654	0.218949	-0.00317691	682753	41352.8	1	12	0.00456538	0.00022367	0	-0.000127003	0.0474858	0.0120573	0.0489926	14.2471	4.13528e+07	1.62861e+08	1.68029e+08	-75.7529	0.0000000E+000	0.0000000E+000	0.0000000E+000	75.7529	0.0000000E+000	0.0000000E+000	0.0000000E+000	-75.7529	0.0000000E+000	0.0000000E+000	0.0000000E+000	-14.2471	0.0000000E+000	0.0000000E+000	0.0000000E+000	14.2471	3.93833	75.7529	5.0854e-05	-6.95583e-07	68918.9
0.0215268	21.7688	8.04588	23.2081	-20.2847	320.884	0.218956	-0.000395028	918898	110442	1	12	0.0045675	0.000196806	0	0.000240949	0.0404162	0.0149381	0.0430884	20.2847	1.10442e+08	2.98811e+08	3.18568e+08	-69.7153	0.0000000E+000	0.0000000E+000	0.0000000E+000	69.7153	0.0000000E+000	0.0000000E+000	0.0000000E+000	-69.7153	0.0000000E+000	0.0000000E+000	0.0000000E+000	-20.2847	0.0000000E+000	0.0000000E+000	0.0000000E+000	20.2847	2.70558	69.7153	0.000210633	-8.64937e-08	554279
0.0100092	24.455	14.1131	28.2352	-29.9894	674.1	0.218951	-1.95924e-06	1.12668e+06	281490	1	12	0.00456658	0.000161734	0	0.000135233	0.0306751	0.0177027	0.0354168	29.9894	2.8149e+08	4.87762e+08	5.63159e+08	-60.0106	0.0000000E+000	0.0000000E+000	0.0000000E+000	60.0106	0.0000000E+000	0.0000000E+000	0.0000000E+000	-60.0106	0.0000000E+000	0.0000000E+000	0.0000000E+000	-29.9894	0.0000000E+000	0.0000000E+000	0.0000000E+000	29.9894	1.73279	60.0106	-0.00020789	-4.28976e-10	1.11753e+08