File: txt/17465_C06.mpt
EC-Lab ASCII FILE
Nb header lines : 64

Potentio Electrochemical Impedance Spectroscopy

Run on channel : 6 (SN 65795)
User :
CE vs. WE compliance from -10 V to 10 V
Electrode connection : standard
Potential control : Ewe
Ewe ctrl range : min = -10.00 V, max = 10.00 V
Safety Limits :
	Do not start on E overload
Acquisition started on : 09/12/2025 10:00:54.865
Technique started on : 09/12/2025 10:00:56.730
Loaded Setting File :  C:\Users\Celltest\OneDrive - store-dot.com\Documents\EC-Lab\Data\Charmaine\R279\17383.mps
Saved on :
	File : 17465_C06.mpr
	Directory : C:\Users\Celltest\OneDrive - store-dot.com\Documents\EC-Lab\Data\Gyutae\R277\
	Host : 169.254.61.224
Device : VMP-3e (SN .003165)
Address : USB
EC-LAB for windows v11.62 (software)
Internet server v27.00 (firmware)
Command interpretor v12.03 (firmware)
Electrode material :
Initial state :
Electrolyte :
Comments :
Electrode surface area : 0.001 cm²
Characteristic mass : 0.001 g
Equivalent Weight : 0.000 g/eq.
Density : 0.000 g/cm3
Volume (V) : 0.001 cm³
Cycle Definition : Charge/Discharge alternance
Mode                Single sine
E (V)               0.0000
vs.                 Eoc
tE (h:m:s)          0:00:0.0000
record              0
dI                  0.000
unit dI             mA
dt (s)              0.000
fi                  100.000
unit fi             kHz
ff                  10.000
unit ff             mHz
Nd                  6
Points              per decade
spacing             Logarithmic
Va (mV)             5.0
pw                  0.10
Na                  2
corr                0
E range min (V)     -10.000
E range max (V)     10.000
I Range             Auto
Bandwidth           5
nc cycles           0
goto Ns'            0
nr cycles           0
inc. cycle          0

freq/Hz	Re(Z)/Ohm	-Im(Z)/Ohm	|Z|/Ohm	Phase(Z)/deg	time/s	<Ewe>/V	<I>/mA	Cs/µF	Cp/µF	cycle number	I Range	|Ewe|/V	|I|/A	Ns	(Q-Qo)/mA.h	Re(Y)/Ohm-1	Im(Y)/Ohm-1	|Y|/Ohm-1	Phase(Y)/deg	Re(C)/nF	Im(C)/nF	|C|/nF	Phase(C)/deg	Re(M)	Im(M)	|M|	Phase(M)/deg	Re(Permittivity)	Im(Permittivity)	|Permittivity|	Phase(Permittivity)/deg	Re(Resistivity)/Ohm.cm	Im(Resistivity)/Ohm.cm	|Resistivity|/Ohm.cm	Phase(Resistivity)/deg	Re(Conductivity)/mS/cm	Im(Conductivity)/mS/cm	|Conductivity|/mS/cm	Phase(Conductivity)/deg	Tan(Delta)	Loss Angle(Delta)/deg	dq/mA.h	Pwe/W	Rwe/Ohm
100004	1.1073	0.243075	1.13367	-12.3812	1.86549	0.273012	0.0497964	6.54732	0.301003	1	9	0.00471439	0.00415852	0	-8.10833e-06	0.861575	0.189133	0.88209	12.3812	301.003	1371.19	1403.84	-77.6188	0.0000000E+000	0.0000000E+000	0.0000000E+000	77.6188	0.0000000E+000	0.0000000E+000	0.0000000E+000	-77.6188	0.0000000E+000	0.0000000E+000	0.0000000E+000	-12.3812	0.0000000E+000	0.0000000E+000	0.0000000E+000	12.3812	4.5554	77.6188	-8.10833e-06	1.3595e-05	5482.56
46420.4	1.23694	0.302709	1.27344	-13.7514	3.02148	0.27299	0.0486417	11.3262	0.639999	1	9	0.00509047	0.00399742	0	1.09931e-05	0.762765	0.186667	0.785274	13.7514	639.999	2615.19	2692.36	-76.2486	0.0000000E+000	0.0000000E+000	0.0000000E+000	76.2486	0.0000000E+000	0.0000000E+000	0.0000000E+000	-76.2486	0.0000000E+000	0.0000000E+000	0.0000000E+000	-13.7514	0.0000000E+000	0.0000000E+000	0.0000000E+000	13.7514	4.08623	76.2486	3.11351e-06	1.32787e-05	5612.27
21544.7	1.39007	0.388311	1.44329	-15.6075	4.03748	0.272975	0.0465184	19.0239	1.37707	1	9	0.00541183	0.00374965	0	3.63341e-05	0.667315	0.186412	0.692863	15.6075	1377.07	4929.59	5118.32	-74.3925	0.0000000E+000	0.0000000E+000	0.0000000E+000	74.3925	0.0000000E+000	0.0000000E+000	0.0000000E+000	-74.3925	0.0000000E+000	0.0000000E+000	0.0000000E+000	-15.6075	0.0000000E+000	0.0000000E+000	0.0000000E+000	15.6075	3.57978	74.3925	1.0031e-05	1.26983e-05	5868.1
10002.2	1.57473	0.499809	1.65214	-17.6091	4.62948	0.272988	0.0505786	31.8361	2.91362	1	9	0.00464631	0.00281229	0	4.44622e-05	0.576913	0.183109	0.605275	17.6091	2913.61	9179.81	9631.1	-72.3909	0.0000000E+000	0.0000000E+000	0.0000000E+000	72.3909	0.0000000E+000	0.0000000E+000	0.0000000E+000	-72.3909	0.0000000E+000	0.0000000E+000	0.0000000E+000	-17.6091	0.0000000E+000	0.0000000E+000	0.0000000E+000	17.6091	3.15066	72.3909	4.69259e-06	1.38074e-05	5397.3
4641.49	1.82193	0.654965	1.93608	-19.773	5.65569	0.272942	0.0691291	52.3534	5.99148	1	9	0.00476902	0.00246323	0	4.06939e-05	0.486054	0.174731	0.516507	19.773	5991.48	16666.6	17710.8	-70.227	0.0000000E+000	0.0000000E+000	0.0000000E+000	70.227	0.0000000E+000	0.0000000E+000	0.0000000E+000	-70.227	0.0000000E+000	0.0000000E+000	0.0000000E+000	-19.773	0.0000000E+000	0.0000000E+000	0.0000000E+000	19.773	2.78172	70.227	1.05663e-05	1.88682e-05	3948.29
2155.69	2.14293	0.857029	2.30795	-21.7981	6.58969	0.272944	0.0690173	86.1466	11.8789	1	9	0.0046455	0.00201282	0	5.63113e-05	0.402304	0.160895	0.433284	21.7981	11878.9	29702.2	31989.5	-68.2019	0.0000000E+000	0.0000000E+000	0.0000000E+000	68.2019	0.0000000E+000	0.0000000E+000	0.0000000E+000	-68.2019	0.0000000E+000	0.0000000E+000	0.0000000E+000	-21.7981	0.0000000E+000	0.0000000E+000	0.0000000E+000	21.7981	2.50042	68.2019	8.49048e-06	1.88379e-05	3954.72
1000.32	2.53804	1.14263	2.78339	-24.2374	7.5257	0.272941	0.0635788	139.243	23.466	1	9	0.00460099	0.00165302	0	7.1267e-05	0.327605	0.147488	0.359274	24.2374	23466	52123.2	57161.9	-65.7626	0.0000000E+000	0.0000000E+000	0.0000000E+000	65.7626	0.0000000E+000	0.0000000E+000	0.0000000E+000	-65.7626	0.0000000E+000	0.0000000E+000	0.0000000E+000	-24.2374	0.0000000E+000	0.0000000E+000	0.0000000E+000	24.2374	2.22123	65.7626	5.98778e-06	1.73532e-05	4292.95
463.961	3.08287	1.61979	3.4825	-27.7181	8.71419	0.27292	-0.0189837	211.778	45.8158	1	10	0.00463781	0.00133175	0	7.09277e-05	0.254199	0.13356	0.28715	27.7181	45815.8	87199.2	98502.7	-62.2819	0.0000000E+000	0.0000000E+000	0.0000000E+000	62.2819	0.0000000E+000	0.0000000E+000	0.0000000E+000	-62.2819	0.0000000E+000	0.0000000E+000	0.0000000E+000	-27.7181	0.0000000E+000	0.0000000E+000	0.0000000E+000	27.7181	1.90325	62.2819	-2.39735e-06	-5.18104e-06	14376.5
215.345	3.94573	2.31186	4.57312	-30.3666	9.64842	0.272925	-0.0184061	319.687	81.6999	1	10	0.0045954	0.00100487	0	6.4882e-05	0.188669	0.110544	0.218669	30.3666	81699.9	139440	161612	-59.6334	0.0000000E+000	0.0000000E+000	0.0000000E+000	59.6334	0.0000000E+000	0.0000000E+000	0.0000000E+000	-59.6334	0.0000000E+000	0.0000000E+000	0.0000000E+000	-30.3666	0.0000000E+000	0.0000000E+000	0.0000000E+000	30.3666	1.70674	59.6334	-2.94505e-06	-5.0235e-06	14828
100.032	5.3721	3.04276	6.17397	-29.5273	10.5797	0.272924	-0.018026	522.893	127.005	1	10	0.0045806	0.000741921	0	6.17488e-05	0.140934	0.0798251	0.16197	29.5273	127005	224232	257701	-60.4727	0.0000000E+000	0.0000000E+000	0.0000000E+000	60.4727	0.0000000E+000	0.0000000E+000	0.0000000E+000	-60.4727	0.0000000E+000	0.0000000E+000	0.0000000E+000	-29.5273	0.0000000E+000	0.0000000E+000	0.0000000E+000	29.5273	1.76553	60.4727	-1.37252e-06	-4.91974e-06	15140.6
46.4415	7.30721	3.39029	8.05539	-24.8896	11.5135	0.272931	-0.0193136	1010.83	179.051	1	10	0.00457414	0.000567836	0	5.8459e-05	0.11261	0.0522472	0.12414	24.8896	179051	385915	425429	-65.1104	0.0000000E+000	0.0000000E+000	0.0000000E+000	65.1104	0.0000000E+000	0.0000000E+000	0.0000000E+000	-65.1104	0.0000000E+000	0.0000000E+000	0.0000000E+000	-24.8896	0.0000000E+000	0.0000000E+000	0.0000000E+000	24.8896	2.15534	65.1104	-1.88283e-06	-5.27128e-06	14131.6
21.5517	9.23314	3.0964	9.73851	-18.5393	12.3973	0.272921	-0.0240128	2384.96	241.108	1	10	0.00457661	0.00046995	0	5.38271e-05	0.0973564	0.0326492	0.102685	18.5393	241108	718956	758308	-71.4607	0.0000000E+000	0.0000000E+000	0.0000000E+000	71.4607	0.0000000E+000	0.0000000E+000	0.0000000E+000	-71.4607	0.0000000E+000	0.0000000E+000	0.0000000E+000	-18.5393	0.0000000E+000	0.0000000E+000	0.0000000E+000	18.5393	2.98189	71.4607	-1.93799e-06	-6.55358e-06	11365.7
10.0032	10.6794	2.52327	10.9734	-13.2938	13.3437	0.272928	-0.0169379	6305.47	333.397	1	10	0.00457054	0.00041651	0	5.13246e-05	0.0886874	0.0209546	0.0911293	13.2938	333396	1.41105e+06	1.4499e+06	-76.7062	0.0000000E+000	0.0000000E+000	0.0000000E+000	76.7062	0.0000000E+000	0.0000000E+000	0.0000000E+000	-76.7062	0.0000000E+000	0.0000000E+000	0.0000000E+000	-13.2938	0.0000000E+000	0.0000000E+000	0.0000000E+000	13.2938	4.23236	76.7062	-1.1545e-06	-4.62282e-06	16113.5
4.63925	11.8083	1.95768	11.9695	-9.41336	14.4083	0.272945	-0.0118897	17523.9	468.775	1	11	0.00457672	0.000382367	0	5.01751e-05	0.082421	0.0136645	0.083546	9.41336	468775	2.82755e+06	2.86614e+06	-80.5866	0.0000000E+000	0.0000000E+000	0.0000000E+000	80.5866	0.0000000E+000	0.0000000E+000	0.0000000E+000	-80.5866	0.0000000E+000	0.0000000E+000	0.0000000E+000	-9.41336	0.0000000E+000	0.0000000E+000	0.0000000E+000	9.41336	6.03178	80.5866	7.26423e-07	-3.24523e-06	22956.4
2.15577	12.5565	1.49896	12.6456	-6.80759	16.1348	0.272951	-0.010798	49252.6	692.032	1	11	0.00457425	0.000361726	0	3.58724e-05	0.0785211	0.00937363	0.0790786	6.80759	692032	5.79702e+06	5.83818e+06	-83.1924	0.0000000E+000	0.0000000E+000	0.0000000E+000	83.1924	0.0000000E+000	0.0000000E+000	0.0000000E+000	-83.1924	0.0000000E+000	0.0000000E+000	0.0000000E+000	-6.80759	0.0000000E+000	0.0000000E+000	0.0000000E+000	6.80759	8.37681	83.1924	-5.83226e-06	-2.94732e-06	25278
1.00006	13.0713	1.22812	13.1289	-5.36749	19.7482	0.27296	-0.00980718	129584	1133.91	1	11	0.00457633	0.00034857	0	4.43797e-05	0.0758341	0.00712503	0.0761681	5.36749	1.13391e+06	1.20686e+07	1.21218e+07	-84.6325	0.0000000E+000	0.0000000E+000	0.0000000E+000	84.6325	0.0000000E+000	0.0000000E+000	0.0000000E+000	-84.6325	0.0000000E+000	0.0000000E+000	0.0000000E+000	-5.36749	0.0000000E+000	0.0000000E+000	0.0000000E+000	5.36749	10.6433	84.6325	6.4434e-06	-2.67696e-06	27832.6
0.464091	13.4827	1.20433	13.5364	-5.10437	27.4328	0.272953	-0.00559364	284754	2254.03	1	11	0.00457779	0.000338184	0	3.68588e-05	0.073582	0.00657268	0.073875	5.10437	2.25403e+06	2.52342e+07	2.53346e+07	-84.8956	0.0000000E+000	0.0000000E+000	0.0000000E+000	84.8956	0.0000000E+000	0.0000000E+000	0.0000000E+000	-84.8956	0.0000000E+000	0.0000000E+000	0.0000000E+000	-5.10437	0.0000000E+000	0.0000000E+000	0.0000000E+000	5.10437	11.1951	84.8956	-1.03122e-05	-1.5268e-06	48797
0.215268	13.8722	1.50435	13.9536	-6.18915	43.9127	0.272956	-0.00376748	491465	5712.41	1	11	0.00457708	0.000328022	0	-4.87344e-05	0.0712486	0.00772642	0.0716663	6.18915	5.71241e+06	5.26766e+07	5.29854e+07	-83.8109	0.0000000E+000	0.0000000E+000	0.0000000E+000	83.8109	0.0000000E+000	0.0000000E+000	0.0000000E+000	-83.8109	0.0000000E+000	0.0000000E+000	0.0000000E+000	-6.18915	0.0000000E+000	0.0000000E+000	0.0000000E+000	6.18915	9.22142	83.8109	-5.48529e-05	-1.02836e-06	72450.6
0.0999041	14.4839	2.30412	14.6661	-9.03892	79.3183	0.272948	-0.00564021	691405	17065.3	1	11	0.00457767	0.000312127	0	-0.000164697	0.0673379	0.0107122	0.0681846	9.03892	1.70653e+07	1.07274e+08	1.08623e+08	-80.9611	0.0000000E+000	0.0000000E+000	0.0000000E+000	80.9611	0.0000000E+000	0.0000000E+000	0.0000000E+000	-80.9611	0.0000000E+000	0.0000000E+000	0.0000000E+000	-9.03892	0.0000000E+000	0.0000000E+000	0.0000000E+000	9.03892	6.28611	80.9611	-4.96395e-05	-1.53949e-06	48393.3
0.0464052	15.2787	3.80039	15.7443	-13.9682	155.555	0.272949	-0.00307332	902455	52582	1	11	0.00457485	0.000290572	0	-4.9815e-05	0.0616371	0.0153315	0.0635152	13.9682	5.2582e+07	2.11395e+08	2.17837e+08	-76.0318	0.0000000E+000	0.0000000E+000	0.0000000E+000	76.0318	0.0000000E+000	0.0000000E+000	0.0000000E+000	-76.0318	0.0000000E+000	0.0000000E+000	0.0000000E+000	-13.9682	0.0000000E+000	0.0000000E+000	0.0000000E+000	13.9682	4.0203	76.0318	0.000116103	-8.38861e-07	88812.3
0.0215268	16.7999	6.44066	17.9922	-20.9755	351.521	0.272939	5.21896e-05	1.14792e+06	147096	1	12	0.00457638	0.000254353	0	0.000358801	0.0518965	0.0198957	0.0555796	20.9755	1.47096e+08	3.83689e+08	4.10919e+08	-69.0245	0.0000000E+000	0.0000000E+000	0.0000000E+000	69.0245	0.0000000E+000	0.0000000E+000	0.0000000E+000	-69.0245	0.0000000E+000	0.0000000E+000	0.0000000E+000	-20.9755	0.0000000E+000	0.0000000E+000	0.0000000E+000	20.9755	2.60842	69.0245	0.000200561	1.42446e-08	5.22975e+06
0.0100092	18.7994	11.3563	21.9632	-31.1353	704.738	0.272932	6.34333e-05	1.40018e+06	374342	1	12	0.00457645	0.000208369	0	-0.000127079	0.038972	0.0235422	0.0455307	31.1353	3.74342e+08	6.1969e+08	7.2398e+08	-58.8647	0.0000000E+000	0.0000000E+000	0.0000000E+000	58.8647	0.0000000E+000	0.0000000E+000	0.0000000E+000	-58.8647	0.0000000E+000	0.0000000E+000	0.0000000E+000	-31.1353	0.0000000E+000	0.0000000E+000	0.0000000E+000	31.1353	1.65541	58.8647	-0.000455417	1.7313e-08	4.30266e+06