File: txt/17466_R277_UA656_SOC00_C07.mpt
EC-Lab ASCII FILE
Nb header lines : 63

Potentio Electrochemical Impedance Spectroscopy

Run on channel : 7 (SN 66126)
User :
CE vs. WE compliance from -10 V to 10 V
Electrode connection : standard
Potential control : Ewe
Ewe ctrl range : min = -10.00 V, max = 10.00 V
Safety Limits :
	Do not start on E overload
Acquisition started on : 09/12/2025 10:01:06.780
Loaded Setting File :  C:\Users\Celltest\OneDrive - store-dot.com\Documents\EC-Lab\Data\Charmaine\R279\17382_C01.mpr
Saved on :
	File : 17466_C07.mpr
	Directory : C:\Users\Celltest\OneDrive - store-dot.com\Documents\EC-Lab\Data\Gyutae\R277\
	Host : 169.254.61.224
Device : VMP-3e (SN .003165)
Address : USB
EC-LAB for windows v11.62 (software)
Internet server v27.00 (firmware)
Command interpretor v12.03 (firmware)
Electrode material :
Initial state :
Electrolyte :
Comments :
Electrode surface area : 0.001 cm²
Characteristic mass : 0.001 g
Equivalent Weight : 0.000 g/eq.
Density : 0.000 g/cm3
Volume (V) : 0.001 cm³
Cycle Definition : Charge/Discharge alternance
Mode                Single sine
E (V)               0.0000
vs.                 Eoc
tE (h:m:s)          0:00:0.0000
record              0
dI                  0.000
unit dI             mA
dt (s)              0.000
fi                  100.000
unit fi             kHz
ff                  10.000
unit ff             mHz
Nd                  6
Points              per decade
spacing             Logarithmic
Va (mV)             5.0
pw                  0.10
Na                  2
corr                0
E range min (V)     -10.000
E range max (V)     10.000
I Range             Auto
Bandwidth           5
nc cycles           0
goto Ns'            0
nr cycles           0
inc. cycle          0

freq/Hz	Re(Z)/Ohm	-Im(Z)/Ohm	|Z|/Ohm	Phase(Z)/deg	time/s	<Ewe>/V	<I>/mA	Cs/µF	Cp/µF	cycle number	I Range	|Ewe|/V	|I|/A	Ns	(Q-Qo)/mA.h	Re(Y)/Ohm-1	Im(Y)/Ohm-1	|Y|/Ohm-1	Phase(Y)/deg	Re(C)/nF	Im(C)/nF	|C|/nF	Phase(C)/deg	Re(M)	Im(M)	|M|	Phase(M)/deg	Re(Permittivity)	Im(Permittivity)	|Permittivity|	Phase(Permittivity)/deg	Re(Resistivity)/Ohm.cm	Im(Resistivity)/Ohm.cm	|Resistivity|/Ohm.cm	Phase(Resistivity)/deg	Re(Conductivity)/mS/cm	Im(Conductivity)/mS/cm	|Conductivity|/mS/cm	Phase(Conductivity)/deg	Tan(Delta)	Loss Angle(Delta)/deg	dq/mA.h	Pwe/W	Rwe/Ohm
100004	1.56774	0.232238	1.58485	-8.42625	1.91748	0.278294	0.0614468	6.85283	0.14715	1	9	0.00474096	0.00299142	0	8.09316e-06	0.624162	0.0924605	0.630973	8.42625	147.15	993.348	1004.19	-81.5737	0.0000000E+000	0.0000000E+000	0.0000000E+000	81.5737	0.0000000E+000	0.0000000E+000	0.0000000E+000	-81.5737	0.0000000E+000	0.0000000E+000	0.0000000E+000	-8.42625	0.0000000E+000	0.0000000E+000	0.0000000E+000	8.42625	6.75058	81.5737	8.09316e-06	1.71003e-05	4529.02
46420.4	1.68836	0.329486	1.72021	-11.0426	2.79149	0.278316	0.061391	10.4058	0.381758	1	9	0.00524251	0.00304761	0	1.92898e-05	0.570562	0.111346	0.581326	11.0426	381.757	1956.21	1993.11	-78.9574	0.0000000E+000	0.0000000E+000	0.0000000E+000	78.9574	0.0000000E+000	0.0000000E+000	0.0000000E+000	-78.9574	0.0000000E+000	0.0000000E+000	0.0000000E+000	-11.0426	0.0000000E+000	0.0000000E+000	0.0000000E+000	11.0426	5.12421	78.9574	2.33325e-06	1.70861e-05	4533.5
21544.7	1.85352	0.471449	1.91254	-14.2708	4.37048	0.27834	0.0418234	15.6692	0.952126	1	9	0.00510909	0.00267137	0	0.000231564	0.506731	0.128889	0.522866	14.2708	952.127	3743.32	3862.51	-75.7292	0.0000000E+000	0.0000000E+000	0.0000000E+000	75.7292	0.0000000E+000	0.0000000E+000	0.0000000E+000	-75.7292	0.0000000E+000	0.0000000E+000	0.0000000E+000	-14.2708	0.0000000E+000	0.0000000E+000	0.0000000E+000	14.2708	3.93154	75.7292	0.000210502	1.16411e-05	6655.12
10002.2	2.08172	0.603849	2.16753	-16.176	4.96349	0.278339	0.0470551	26.3509	2.04513	1	9	0.0046767	0.00215762	0	0.000237533	0.44309	0.128528	0.461354	16.176	2045.13	7050.42	7341.05	-73.824	0.0000000E+000	0.0000000E+000	0.0000000E+000	73.824	0.0000000E+000	0.0000000E+000	0.0000000E+000	-73.824	0.0000000E+000	0.0000000E+000	0.0000000E+000	-16.176	0.0000000E+000	0.0000000E+000	0.0000000E+000	16.176	3.44742	73.824	4.19564e-06	1.30973e-05	5915.17
4641.49	2.38004	0.787061	2.5068	-18.2986	5.98967	0.278339	0.0675535	43.5667	4.29468	1	9	0.00490874	0.00195817	0	0.000247787	0.378743	0.125247	0.398915	18.2986	4294.68	12987	13678.6	-71.7014	0.0000000E+000	0.0000000E+000	0.0000000E+000	71.7014	0.0000000E+000	0.0000000E+000	0.0000000E+000	-71.7014	0.0000000E+000	0.0000000E+000	0.0000000E+000	-18.2986	0.0000000E+000	0.0000000E+000	0.0000000E+000	18.2986	3.02396	71.7014	6.29182e-06	1.88028e-05	4120.27
2155.69	2.75824	1.0322	2.94505	-20.5171	6.92369	0.278348	0.0640347	71.527	8.78643	1	9	0.00479801	0.00162918	0	0.000264242	0.318014	0.119009	0.339553	20.5171	8786.43	23479.1	25069.2	-69.4829	0.0000000E+000	0.0000000E+000	0.0000000E+000	69.4829	0.0000000E+000	0.0000000E+000	0.0000000E+000	-69.4829	0.0000000E+000	0.0000000E+000	0.0000000E+000	-20.5171	0.0000000E+000	0.0000000E+000	0.0000000E+000	20.5171	2.67219	69.4829	8.17529e-06	1.7824e-05	4346.84
1000.32	3.27177	1.37987	3.55085	-22.8676	8.1137	0.278329	-0.0120051	115.303	17.4122	1	10	0.00483785	0.00136245	0	0.000274921	0.259488	0.109439	0.281622	22.8676	17412.2	41285.6	44807.3	-67.1324	0.0000000E+000	0.0000000E+000	0.0000000E+000	67.1324	0.0000000E+000	0.0000000E+000	0.0000000E+000	-67.1324	0.0000000E+000	0.0000000E+000	0.0000000E+000	-22.8676	0.0000000E+000	0.0000000E+000	0.0000000E+000	22.8676	2.37107	67.1324	4.33734e-06	-3.34138e-06	23184.2
463.961	3.92287	1.89353	4.35596	-25.7661	9.04819	0.278319	-0.0116571	181.162	34.2329	1	10	0.00478343	0.00109813	0	0.000272392	0.206746	0.099794	0.229571	25.7661	34232.9	70921.1	78750.9	-64.2339	0.0000000E+000	0.0000000E+000	0.0000000E+000	64.2339	0.0000000E+000	0.0000000E+000	0.0000000E+000	-64.2339	0.0000000E+000	0.0000000E+000	0.0000000E+000	-25.7661	0.0000000E+000	0.0000000E+000	0.0000000E+000	25.7661	2.07172	64.2339	-1.32872e-06	-3.24439e-06	23875.6
215.345	4.89182	2.68325	5.5794	-28.7455	9.98243	0.27832	-0.0125412	275.439	63.7047	1	10	0.00475183	0.000851673	0	0.000270716	0.157143	0.0861956	0.179231	28.7455	63704.7	116140	132464	-61.2545	0.0000000E+000	0.0000000E+000	0.0000000E+000	61.2545	0.0000000E+000	0.0000000E+000	0.0000000E+000	-61.2545	0.0000000E+000	0.0000000E+000	0.0000000E+000	-28.7455	0.0000000E+000	0.0000000E+000	0.0000000E+000	28.7455	1.8231	61.2545	-8.57865e-07	-3.49047e-06	22192.4
100.032	6.49074	3.60555	7.42494	-29.0518	10.9137	0.278322	-0.0112439	441.275	104.056	1	10	0.00473472	0.000637678	0	0.000266779	0.117736	0.0654012	0.134681	29.0518	104056	187322	214283	-60.9482	0.0000000E+000	0.0000000E+000	0.0000000E+000	60.9482	0.0000000E+000	0.0000000E+000	0.0000000E+000	-60.9482	0.0000000E+000	0.0000000E+000	0.0000000E+000	-29.0518	0.0000000E+000	0.0000000E+000	0.0000000E+000	29.0518	1.80021	60.9482	-2.02552e-06	-3.12941e-06	24753.3
46.4415	8.78639	4.19644	9.73709	-25.5294	11.8475	0.27831	-0.0145813	816.643	151.683	1	10	0.00473688	0.000486478	0	0.000263281	0.0926729	0.0442612	0.1027	25.5294	151683	317590	351953	-64.4706	0.0000000E+000	0.0000000E+000	0.0000000E+000	64.4706	0.0000000E+000	0.0000000E+000	0.0000000E+000	-64.4706	0.0000000E+000	0.0000000E+000	0.0000000E+000	-25.5294	0.0000000E+000	0.0000000E+000	0.0000000E+000	25.5294	2.09377	64.4706	-1.9336e-06	-4.05813e-06	19086.8
21.5517	11.2082	3.99329	11.8984	-19.6101	12.7354	0.278309	-0.017312	1849.3	208.303	1	10	0.00472938	0.000397481	0	0.00025943	0.0791705	0.028207	0.0840452	19.6101	208303	584657	620656	-70.39	0.0000000E+000	0.0000000E+000	0.0000000E+000	70.39	0.0000000E+000	0.0000000E+000	0.0000000E+000	-70.39	0.0000000E+000	0.0000000E+000	0.0000000E+000	-19.6101	0.0000000E+000	0.0000000E+000	0.0000000E+000	19.6101	2.80677	70.39	-2.20421e-06	-4.81807e-06	16076.1
10.0032	13.2486	3.34657	13.6647	-14.1763	13.9357	0.278352	-0.00716485	4754.24	285.155	1	11	0.00472978	0.000346131	0	0.000259006	0.0709527	0.0179226	0.0731813	14.1763	285155	1.12889e+06	1.16434e+06	-75.8237	0.0000000E+000	0.0000000E+000	0.0000000E+000	75.8237	0.0000000E+000	0.0000000E+000	0.0000000E+000	-75.8237	0.0000000E+000	0.0000000E+000	0.0000000E+000	-14.1763	0.0000000E+000	0.0000000E+000	0.0000000E+000	14.1763	3.95885	75.8237	1.18316e-06	-1.99435e-06	38849.6
4.63925	14.7234	2.6516	14.9602	-10.2092	14.7963	0.278357	-0.00655282	12937.9	406.447	1	11	0.00473959	0.000316813	0	0.00025711	0.0657856	0.0118476	0.0668439	10.2092	406447	2.25685e+06	2.29316e+06	-79.7908	0.0000000E+000	0.0000000E+000	0.0000000E+000	79.7908	0.0000000E+000	0.0000000E+000	0.0000000E+000	-79.7908	0.0000000E+000	0.0000000E+000	0.0000000E+000	-10.2092	0.0000000E+000	0.0000000E+000	0.0000000E+000	10.2092	5.55264	79.7908	2.76223e-06	-1.82402e-06	42478.9
2.15577	15.742	2.04026	15.8737	-7.38472	16.5228	0.278371	-0.00411321	36185.4	597.791	1	11	0.00473447	0.00029826	0	0.00025197	0.0624749	0.00809714	0.0629975	7.38472	597791	4.61237e+06	4.65095e+06	-82.6153	0.0000000E+000	0.0000000E+000	0.0000000E+000	82.6153	0.0000000E+000	0.0000000E+000	0.0000000E+000	-82.6153	0.0000000E+000	0.0000000E+000	0.0000000E+000	-7.38472	0.0000000E+000	0.0000000E+000	0.0000000E+000	7.38472	7.71568	82.6153	-6.27755e-06	-1.145e-06	67677.3
1.00006	16.4802	1.62928	16.5605	-5.64606	21.1862	0.278374	-0.00457037	97678.2	945.448	1	12	0.00473565	0.00028596	0	0.000239074	0.0600915	0.00594081	0.0603845	5.64606	945448	9.56325e+06	9.60988e+06	-84.3539	0.0000000E+000	0.0000000E+000	0.0000000E+000	84.3539	0.0000000E+000	0.0000000E+000	0.0000000E+000	-84.3539	0.0000000E+000	0.0000000E+000	0.0000000E+000	-5.64606	0.0000000E+000	0.0000000E+000	0.0000000E+000	5.64606	10.115	84.3539	-4.29633e-06	-1.27227e-06	60908.3
0.464091	16.9912	1.51075	17.0583	-5.08102	28.8708	0.278371	-0.00442523	226999	1780.5	1	12	0.00473466	0.000277558	0	0.000258128	0.0583922	0.00519187	0.0586226	5.08102	1.7805e+06	2.0025e+07	2.0104e+07	-84.919	0.0000000E+000	0.0000000E+000	0.0000000E+000	84.919	0.0000000E+000	0.0000000E+000	0.0000000E+000	-84.919	0.0000000E+000	0.0000000E+000	0.0000000E+000	-5.08102	0.0000000E+000	0.0000000E+000	0.0000000E+000	5.08102	11.2469	84.919	1.24345e-05	-1.23185e-06	62905.4
0.215268	17.5064	1.81405	17.6001	-5.91602	45.3508	0.27838	-0.000765756	407560	4329.73	1	12	0.00473725	0.00026916	0	0.000262716	0.0565153	0.00585626	0.0568179	5.91602	4.32973e+06	4.17837e+07	4.20074e+07	-84.084	0.0000000E+000	0.0000000E+000	0.0000000E+000	84.084	0.0000000E+000	0.0000000E+000	0.0000000E+000	-84.084	0.0000000E+000	0.0000000E+000	0.0000000E+000	-5.91602	0.0000000E+000	0.0000000E+000	0.0000000E+000	5.91602	9.65041	84.084	-5.36856e-06	-2.13171e-07	363537
0.0999041	18.0818	2.64669	18.2745	-8.32744	80.7564	0.278377	-0.000295617	601912	12625.5	1	12	0.00473618	0.000259169	0	0.000154469	0.0541441	0.00792526	0.0547211	8.32744	1.26256e+07	8.62558e+07	8.71749e+07	-81.6726	0.0000000E+000	0.0000000E+000	0.0000000E+000	81.6726	0.0000000E+000	0.0000000E+000	0.0000000E+000	-81.6726	0.0000000E+000	0.0000000E+000	0.0000000E+000	-8.32744	0.0000000E+000	0.0000000E+000	0.0000000E+000	8.32744	6.83185	81.6726	-7.35539e-05	-8.22931e-08	941682
0.0464052	19.1945	4.26122	19.6619	-12.5168	156.993	0.278389	-0.00215976	804859	37804	1	12	0.00473174	0.000240656	0	-3.33439e-05	0.0496511	0.0110226	0.0508599	12.5168	3.7804e+07	1.70287e+08	1.74433e+08	-77.4832	0.0000000E+000	0.0000000E+000	0.0000000E+000	77.4832	0.0000000E+000	0.0000000E+000	0.0000000E+000	-77.4832	0.0000000E+000	0.0000000E+000	0.0000000E+000	-12.5168	0.0000000E+000	0.0000000E+000	0.0000000E+000	12.5168	4.50447	77.4832	-8.92793e-05	-6.01253e-07	128898
0.0215268	20.5799	7.20387	21.8043	-19.2923	321.222	0.278386	-0.00172683	1.0263e+06	112027	1	12	0.00473475	0.000217147	0	0.000170891	0.0432871	0.0151524	0.0458625	19.2923	1.12027e+08	3.20036e+08	3.39077e+08	-70.7077	0.0000000E+000	0.0000000E+000	0.0000000E+000	70.7077	0.0000000E+000	0.0000000E+000	0.0000000E+000	-70.7077	0.0000000E+000	0.0000000E+000	0.0000000E+000	-19.2923	0.0000000E+000	0.0000000E+000	0.0000000E+000	19.2923	2.85679	70.7077	0.000194102	-4.80726e-07	161212
0.0100092	23.272	12.3181	26.331	-27.8927	674.44	0.278383	-9.38189e-05	1.29086e+06	282508	1	12	0.00473461	0.000179811	0	0.000882874	0.0335659	0.0177668	0.037978	27.8927	2.82508e+08	5.33729e+08	6.03886e+08	-62.1073	0.0000000E+000	0.0000000E+000	0.0000000E+000	62.1073	0.0000000E+000	0.0000000E+000	0.0000000E+000	-62.1073	0.0000000E+000	0.0000000E+000	0.0000000E+000	-27.8927	0.0000000E+000	0.0000000E+000	0.0000000E+000	27.8927	1.88925	62.1073	0.000351023	-2.61176e-08	2.96724e+06