File: txt/17462_R277_UA655_SOC00_C04.mpt
EC-Lab ASCII FILE
Nb header lines : 63

Potentio Electrochemical Impedance Spectroscopy

Run on channel : 4 (SN 66756)
User :
CE vs. WE compliance from -10 V to 10 V
Electrode connection : standard
Potential control : Ewe
Ewe ctrl range : min = -10.00 V, max = 10.00 V
Safety Limits :
	Do not start on E overload
Acquisition started on : 09/12/2025 09:48:52.517
Loaded Setting File :  C:\Users\Celltest\OneDrive - store-dot.com\Documents\EC-Lab\Data\Charmaine\R279\17382.mps
Saved on :
	File : 17462_C04.mpr
	Directory : C:\Users\Celltest\OneDrive - store-dot.com\Documents\EC-Lab\Data\Gyutae\R277\
	Host : 169.254.61.224
Device : VMP-3e (SN .003165)
Address : USB
EC-LAB for windows v11.62 (software)
Internet server v27.00 (firmware)
Command interpretor v12.03 (firmware)
Electrode material :
Initial state :
Electrolyte :
Comments :
Electrode surface area : 0.001 cm²
Characteristic mass : 0.001 g
Equivalent Weight : 0.000 g/eq.
Density : 0.000 g/cm3
Volume (V) : 0.001 cm³
Cycle Definition : Charge/Discharge alternance
Mode                Single sine
E (V)               0.0000
vs.                 Eoc
tE (h:m:s)          0:00:0.0000
record              0
dI                  0.000
unit dI             mA
dt (s)              0.000
fi                  100.000
unit fi             kHz
ff                  10.000
unit ff             mHz
Nd                  6
Points              per decade
spacing             Logarithmic
Va (mV)             5.0
pw                  0.10
Na                  2
corr                0
E range min (V)     -10.000
E range max (V)     10.000
I Range             Auto
Bandwidth           5
nc cycles           0
goto Ns'            0
nr cycles           0
inc. cycle          0

freq/Hz	Re(Z)/Ohm	-Im(Z)/Ohm	|Z|/Ohm	Phase(Z)/deg	time/s	<Ewe>/V	<I>/mA	Cs/µF	Cp/µF	cycle number	I Range	|Ewe|/V	|I|/A	Ns	(Q-Qo)/mA.h	Re(Y)/Ohm-1	Im(Y)/Ohm-1	|Y|/Ohm-1	Phase(Y)/deg	Re(C)/nF	Im(C)/nF	|C|/nF	Phase(C)/deg	Re(M)	Im(M)	|M|	Phase(M)/deg	Re(Permittivity)	Im(Permittivity)	|Permittivity|	Phase(Permittivity)/deg	Re(Resistivity)/Ohm.cm	Im(Resistivity)/Ohm.cm	|Resistivity|/Ohm.cm	Phase(Resistivity)/deg	Re(Conductivity)/mS/cm	Im(Conductivity)/mS/cm	|Conductivity|/mS/cm	Phase(Conductivity)/deg	Tan(Delta)	Loss Angle(Delta)/deg	dq/mA.h	Pwe/W	Rwe/Ohm
100004	1.60735	0.33017	1.64091	-11.6078	2.2265	0.280796	-0.0466442	4.82022	0.19515	1	9	0.00496451	0.00302545	0	-1.15273e-05	0.596953	0.122621	0.609416	11.6078	195.15	950.044	969.88	-78.3922	0.0000000E+000	0.0000000E+000	0.0000000E+000	78.3922	0.0000000E+000	0.0000000E+000	0.0000000E+000	-78.3922	0.0000000E+000	0.0000000E+000	0.0000000E+000	-11.6078	0.0000000E+000	0.0000000E+000	0.0000000E+000	11.6078	4.86827	78.3922	-1.15273e-05	-1.30975e-05	6019.96
46420.4	1.7816	0.398033	1.82553	-12.5938	3.38249	0.280805	-0.0401918	8.61375	0.409501	1	9	0.00505018	0.00276642	0	-1.23586e-05	0.534608	0.119438	0.547787	12.5938	409.501	1832.93	1878.12	-77.4062	0.0000000E+000	0.0000000E+000	0.0000000E+000	77.4062	0.0000000E+000	0.0000000E+000	0.0000000E+000	-77.4062	0.0000000E+000	0.0000000E+000	0.0000000E+000	-12.5938	0.0000000E+000	0.0000000E+000	0.0000000E+000	12.5938	4.47602	77.4062	5.10514e-07	-1.12861e-05	6986.62
21544.7	1.97955	0.502294	2.04229	-14.2378	4.39749	0.280805	-0.0424856	14.7069	0.889621	1	9	0.00519801	0.00254519	0	-2.4171e-05	0.474607	0.120427	0.489647	14.2378	889.621	3506.02	3617.12	-75.7622	0.0000000E+000	0.0000000E+000	0.0000000E+000	75.7622	0.0000000E+000	0.0000000E+000	0.0000000E+000	-75.7622	0.0000000E+000	0.0000000E+000	0.0000000E+000	-14.2378	0.0000000E+000	0.0000000E+000	0.0000000E+000	14.2378	3.94102	75.7622	-9.13452e-06	-1.19302e-05	6609.42
10002.2	2.22681	0.637098	2.31615	-15.966	4.9895	0.280796	-0.042784	24.9757	1.88971	1	9	0.00450645	0.00194566	0	-3.36935e-05	0.415096	0.11876	0.43175	15.966	1889.71	6604.98	6869.99	-74.034	0.0000000E+000	0.0000000E+000	0.0000000E+000	74.034	0.0000000E+000	0.0000000E+000	0.0000000E+000	-74.034	0.0000000E+000	0.0000000E+000	0.0000000E+000	-15.966	0.0000000E+000	0.0000000E+000	0.0000000E+000	15.966	3.49524	74.034	-4.25575e-06	-1.20136e-05	6563.11
4641.49	2.53244	0.825837	2.66369	-18.0613	6.01568	0.280855	0.0030171	41.5211	3.99106	1	9	0.00476602	0.00178925	0	-4.75871e-05	0.35692	0.116393	0.375418	18.0613	3991.07	12238.7	12873	-71.9387	0.0000000E+000	0.0000000E+000	0.0000000E+000	71.9387	0.0000000E+000	0.0000000E+000	0.0000000E+000	-71.9387	0.0000000E+000	0.0000000E+000	0.0000000E+000	-18.0613	0.0000000E+000	0.0000000E+000	0.0000000E+000	18.0613	3.06651	71.9387	1.28028e-06	8.4737e-07	93087.7
2155.69	2.94505	1.08153	3.13736	-20.1651	6.94969	0.280843	0.00104034	68.2646	8.11231	1	9	0.00467448	0.00148994	0	-4.86073e-05	0.299202	0.109878	0.31874	20.1651	8112.31	22090.1	23532.6	-69.8349	0.0000000E+000	0.0000000E+000	0.0000000E+000	69.8349	0.0000000E+000	0.0000000E+000	0.0000000E+000	-69.8349	0.0000000E+000	0.0000000E+000	0.0000000E+000	-20.1651	0.0000000E+000	0.0000000E+000	0.0000000E+000	20.1651	2.72304	69.8349	-5.91942e-07	2.92171e-07	269954
1000.32	3.52027	1.40575	3.79058	-21.7683	8.13971	0.2808	-0.0170473	113.181	15.5661	1	10	0.00471538	0.00124397	0	-5.38665e-05	0.245	0.0978359	0.263812	21.7683	15566.1	38980.5	41973.6	-68.2317	0.0000000E+000	0.0000000E+000	0.0000000E+000	68.2317	0.0000000E+000	0.0000000E+000	0.0000000E+000	-68.2317	0.0000000E+000	0.0000000E+000	0.0000000E+000	-21.7683	0.0000000E+000	0.0000000E+000	0.0000000E+000	21.7683	2.50419	68.2317	-3.10338e-06	-4.78688e-06	16471.9
463.961	4.2518	1.797	4.61595	-22.9111	9.07421	0.280799	-0.0167283	190.893	28.9311	1	10	0.00466138	0.00100984	0	-5.84471e-05	0.199549	0.0843385	0.21664	22.9111	28931.1	68452.5	74315.2	-67.0889	0.0000000E+000	0.0000000E+000	0.0000000E+000	67.0889	0.0000000E+000	0.0000000E+000	0.0000000E+000	-67.0889	0.0000000E+000	0.0000000E+000	0.0000000E+000	-22.9111	0.0000000E+000	0.0000000E+000	0.0000000E+000	22.9111	2.36605	67.0889	-1.95038e-06	-4.69729e-06	16785.8
215.345	5.20947	2.30069	5.69489	-23.8279	10.0084	0.280799	-0.0170212	321.239	52.4292	1	10	0.00464156	0.000815039	0	-6.38247e-05	0.160629	0.0709393	0.175596	23.8279	52429.2	118716	129778	-66.1721	0.0000000E+000	0.0000000E+000	0.0000000E+000	66.1721	0.0000000E+000	0.0000000E+000	0.0000000E+000	-66.1721	0.0000000E+000	0.0000000E+000	0.0000000E+000	-23.8279	0.0000000E+000	0.0000000E+000	0.0000000E+000	23.8279	2.26431	66.1721	-2.75087e-06	-4.77954e-06	16497.1
100.032	6.53037	2.81111	7.10972	-23.2903	10.9387	0.280799	-0.0168589	565.983	88.4818	1	10	0.00463074	0.000651325	0	-6.70504e-05	0.129191	0.0556126	0.140653	23.2903	88481.8	205548	223784	-66.7097	0.0000000E+000	0.0000000E+000	0.0000000E+000	66.7097	0.0000000E+000	0.0000000E+000	0.0000000E+000	-66.7097	0.0000000E+000	0.0000000E+000	0.0000000E+000	-23.2903	0.0000000E+000	0.0000000E+000	0.0000000E+000	23.2903	2.32306	66.7097	-1.48334e-06	-4.73397e-06	16655.8
46.4415	8.25703	3.06628	8.80799	-20.3727	11.8725	0.280789	-0.0200258	1117.64	135.448	1	10	0.00462589	0.000525193	0	-7.03277e-05	0.106432	0.0395238	0.113533	20.3727	135448	364741	389078	-69.6274	0.0000000E+000	0.0000000E+000	0.0000000E+000	69.6274	0.0000000E+000	0.0000000E+000	0.0000000E+000	-69.6274	0.0000000E+000	0.0000000E+000	0.0000000E+000	-20.3727	0.0000000E+000	0.0000000E+000	0.0000000E+000	20.3727	2.69285	69.6274	-1.93198e-06	-5.62303e-06	14021.3
21.5517	9.94381	2.76735	10.3217	-15.5518	12.7584	0.280777	-0.0244312	2668.55	191.822	1	10	0.00462824	0.000448399	0	-7.50238e-05	0.0933362	0.0259753	0.0968832	15.5518	191822	689268	715462	-74.4482	0.0000000E+000	0.0000000E+000	0.0000000E+000	74.4482	0.0000000E+000	0.0000000E+000	0.0000000E+000	-74.4482	0.0000000E+000	0.0000000E+000	0.0000000E+000	-15.5518	0.0000000E+000	0.0000000E+000	0.0000000E+000	15.5518	3.59326	74.4482	-1.921e-06	-6.85972e-06	11492.6
10.0032	11.2343	2.22209	11.4519	-11.1884	13.7047	0.280791	-0.0162043	7160.12	269.579	1	10	0.00462218	0.000403616	0	-7.72513e-05	0.085662	0.0169436	0.0873216	11.1884	269579	1.36292e+06	1.38932e+06	-78.8116	0.0000000E+000	0.0000000E+000	0.0000000E+000	78.8116	0.0000000E+000	0.0000000E+000	0.0000000E+000	-78.8116	0.0000000E+000	0.0000000E+000	0.0000000E+000	-11.1884	0.0000000E+000	0.0000000E+000	0.0000000E+000	11.1884	5.05573	78.8116	-1.06185e-06	-4.55002e-06	17328.2
4.63925	12.2163	1.70744	12.3351	-7.95652	14.7703	0.280828	-0.00645279	20092.2	384.977	1	11	0.0046185	0.00037442	0	-7.70209e-05	0.0802892	0.0112218	0.0810697	7.95652	384977	2.75442e+06	2.78119e+06	-82.0435	0.0000000E+000	0.0000000E+000	0.0000000E+000	82.0435	0.0000000E+000	0.0000000E+000	0.0000000E+000	-82.0435	0.0000000E+000	0.0000000E+000	0.0000000E+000	-7.95652	0.0000000E+000	0.0000000E+000	0.0000000E+000	7.95652	7.15476	82.0435	1.24317e-06	-1.81212e-06	43520.4
2.15577	12.8558	1.33282	12.9247	-5.91895	16.4958	0.280847	-0.00404121	55392.2	589.042	1	11	0.00462471	0.000357819	0	-8.79148e-05	0.0769587	0.00797862	0.0773711	5.91895	589042	5.68167e+06	5.71212e+06	-84.0811	0.0000000E+000	0.0000000E+000	0.0000000E+000	84.0811	0.0000000E+000	0.0000000E+000	0.0000000E+000	-84.0811	0.0000000E+000	0.0000000E+000	0.0000000E+000	-5.91895	0.0000000E+000	0.0000000E+000	0.0000000E+000	5.91895	9.6456	84.0811	-3.61492e-06	-1.13496e-06	69495.7
1.00006	13.2983	1.1284	13.3461	-4.85007	20.1093	0.280842	-0.00445275	141036	1008.19	1	11	0.00462673	0.000346672	0	-7.37099e-05	0.0746599	0.00633507	0.0749282	4.85007	1.00819e+06	1.18817e+07	1.19244e+07	-85.1499	0.0000000E+000	0.0000000E+000	0.0000000E+000	85.1499	0.0000000E+000	0.0000000E+000	0.0000000E+000	-85.1499	0.0000000E+000	0.0000000E+000	0.0000000E+000	-4.85007	0.0000000E+000	0.0000000E+000	0.0000000E+000	4.85007	11.7852	85.1499	9.34291e-06	-1.25052e-06	63071.5
0.464091	13.6837	1.16665	13.7334	-4.87313	27.7956	0.280844	-0.00148472	293953	2121.3	1	11	0.00462727	0.000336936	0	-7.3551e-05	0.0725521	0.00618564	0.0728153	4.87313	2.1213e+06	2.4881e+07	2.49712e+07	-85.1269	0.0000000E+000	0.0000000E+000	0.0000000E+000	85.1269	0.0000000E+000	0.0000000E+000	0.0000000E+000	-85.1269	0.0000000E+000	0.0000000E+000	0.0000000E+000	-4.87313	0.0000000E+000	0.0000000E+000	0.0000000E+000	4.87313	11.7291	85.1269	-6.3469e-06	-4.16974e-07	189157
0.215268	14.0555	1.50223	14.1356	-6.1005	44.2738	0.280847	-0.000670284	492159	5558.38	1	11	0.00462686	0.00032732	0	-0.0001457	0.0703428	0.00751809	0.0707434	6.1005	5.55838e+06	5.20068e+07	5.2303e+07	-83.8995	0.0000000E+000	0.0000000E+000	0.0000000E+000	83.8995	0.0000000E+000	0.0000000E+000	0.0000000E+000	-83.8995	0.0000000E+000	0.0000000E+000	0.0000000E+000	-6.1005	0.0000000E+000	0.0000000E+000	0.0000000E+000	6.1005	9.35647	83.8995	-4.60879e-05	-1.88247e-07	418997
0.0999041	14.6747	2.29139	14.8525	-8.87482	79.6794	0.280846	-0.00370903	695244	16547.6	1	11	0.00462945	0.000311695	0	-0.000231662	0.0665225	0.0103872	0.0673286	8.87482	1.65476e+07	1.05976e+08	1.0726e+08	-81.1252	0.0000000E+000	0.0000000E+000	0.0000000E+000	81.1252	0.0000000E+000	0.0000000E+000	0.0000000E+000	-81.1252	0.0000000E+000	0.0000000E+000	0.0000000E+000	-8.87482	0.0000000E+000	0.0000000E+000	0.0000000E+000	8.87482	6.40428	81.1252	-3.21462e-05	-1.04167e-06	75719.5
0.0464052	15.4356	3.67698	15.8676	-13.3989	155.916	0.28085	-0.00231724	932743	50087	1	11	0.00462733	0.000291622	0	-8.11905e-05	0.0613062	0.014604	0.0630217	13.3989	5.0087e+07	2.10261e+08	2.16144e+08	-76.6011	0.0000000E+000	0.0000000E+000	0.0000000E+000	76.6011	0.0000000E+000	0.0000000E+000	0.0000000E+000	-76.6011	0.0000000E+000	0.0000000E+000	0.0000000E+000	-13.3989	0.0000000E+000	0.0000000E+000	0.0000000E+000	13.3989	4.19791	76.6011	0.000131754	-6.50796e-07	121200
0.0215268	16.7993	6.11864	17.8789	-20.0126	351.882	0.280834	0.000316685	1.20833e+06	141519	1	12	0.00462566	0.000258722	0	0.000330895	0.0525545	0.0191414	0.0559319	20.0126	1.41519e+08	3.88554e+08	4.13524e+08	-69.9874	0.0000000E+000	0.0000000E+000	0.0000000E+000	69.9874	0.0000000E+000	0.0000000E+000	0.0000000E+000	-69.9874	0.0000000E+000	0.0000000E+000	0.0000000E+000	-20.0126	0.0000000E+000	0.0000000E+000	0.0000000E+000	20.0126	2.7456	69.9874	0.000194343	8.8936e-08	886795
0.0100092	18.4784	10.7986	21.4024	-30.3017	705.098	0.280839	0.000190154	1.47249e+06	374857	1	12	0.00462497	0.000216096	0	-0.000216925	0.0403404	0.0235746	0.0467237	30.3017	3.74857e+08	6.41449e+08	7.4295e+08	-59.6983	0.0000000E+000	0.0000000E+000	0.0000000E+000	59.6983	0.0000000E+000	0.0000000E+000	0.0000000E+000	-59.6983	0.0000000E+000	0.0000000E+000	0.0000000E+000	-30.3017	0.0000000E+000	0.0000000E+000	0.0000000E+000	30.3017	1.71118	59.6983	-0.000495136	5.34028e-08	1.4769e+06