File: txt/17468_R277_UA656_SOC00_C05.mpt
EC-Lab ASCII FILE
Nb header lines : 63

Potentio Electrochemical Impedance Spectroscopy

Run on channel : 5 (SN 65912)
User :
CE vs. WE compliance from -10 V to 10 V
Electrode connection : standard
Potential control : Ewe
Ewe ctrl range : min = -10.00 V, max = 10.00 V
Safety Limits :
	Do not start on E overload
Acquisition started on : 09/12/2025 10:00:42.666
Loaded Setting File :  C:\Users\Celltest\OneDrive - store-dot.com\Documents\EC-Lab\Data\Charmaine\R279\17382_C01.mpr
Saved on :
	File : 17468_C05.mpr
	Directory : C:\Users\Celltest\OneDrive - store-dot.com\Documents\EC-Lab\Data\Gyutae\R277\
	Host : 169.254.61.224
Device : VMP-3e (SN .003165)
Address : USB
EC-LAB for windows v11.62 (software)
Internet server v27.00 (firmware)
Command interpretor v12.03 (firmware)
Electrode material :
Initial state :
Electrolyte :
Comments :
Electrode surface area : 0.001 cm²
Characteristic mass : 0.001 g
Equivalent Weight : 0.000 g/eq.
Density : 0.000 g/cm3
Volume (V) : 0.001 cm³
Cycle Definition : Charge/Discharge alternance
Mode                Single sine
E (V)               0.0000
vs.                 Eoc
tE (h:m:s)          0:00:0.0000
record              0
dI                  0.000
unit dI             mA
dt (s)              0.000
fi                  100.000
unit fi             kHz
ff                  10.000
unit ff             mHz
Nd                  6
Points              per decade
spacing             Logarithmic
Va (mV)             5.0
pw                  0.10
Na                  2
corr                0
E range min (V)     -10.000
E range max (V)     10.000
I Range             Auto
Bandwidth           5
nc cycles           0
goto Ns'            0
nr cycles           0
inc. cycle          0

freq/Hz	Re(Z)/Ohm	-Im(Z)/Ohm	|Z|/Ohm	Phase(Z)/deg	time/s	<Ewe>/V	<I>/mA	Cs/µF	Cp/µF	cycle number	I Range	|Ewe|/V	|I|/A	Ns	(Q-Qo)/mA.h	Re(Y)/Ohm-1	Im(Y)/Ohm-1	|Y|/Ohm-1	Phase(Y)/deg	Re(C)/nF	Im(C)/nF	|C|/nF	Phase(C)/deg	Re(M)	Im(M)	|M|	Phase(M)/deg	Re(Permittivity)	Im(Permittivity)	|Permittivity|	Phase(Permittivity)/deg	Re(Resistivity)/Ohm.cm	Im(Resistivity)/Ohm.cm	|Resistivity|/Ohm.cm	Phase(Resistivity)/deg	Re(Conductivity)/mS/cm	Im(Conductivity)/mS/cm	|Conductivity|/mS/cm	Phase(Conductivity)/deg	Tan(Delta)	Loss Angle(Delta)/deg	dq/mA.h	Pwe/W	Rwe/Ohm
100004	5.13274	1.3026	5.29545	-14.2401	2.0265	0.744022	-0.0276466	1.22178	0.0739283	1	10	0.00494702	0.000934203	0	-4.62641e-06	0.183039	0.0464523	0.188841	14.2401	73.9283	291.305	300.539	-75.7599	0.0000000E+000	0.0000000E+000	0.0000000E+000	75.7599	0.0000000E+000	0.0000000E+000	0.0000000E+000	-75.7599	0.0000000E+000	0.0000000E+000	0.0000000E+000	-14.2401	0.0000000E+000	0.0000000E+000	0.0000000E+000	14.2401	3.94037	75.7599	-4.62641e-06	-2.05697e-05	26911.9
46420.4	5.79041	1.59705	6.00661	-15.4193	2.90049	0.744032	-0.0253157	2.14681	0.151765	1	10	0.00535619	0.000891717	0	-9.86404e-06	0.160491	0.0442648	0.166483	15.4193	151.765	550.252	570.798	-74.5807	0.0000000E+000	0.0000000E+000	0.0000000E+000	74.5807	0.0000000E+000	0.0000000E+000	0.0000000E+000	-74.5807	0.0000000E+000	0.0000000E+000	0.0000000E+000	-15.4193	0.0000000E+000	0.0000000E+000	0.0000000E+000	15.4193	3.6257	74.5807	-2.71346e-06	-1.88357e-05	29390.1
21544.7	6.58889	1.98468	6.88131	-16.7632	3.77549	0.744018	-0.0275219	3.72211	0.30962	1	10	0.00520384	0.000756229	0	-1.595e-05	0.139146	0.041913	0.145321	16.7632	309.62	1027.9	1073.52	-73.2368	0.0000000E+000	0.0000000E+000	0.0000000E+000	73.2368	0.0000000E+000	0.0000000E+000	0.0000000E+000	-73.2368	0.0000000E+000	0.0000000E+000	0.0000000E+000	-16.7632	0.0000000E+000	0.0000000E+000	0.0000000E+000	16.7632	3.31987	73.2368	-2.26655e-06	-2.04768e-05	27033.7
10002.2	7.59196	2.477	7.98583	-18.0698	4.50849	0.74402	-0.0282349	6.42388	0.618031	1	10	0.00544491	0.000681822	0	-2.04208e-05	0.119046	0.0388407	0.125222	18.0698	618.031	1894.25	1992.52	-71.9302	0.0000000E+000	0.0000000E+000	0.0000000E+000	71.9302	0.0000000E+000	0.0000000E+000	0.0000000E+000	-71.9302	0.0000000E+000	0.0000000E+000	0.0000000E+000	-18.0698	0.0000000E+000	0.0000000E+000	0.0000000E+000	18.0698	3.06498	71.9302	-1.30922e-06	-2.10073e-05	26351.1
4641.49	8.85247	3.08147	9.37346	-19.1926	5.53469	0.744168	0.0027085	11.1277	1.2026	1	10	0.00500413	0.000533861	0	-2.09042e-05	0.100755	0.0350718	0.106684	19.1926	1202.6	3454.84	3658.17	-70.8074	0.0000000E+000	0.0000000E+000	0.0000000E+000	70.8074	0.0000000E+000	0.0000000E+000	0.0000000E+000	-70.8074	0.0000000E+000	0.0000000E+000	0.0000000E+000	-19.1926	0.0000000E+000	0.0000000E+000	0.0000000E+000	19.1926	2.87281	70.8074	3.56984e-08	2.01558e-06	274753
2155.69	10.4117	3.82646	11.0926	-20.1792	6.46868	0.744175	0.00365052	19.2947	2.29597	1	10	0.00493558	0.000444944	0	-2.01633e-05	0.0846169	0.031098	0.0901505	20.1792	2295.97	6247.28	6655.82	-69.8208	0.0000000E+000	0.0000000E+000	0.0000000E+000	69.8208	0.0000000E+000	0.0000000E+000	0.0000000E+000	-69.8208	0.0000000E+000	0.0000000E+000	0.0000000E+000	-20.1792	0.0000000E+000	0.0000000E+000	0.0000000E+000	20.1792	2.72097	69.8208	4.12538e-08	2.71663e-06	203855
1000.32	12.3679	4.72197	13.2386	-20.8965	7.40471	0.744164	0.00261168	33.6944	4.28666	1	10	0.00489725	0.000369922	0	-1.94278e-05	0.0705683	0.0269425	0.0755366	20.8965	4286.66	11227.7	12018.2	-69.1035	0.0000000E+000	0.0000000E+000	0.0000000E+000	69.1035	0.0000000E+000	0.0000000E+000	0.0000000E+000	-69.1035	0.0000000E+000	0.0000000E+000	0.0000000E+000	-20.8965	0.0000000E+000	0.0000000E+000	0.0000000E+000	20.8965	2.61922	69.1035	5.58408e-07	1.94352e-06	284936
463.961	14.7637	5.84407	15.8783	-21.5957	8.33919	0.744173	0.00297658	58.698	7.95146	1	10	0.00488437	0.000307613	0	-1.86176e-05	0.0585582	0.0231797	0.062979	21.5957	7951.46	20087.5	21604	-68.4043	0.0000000E+000	0.0000000E+000	0.0000000E+000	68.4043	0.0000000E+000	0.0000000E+000	0.0000000E+000	-68.4043	0.0000000E+000	0.0000000E+000	0.0000000E+000	-21.5957	0.0000000E+000	0.0000000E+000	0.0000000E+000	21.5957	2.52627	68.4043	1.95585e-07	2.21509e-06	250010
215.345	17.668	7.34049	19.1322	-22.5613	9.27345	0.744168	0.00295238	100.684	14.8211	1	10	0.00487531	0.000254822	0	-1.76949e-05	0.0482678	0.0200537	0.0522679	22.5613	14821.1	35673.3	38629.7	-67.4387	0.0000000E+000	0.0000000E+000	0.0000000E+000	67.4387	0.0000000E+000	0.0000000E+000	0.0000000E+000	-67.4387	0.0000000E+000	0.0000000E+000	0.0000000E+000	-22.5613	0.0000000E+000	0.0000000E+000	0.0000000E+000	22.5613	2.40693	67.4387	5.20064e-07	2.19706e-06	252057
100.032	21.3744	9.48821	23.3857	-23.9367	10.4587	0.744158	-0.00212969	167.686	27.6036	1	11	0.00487764	0.000208574	0	-1.73826e-05	0.0390835	0.0173494	0.0427612	23.9367	27603.6	62183.4	68034.8	-66.0633	0.0000000E+000	0.0000000E+000	0.0000000E+000	66.0633	0.0000000E+000	0.0000000E+000	0.0000000E+000	-66.0633	0.0000000E+000	0.0000000E+000	0.0000000E+000	-23.9367	0.0000000E+000	0.0000000E+000	0.0000000E+000	23.9367	2.25273	66.0633	6.59481e-08	-1.58483e-06	349420
46.4415	26.6745	12.1336	29.3045	-24.4596	11.3925	0.744155	-0.00233503	282.439	48.4209	1	11	0.00487099	0.00016622	0	-1.77075e-05	0.0310619	0.0141292	0.0341244	24.4596	48420.9	106449	116944	-65.5405	0.0000000E+000	0.0000000E+000	0.0000000E+000	65.5405	0.0000000E+000	0.0000000E+000	0.0000000E+000	-65.5405	0.0000000E+000	0.0000000E+000	0.0000000E+000	-24.4596	0.0000000E+000	0.0000000E+000	0.0000000E+000	24.4596	2.19841	65.5405	-2.3154e-07	-1.73763e-06	318692
21.5517	33.7056	14.3104	36.6177	-23.0047	12.2774	0.744147	-0.00274477	516.043	78.8149	1	11	0.00486286	0.000132801	0	-1.84352e-05	0.0251374	0.0106726	0.0273092	23.0047	78814.9	185634	201673	-66.9953	0.0000000E+000	0.0000000E+000	0.0000000E+000	66.9953	0.0000000E+000	0.0000000E+000	0.0000000E+000	-66.9953	0.0000000E+000	0.0000000E+000	0.0000000E+000	-23.0047	0.0000000E+000	0.0000000E+000	0.0000000E+000	23.0047	2.35532	66.9953	-3.7298e-07	-2.04251e-06	271115
10.0032	41.9419	15.3499	44.6625	-20.1016	13.2237	0.744153	-0.0022211	1036.52	122.433	1	11	0.00486132	0.000108846	0	-1.80543e-05	0.0210262	0.00769518	0.0223901	20.1016	122433	334536	356236	-69.8984	0.0000000E+000	0.0000000E+000	0.0000000E+000	69.8984	0.0000000E+000	0.0000000E+000	0.0000000E+000	-69.8984	0.0000000E+000	0.0000000E+000	0.0000000E+000	-20.1016	0.0000000E+000	0.0000000E+000	0.0000000E+000	20.1016	2.73239	69.8984	4.82038e-07	-1.65284e-06	335038
4.63925	50.5709	14.7482	52.6775	-16.2585	14.0833	0.744148	-0.0021982	2326.12	182.331	1	11	0.00487192	9.24858e-05	0	-1.87111e-05	0.0182242	0.00531482	0.0189834	16.2585	182331	625204	651249	-73.7415	0.0000000E+000	0.0000000E+000	0.0000000E+000	73.7415	0.0000000E+000	0.0000000E+000	0.0000000E+000	-73.7415	0.0000000E+000	0.0000000E+000	0.0000000E+000	-16.2585	0.0000000E+000	0.0000000E+000	0.0000000E+000	16.2585	3.42895	73.7415	8.92349e-07	-1.63579e-06	338526
2.15577	58.1959	12.3432	59.4905	-11.9749	16.3238	0.744172	-0.000493908	5981.22	257.485	1	12	0.00487041	8.18687e-05	0	-2.08178e-05	0.0164436	0.00348766	0.0168094	11.9749	257485	1.21399e+06	1.241e+06	-78.0251	0.0000000E+000	0.0000000E+000	0.0000000E+000	78.0251	0.0000000E+000	0.0000000E+000	0.0000000E+000	-78.0251	0.0000000E+000	0.0000000E+000	0.0000000E+000	-11.9749	0.0000000E+000	0.0000000E+000	0.0000000E+000	11.9749	4.7148	78.0251	-2.13344e-06	-3.67552e-07	1.5067e+06
1.00006	63.2657	9.58087	63.9871	-8.61136	19.9372	0.744175	-0.000704322	16610.7	372.403	1	12	0.00486859	7.60871e-05	0	-2.04074e-05	0.015452	0.00234002	0.0156282	8.61136	372403	2.4591e+06	2.48714e+06	-81.3886	0.0000000E+000	0.0000000E+000	0.0000000E+000	81.3886	0.0000000E+000	0.0000000E+000	0.0000000E+000	-81.3886	0.0000000E+000	0.0000000E+000	0.0000000E+000	-8.61136	0.0000000E+000	0.0000000E+000	0.0000000E+000	8.61136	6.60334	81.3886	1.24062e-06	-5.24139e-07	1.05658e+06
0.464091	66.7146	8.18627	67.215	-6.99555	27.6225	0.744173	-0.000338986	41892	621.399	1	12	0.00486974	7.24502e-05	0	-1.40346e-05	0.0147669	0.00181198	0.0148776	6.99555	621399	5.06414e+06	5.10212e+06	-83.0044	0.0000000E+000	0.0000000E+000	0.0000000E+000	83.0044	0.0000000E+000	0.0000000E+000	0.0000000E+000	-83.0044	0.0000000E+000	0.0000000E+000	0.0000000E+000	-6.99555	0.0000000E+000	0.0000000E+000	0.0000000E+000	6.99555	8.14958	83.0044	3.46961e-06	-2.52264e-07	2.19529e+06
0.215268	70.1886	9.18507	70.7871	-7.45552	44.1008	0.744182	8.12809e-05	80493	1355.24	1	12	0.00487416	6.88566e-05	0	-1.73749e-05	0.0140074	0.00183305	0.0141269	7.45552	1.35524e+06	1.03562e+07	1.04445e+07	-82.5445	0.0000000E+000	0.0000000E+000	0.0000000E+000	82.5445	0.0000000E+000	0.0000000E+000	0.0000000E+000	-82.5445	0.0000000E+000	0.0000000E+000	0.0000000E+000	-7.45552	0.0000000E+000	0.0000000E+000	0.0000000E+000	7.45552	7.64159	82.5445	-4.43262e-06	6.04878e-08	9.15568e+06
0.0999041	75.2373	11.9645	76.1827	-9.0357	79.5063	0.744182	5.46801e-07	133151	3284.11	1	12	0.00487207	6.39525e-05	0	-4.71821e-05	0.0129635	0.00206149	0.0131263	9.0357	3.28411e+06	2.06518e+07	2.09113e+07	-80.9643	0.0000000E+000	0.0000000E+000	0.0000000E+000	80.9643	0.0000000E+000	0.0000000E+000	0.0000000E+000	-80.9643	0.0000000E+000	0.0000000E+000	0.0000000E+000	-9.0357	0.0000000E+000	0.0000000E+000	0.0000000E+000	9.0357	6.28839	80.9643	-1.76978e-05	4.06919e-10	1.36097e+09
0.0464052	83.2843	16.5069	84.9044	-11.2107	155.743	0.744181	-0.000352358	207773	7853.4	1	12	0.00487049	5.73644e-05	0	-6.61341e-05	0.0115532	0.00228984	0.011778	11.2107	7.8534e+06	3.96238e+07	4.03946e+07	-78.7893	0.0000000E+000	0.0000000E+000	0.0000000E+000	78.7893	0.0000000E+000	0.0000000E+000	0.0000000E+000	-78.7893	0.0000000E+000	0.0000000E+000	0.0000000E+000	-11.2107	0.0000000E+000	0.0000000E+000	0.0000000E+000	11.2107	5.04543	78.7893	-2.4528e-06	-2.62218e-07	2.112e+06
0.0215268	92.9553	20.9777	95.293	-12.7172	319.973	0.744178	-0.000331355	352438	17079.6	1	12	0.00487052	5.1111e-05	0	1.503e-05	0.0102365	0.00231013	0.010494	12.7172	1.70796e+07	7.56821e+07	7.75854e+07	-77.2828	0.0000000E+000	0.0000000E+000	0.0000000E+000	77.2828	0.0000000E+000	0.0000000E+000	0.0000000E+000	-77.2828	0.0000000E+000	0.0000000E+000	0.0000000E+000	-12.7172	0.0000000E+000	0.0000000E+000	0.0000000E+000	12.7172	4.43115	77.2828	5.63522e-05	-2.46587e-07	2.24586e+06
0.0100092	102.797	28.1512	106.582	-15.3151	673.189	0.744174	0.000332513	564840	39405.3	1	12	0.00487136	4.57055e-05	0	0.000170806	0.00904929	0.00247818	0.00938249	15.3151	3.94053e+07	1.43892e+08	1.4919e+08	-74.6849	0.0000000E+000	0.0000000E+000	0.0000000E+000	74.6849	0.0000000E+000	0.0000000E+000	0.0000000E+000	-74.6849	0.0000000E+000	0.0000000E+000	0.0000000E+000	-15.3151	0.0000000E+000	0.0000000E+000	0.0000000E+000	15.3151	3.65159	74.6849	7.48808e-05	2.47447e-07	2.23803e+06