File: txt/17461_R277_UA655_SOC00_C03.mpt
EC-Lab ASCII FILE
Nb header lines : 63

Potentio Electrochemical Impedance Spectroscopy

Run on channel : 3 (SN 65921)
User :
CE vs. WE compliance from -10 V to 10 V
Electrode connection : standard
Potential control : Ewe
Ewe ctrl range : min = -10.00 V, max = 10.00 V
Safety Limits :
	Do not start on E overload
Acquisition started on : 09/12/2025 09:48:42.600
Loaded Setting File :  C:\Users\Celltest\OneDrive - store-dot.com\Documents\EC-Lab\Data\Charmaine\R279\17382_C01.mpr
Saved on :
	File : 17461_C03.mpr
	Directory : C:\Users\Celltest\OneDrive - store-dot.com\Documents\EC-Lab\Data\Gyutae\R277\
	Host : 169.254.61.224
Device : VMP-3e (SN .003165)
Address : USB
EC-LAB for windows v11.62 (software)
Internet server v27.00 (firmware)
Command interpretor v12.03 (firmware)
Electrode material :
Initial state :
Electrolyte :
Comments :
Electrode surface area : 0.001 cm²
Characteristic mass : 0.001 g
Equivalent Weight : 0.000 g/eq.
Density : 0.000 g/cm3
Volume (V) : 0.001 cm³
Cycle Definition : Charge/Discharge alternance
Mode                Single sine
E (V)               0.0000
vs.                 Eoc
tE (h:m:s)          0:00:0.0000
record              0
dI                  0.000
unit dI             mA
dt (s)              0.000
fi                  100.000
unit fi             kHz
ff                  10.000
unit ff             mHz
Nd                  6
Points              per decade
spacing             Logarithmic
Va (mV)             5.0
pw                  0.10
Na                  2
corr                0
E range min (V)     -10.000
E range max (V)     10.000
I Range             Auto
Bandwidth           5
nc cycles           0
goto Ns'            0
nr cycles           0
inc. cycle          0

freq/Hz	Re(Z)/Ohm	-Im(Z)/Ohm	|Z|/Ohm	Phase(Z)/deg	time/s	<Ewe>/V	<I>/mA	Cs/µF	Cp/µF	cycle number	I Range	|Ewe|/V	|I|/A	Ns	(Q-Qo)/mA.h	Re(Y)/Ohm-1	Im(Y)/Ohm-1	|Y|/Ohm-1	Phase(Y)/deg	Re(C)/nF	Im(C)/nF	|C|/nF	Phase(C)/deg	Re(M)	Im(M)	|M|	Phase(M)/deg	Re(Permittivity)	Im(Permittivity)	|Permittivity|	Phase(Permittivity)/deg	Re(Resistivity)/Ohm.cm	Im(Resistivity)/Ohm.cm	|Resistivity|/Ohm.cm	Phase(Resistivity)/deg	Re(Conductivity)/mS/cm	Im(Conductivity)/mS/cm	|Conductivity|/mS/cm	Phase(Conductivity)/deg	Tan(Delta)	Loss Angle(Delta)/deg	dq/mA.h	Pwe/W	Rwe/Ohm
100004	1.3054	0.275819	1.33422	-11.9306	1.86548	0.274733	-0.00847202	5.77005	0.246589	1	9	0.00457442	0.00342853	0	-1.45941e-05	0.733311	0.154942	0.749501	11.9306	246.589	1167.06	1192.82	-78.0694	0.0000000E+000	0.0000000E+000	0.0000000E+000	78.0694	0.0000000E+000	0.0000000E+000	0.0000000E+000	-78.0694	0.0000000E+000	0.0000000E+000	0.0000000E+000	-11.9306	0.0000000E+000	0.0000000E+000	0.0000000E+000	11.9306	4.73281	78.0694	-1.45941e-05	-2.32754e-06	32428.2
46420.4	1.44654	0.330144	1.48374	-12.8564	2.8805	0.274746	-0.00794991	10.3851	0.514162	1	9	0.00502751	0.0033884	0	-2.92912e-06	0.657077	0.149964	0.673973	12.8564	514.162	2252.83	2310.76	-77.1436	0.0000000E+000	0.0000000E+000	0.0000000E+000	77.1436	0.0000000E+000	0.0000000E+000	0.0000000E+000	-77.1436	0.0000000E+000	0.0000000E+000	0.0000000E+000	-12.8564	0.0000000E+000	0.0000000E+000	0.0000000E+000	12.8564	4.38155	77.1436	9.92741e-06	-2.1842e-06	34559.6
21544.7	1.60797	0.410614	1.65957	-14.325	3.7545	0.274735	0.00346192	17.9906	1.10134	1	9	0.00532328	0.00320763	0	-1.21488e-06	0.583831	0.149088	0.602566	14.325	1101.34	4312.88	4451.28	-75.675	0.0000000E+000	0.0000000E+000	0.0000000E+000	75.675	0.0000000E+000	0.0000000E+000	0.0000000E+000	-75.675	0.0000000E+000	0.0000000E+000	0.0000000E+000	-14.325	0.0000000E+000	0.0000000E+000	0.0000000E+000	14.325	3.91601	75.675	-2.0144e-06	9.51111e-07	79359.2
10002.2	1.80803	0.516763	1.88043	-15.9507	4.62848	0.274747	0.00955941	30.7916	2.3254	1	9	0.0051061	0.00271538	0	-5.0171e-06	0.511317	0.146142	0.531792	15.9507	2325.4	8136.06	8461.85	-74.0493	0.0000000E+000	0.0000000E+000	0.0000000E+000	74.0493	0.0000000E+000	0.0000000E+000	0.0000000E+000	-74.0493	0.0000000E+000	0.0000000E+000	0.0000000E+000	-15.9507	0.0000000E+000	0.0000000E+000	0.0000000E+000	15.9507	3.49877	74.0493	-1.04657e-08	2.62642e-06	28741
4641.49	2.06415	0.659412	2.16692	-17.7166	5.47771	0.274758	0.0248871	52.0004	4.81543	1	9	0.00520656	0.00240275	0	9.87113e-08	0.439599	0.140434	0.461485	17.7166	4815.43	15073.7	15824.2	-72.2834	0.0000000E+000	0.0000000E+000	0.0000000E+000	72.2834	0.0000000E+000	0.0000000E+000	0.0000000E+000	-72.2834	0.0000000E+000	0.0000000E+000	0.0000000E+000	-17.7166	0.0000000E+000	0.0000000E+000	0.0000000E+000	17.7166	3.13029	72.2834	4.94643e-06	6.83793e-06	11040.2
2155.69	2.40163	0.865001	2.55265	-19.8077	6.4117	0.274764	0.0250362	85.3527	9.80092	1	9	0.00509893	0.0019975	0	6.61437e-06	0.368572	0.13275	0.391749	19.8077	9800.92	27211.7	28922.9	-70.1924	0.0000000E+000	0.0000000E+000	0.0000000E+000	70.1924	0.0000000E+000	0.0000000E+000	0.0000000E+000	-70.1924	0.0000000E+000	0.0000000E+000	0.0000000E+000	-19.8077	0.0000000E+000	0.0000000E+000	0.0000000E+000	19.8077	2.77644	70.1924	4.71646e-06	6.87904e-06	10974.7
1000.32	2.85421	1.11002	3.06246	-21.2515	7.3477	0.274754	0.0281502	143.334	18.831	1	9	0.00502894	0.00164213	0	1.25442e-05	0.30433	0.118357	0.326535	21.2515	18831	48420.2	51953	-68.7485	0.0000000E+000	0.0000000E+000	0.0000000E+000	68.7485	0.0000000E+000	0.0000000E+000	0.0000000E+000	-68.7485	0.0000000E+000	0.0000000E+000	0.0000000E+000	-21.2515	0.0000000E+000	0.0000000E+000	0.0000000E+000	21.2515	2.5713	68.7485	3.01314e-06	7.73437e-06	9760.27
463.961	3.42447	1.39136	3.69633	-22.1118	8.53619	0.274759	-0.0269903	246.547	34.933	1	10	0.00503685	0.00136266	0	7.89027e-06	0.250641	0.101835	0.270539	22.1118	34933	85978.6	92804.3	-67.8882	0.0000000E+000	0.0000000E+000	0.0000000E+000	67.8882	0.0000000E+000	0.0000000E+000	0.0000000E+000	-67.8882	0.0000000E+000	0.0000000E+000	0.0000000E+000	-22.1118	0.0000000E+000	0.0000000E+000	0.0000000E+000	22.1118	2.46124	67.8882	-2.6672e-06	-7.41582e-06	10179.9
215.345	4.18095	1.72816	4.52403	-22.4573	9.47041	0.274753	-0.0259872	427.665	62.4048	1	10	0.00499203	0.00110345	0	8.03744e-07	0.204279	0.0844368	0.221042	22.4573	62404.8	150977	163366	-67.5427	0.0000000E+000	0.0000000E+000	0.0000000E+000	67.5427	0.0000000E+000	0.0000000E+000	0.0000000E+000	-67.5427	0.0000000E+000	0.0000000E+000	0.0000000E+000	-22.4573	0.0000000E+000	0.0000000E+000	0.0000000E+000	22.4573	2.41931	67.5427	-3.99967e-06	-7.14005e-06	10572.6
100.032	5.1949	2.04725	5.58375	-21.5088	10.4017	0.27476	-0.0242663	777.159	104.472	1	10	0.00497728	0.000891387	0	-4.88543e-06	0.166619	0.0656628	0.179091	21.5088	104472	265098	284941	-68.4912	0.0000000E+000	0.0000000E+000	0.0000000E+000	68.4912	0.0000000E+000	0.0000000E+000	0.0000000E+000	-68.4912	0.0000000E+000	0.0000000E+000	0.0000000E+000	-21.5088	0.0000000E+000	0.0000000E+000	0.0000000E+000	21.5088	2.5375	68.4912	-2.75059e-06	-6.66741e-06	11322.7
46.4415	6.41626	2.10045	6.75131	-18.1266	11.3356	0.274752	-0.0244546	1631.55	157.924	1	10	0.00496701	0.00073571	0	-1.08936e-05	0.140768	0.0460824	0.148119	18.1266	157924	482413	507604	-71.8734	0.0000000E+000	0.0000000E+000	0.0000000E+000	71.8734	0.0000000E+000	0.0000000E+000	0.0000000E+000	-71.8734	0.0000000E+000	0.0000000E+000	0.0000000E+000	-18.1266	0.0000000E+000	0.0000000E+000	0.0000000E+000	18.1266	3.05471	71.8734	-3.2706e-06	-6.71896e-06	11235.2
21.5517	7.53691	1.81638	7.75269	-13.5497	12.2213	0.274753	-0.0260133	4065.67	223.171	1	10	0.00496818	0.000640833	0	-1.88518e-05	0.125397	0.0302204	0.128987	13.5497	223171	926033	952545	-76.4502	0.0000000E+000	0.0000000E+000	0.0000000E+000	76.4502	0.0000000E+000	0.0000000E+000	0.0000000E+000	-76.4502	0.0000000E+000	0.0000000E+000	0.0000000E+000	-13.5497	0.0000000E+000	0.0000000E+000	0.0000000E+000	13.5497	4.14942	76.4502	-5.06574e-06	-7.14723e-06	10562
10.0032	8.34128	1.43397	8.46364	-9.75454	13.1677	0.274756	-0.0224131	11095.3	318.499	1	10	0.00496896	0.000587095	0	-2.01728e-05	0.116444	0.0200183	0.118152	9.75454	318499	1.85268e+06	1.87985e+06	-80.2455	0.0000000E+000	0.0000000E+000	0.0000000E+000	80.2455	0.0000000E+000	0.0000000E+000	0.0000000E+000	-80.2455	0.0000000E+000	0.0000000E+000	0.0000000E+000	-9.75454	0.0000000E+000	0.0000000E+000	0.0000000E+000	9.75454	5.8169	80.2455	1.12395e-06	-6.15813e-06	12258.7
4.63925	8.92479	1.09345	8.99152	-6.98495	14.2973	0.274761	-0.0225025	31374.3	463.984	1	11	0.0049697	0.00055271	0	-2.89275e-05	0.11039	0.0135248	0.111216	6.98495	463984	3.78707e+06	3.81539e+06	-83.0151	0.0000000E+000	0.0000000E+000	0.0000000E+000	83.0151	0.0000000E+000	0.0000000E+000	0.0000000E+000	-83.0151	0.0000000E+000	0.0000000E+000	0.0000000E+000	-6.98495	0.0000000E+000	0.0000000E+000	0.0000000E+000	6.98495	8.16207	83.0151	-2.658e-06	-6.18279e-06	12210.2
2.15577	9.32199	0.861021	9.36167	-5.27713	16.0218	0.274773	-0.0214353	85744.1	725.313	1	11	0.0049695	0.000530835	0	-3.96265e-05	0.106366	0.00982443	0.106819	5.27713	725313	7.85273e+06	7.88615e+06	-84.7229	0.0000000E+000	0.0000000E+000	0.0000000E+000	84.7229	0.0000000E+000	0.0000000E+000	0.0000000E+000	-84.7229	0.0000000E+000	0.0000000E+000	0.0000000E+000	-5.27713	0.0000000E+000	0.0000000E+000	0.0000000E+000	5.27713	10.8267	84.7229	1.98864e-07	-5.88985e-06	12818.7
1.00006	9.60332	0.76215	9.63351	-4.53767	19.6351	0.27478	-0.0164085	208810	1306.96	1	11	0.00496878	0.000515781	0	-3.55547e-05	0.103479	0.00821242	0.103804	4.53767	1.30696e+06	1.64681e+07	1.65199e+07	-85.4623	0.0000000E+000	0.0000000E+000	0.0000000E+000	85.4623	0.0000000E+000	0.0000000E+000	0.0000000E+000	-85.4623	0.0000000E+000	0.0000000E+000	0.0000000E+000	-4.53767	0.0000000E+000	0.0000000E+000	0.0000000E+000	4.53767	12.6003	85.4623	-1.55394e-06	-4.50872e-06	16746.2
0.464091	9.8406	0.865011	9.87854	-5.02352	27.3198	0.274781	-0.010841	396456	3039.86	1	11	0.00497461	0.000503577	0	-9.85242e-05	0.100841	0.00886413	0.10123	5.02352	3.03986e+06	3.45822e+07	3.47156e+07	-84.9765	0.0000000E+000	0.0000000E+000	0.0000000E+000	84.9765	0.0000000E+000	0.0000000E+000	0.0000000E+000	-84.9765	0.0000000E+000	0.0000000E+000	0.0000000E+000	-5.02352	0.0000000E+000	0.0000000E+000	0.0000000E+000	5.02352	11.3763	84.9765	-4.43331e-05	-2.97891e-06	25346.4
0.215268	10.1721	1.19808	10.2424	-6.71736	43.7998	0.274773	-0.0113719	617102	8443.42	1	11	0.00497711	0.00048593	0	-0.000228716	0.0969627	0.0114203	0.097633	6.71736	8.44342e+06	7.16879e+07	7.21834e+07	-83.2826	0.0000000E+000	0.0000000E+000	0.0000000E+000	83.2826	0.0000000E+000	0.0000000E+000	0.0000000E+000	-83.2826	0.0000000E+000	0.0000000E+000	0.0000000E+000	-6.71736	0.0000000E+000	0.0000000E+000	0.0000000E+000	6.71736	8.49039	83.2826	-6.60273e-05	-3.1247e-06	24162.4
0.0999041	10.6064	1.91801	10.7785	-10.2503	79.2052	0.274771	-0.00994704	830589	26301.1	1	11	0.00497294	0.000461377	0	-0.000228757	0.0912968	0.0165096	0.0927776	10.2503	2.63011e+07	1.45443e+08	1.47802e+08	-79.7497	0.0000000E+000	0.0000000E+000	0.0000000E+000	79.7497	0.0000000E+000	0.0000000E+000	0.0000000E+000	-79.7497	0.0000000E+000	0.0000000E+000	0.0000000E+000	-10.2503	0.0000000E+000	0.0000000E+000	0.0000000E+000	10.2503	5.52992	79.7497	3.411e-05	-2.73316e-06	27623.4
0.0464052	11.3287	3.02059	11.7245	-14.9296	155.441	0.274783	-0.00141642	1.13543e+06	75363.2	1	11	0.00497794	0.000424577	0	8.01866e-05	0.0824126	0.0219738	0.0852918	14.9296	7.53632e+07	2.82649e+08	2.92523e+08	-75.0704	0.0000000E+000	0.0000000E+000	0.0000000E+000	75.0704	0.0000000E+000	0.0000000E+000	0.0000000E+000	-75.0704	0.0000000E+000	0.0000000E+000	0.0000000E+000	-14.9296	0.0000000E+000	0.0000000E+000	0.0000000E+000	14.9296	3.75049	75.0704	0.000198838	-3.89207e-07	193998
0.0215268	12.3011	5.25217	13.3755	-23.1208	319.671	0.274767	0.000721041	1.40767e+06	217051	1	11	0.00497253	0.000371765	0	2.76547e-05	0.0687585	0.0293576	0.0747637	23.1208	2.17051e+08	5.08356e+08	5.52754e+08	-66.8791	0.0000000E+000	0.0000000E+000	0.0000000E+000	66.8791	0.0000000E+000	0.0000000E+000	0.0000000E+000	-66.8791	0.0000000E+000	0.0000000E+000	0.0000000E+000	-23.1208	0.0000000E+000	0.0000000E+000	0.0000000E+000	23.1208	2.34211	66.8791	-0.000173427	1.98118e-07	381070
0.0100092	13.7853	9.13868	16.5393	-33.5416	772.96	0.274772	-0.000922872	1.73996e+06	531213	1	12	0.00497309	0.000300683	0	-0.00152404	0.0503941	0.0334077	0.0604619	33.5416	5.31213e+08	8.01312e+08	9.61399e+08	-56.4584	0.0000000E+000	0.0000000E+000	0.0000000E+000	56.4584	0.0000000E+000	0.0000000E+000	0.0000000E+000	-56.4584	0.0000000E+000	0.0000000E+000	0.0000000E+000	-33.5416	0.0000000E+000	0.0000000E+000	0.0000000E+000	33.5416	1.50846	56.4584	-0.00093443	-2.5358e-07	297736