File: txt/17463_C05.mpt
EC-Lab ASCII FILE
Nb header lines : 64

Potentio Electrochemical Impedance Spectroscopy

Run on channel : 5 (SN 65912)
User :
CE vs. WE compliance from -10 V to 10 V
Electrode connection : standard
Potential control : Ewe
Ewe ctrl range : min = -10.00 V, max = 10.00 V
Safety Limits :
	Do not start on E overload
Acquisition started on : 09/12/2025 09:49:02.392
Technique started on : 09/12/2025 09:49:04.416
Loaded Setting File :  C:\Users\Celltest\OneDrive - store-dot.com\Documents\EC-Lab\Data\Charmaine\R279\17382_C01.mpr
Saved on :
	File : 17463_C05.mpr
	Directory : C:\Users\Celltest\OneDrive - store-dot.com\Documents\EC-Lab\Data\Gyutae\R277\
	Host : 169.254.61.224
Device : VMP-3e (SN .003165)
Address : USB
EC-LAB for windows v11.62 (software)
Internet server v27.00 (firmware)
Command interpretor v12.03 (firmware)
Electrode material :
Initial state :
Electrolyte :
Comments :
Electrode surface area : 0.001 cm²
Characteristic mass : 0.001 g
Equivalent Weight : 0.000 g/eq.
Density : 0.000 g/cm3
Volume (V) : 0.001 cm³
Cycle Definition : Charge/Discharge alternance
Mode                Single sine
E (V)               0.0000
vs.                 Eoc
tE (h:m:s)          0:00:0.0000
record              0
dI                  0.000
unit dI             mA
dt (s)              0.000
fi                  100.000
unit fi             kHz
ff                  10.000
unit ff             mHz
Nd                  6
Points              per decade
spacing             Logarithmic
Va (mV)             5.0
pw                  0.10
Na                  2
corr                0
E range min (V)     -10.000
E range max (V)     10.000
I Range             Auto
Bandwidth           5
nc cycles           0
goto Ns'            0
nr cycles           0
inc. cycle          0

freq/Hz	Re(Z)/Ohm	-Im(Z)/Ohm	|Z|/Ohm	Phase(Z)/deg	time/s	<Ewe>/V	<I>/mA	Cs/µF	Cp/µF	cycle number	I Range	|Ewe|/V	|I|/A	Ns	(Q-Qo)/mA.h	Re(Y)/Ohm-1	Im(Y)/Ohm-1	|Y|/Ohm-1	Phase(Y)/deg	Re(C)/nF	Im(C)/nF	|C|/nF	Phase(C)/deg	Re(M)	Im(M)	|M|	Phase(M)/deg	Re(Permittivity)	Im(Permittivity)	|Permittivity|	Phase(Permittivity)/deg	Re(Resistivity)/Ohm.cm	Im(Resistivity)/Ohm.cm	|Resistivity|/Ohm.cm	Phase(Resistivity)/deg	Re(Conductivity)/mS/cm	Im(Conductivity)/mS/cm	|Conductivity|/mS/cm	Phase(Conductivity)/deg	Tan(Delta)	Loss Angle(Delta)/deg	dq/mA.h	Pwe/W	Rwe/Ohm
100004	1.84154	0.336195	1.87197	-10.3461	2.02449	0.274899	-0.0391047	4.73383	0.152685	1	9	0.00493794	0.00263783	0	-7.8499e-06	0.52551	0.0959384	0.534196	10.3461	152.685	836.344	850.167	-79.6539	0.0000000E+000	0.0000000E+000	0.0000000E+000	79.6539	0.0000000E+000	0.0000000E+000	0.0000000E+000	-79.6539	0.0000000E+000	0.0000000E+000	0.0000000E+000	-10.3461	0.0000000E+000	0.0000000E+000	0.0000000E+000	10.3461	5.47758	79.6539	-7.8499e-06	-1.07498e-05	7029.82
46420.4	2.02305	0.446863	2.07182	-12.4558	2.89949	0.274888	-0.0394957	7.67251	0.35693	1	9	0.00545586	0.00263337	0	-2.00835e-05	0.471307	0.104105	0.482668	12.4558	356.93	1615.91	1654.86	-77.5442	0.0000000E+000	0.0000000E+000	0.0000000E+000	77.5442	0.0000000E+000	0.0000000E+000	0.0000000E+000	-77.5442	0.0000000E+000	0.0000000E+000	0.0000000E+000	-12.4558	0.0000000E+000	0.0000000E+000	0.0000000E+000	12.4558	4.52723	77.5442	-4.92901e-06	-1.08569e-05	6959.95
21544.7	2.24503	0.564744	2.31498	-14.1199	3.7745	0.274884	-0.0431452	13.0806	0.778464	1	9	0.00530712	0.00229252	0	-3.1313e-05	0.418919	0.10538	0.43197	14.1199	778.464	3094.64	3191.05	-75.8801	0.0000000E+000	0.0000000E+000	0.0000000E+000	75.8801	0.0000000E+000	0.0000000E+000	0.0000000E+000	-75.8801	0.0000000E+000	0.0000000E+000	0.0000000E+000	-14.1199	0.0000000E+000	0.0000000E+000	0.0000000E+000	14.1199	3.97531	75.8801	-4.96598e-06	-1.18599e-05	6371.12
10002.2	2.52585	0.71004	2.62375	-15.7012	4.64849	0.274888	-0.0424563	22.4099	1.6412	1	9	0.00516488	0.00196851	0	-3.80503e-05	0.366913	0.103143	0.381134	15.7012	1641.2	5838.3	6064.59	-74.2988	0.0000000E+000	0.0000000E+000	0.0000000E+000	74.2988	0.0000000E+000	0.0000000E+000	0.0000000E+000	-74.2988	0.0000000E+000	0.0000000E+000	0.0000000E+000	-15.7012	0.0000000E+000	0.0000000E+000	0.0000000E+000	15.7012	3.55733	74.2988	-4.34822e-06	-1.16707e-05	6474.61
4641.49	2.87585	0.919145	3.01916	-17.7243	5.67467	0.274929	-0.0173194	37.306	3.4576	1	9	0.00519072	0.00171926	0	-5.24492e-05	0.315496	0.100835	0.331218	17.7243	3457.6	10818.2	11357.4	-72.2757	0.0000000E+000	0.0000000E+000	0.0000000E+000	72.2757	0.0000000E+000	0.0000000E+000	0.0000000E+000	-72.2757	0.0000000E+000	0.0000000E+000	0.0000000E+000	-17.7243	0.0000000E+000	0.0000000E+000	0.0000000E+000	17.7243	3.12883	72.2757	-1.76177e-06	-4.76162e-06	15874
2155.69	3.32682	1.19904	3.53631	-19.82	6.60767	0.274929	-0.0203359	61.5744	7.07893	1	9	0.00513339	0.00145163	0	-5.72404e-05	0.26603	0.0958813	0.282781	19.82	7078.93	19641	20877.8	-70.18	0.0000000E+000	0.0000000E+000	0.0000000E+000	70.18	0.0000000E+000	0.0000000E+000	0.0000000E+000	-70.18	0.0000000E+000	0.0000000E+000	0.0000000E+000	-19.82	0.0000000E+000	0.0000000E+000	0.0000000E+000	19.82	2.77457	70.18	-1.81867e-06	-5.59093e-06	13519.4
1000.32	3.93963	1.57093	4.24128	-21.7397	7.79768	0.274931	-0.0153277	101.28	13.8945	1	10	0.0051279	0.00120904	0	-6.24742e-05	0.219008	0.0873299	0.235778	21.7397	13894.5	34845.1	37513.2	-68.2603	0.0000000E+000	0.0000000E+000	0.0000000E+000	68.2603	0.0000000E+000	0.0000000E+000	0.0000000E+000	-68.2603	0.0000000E+000	0.0000000E+000	0.0000000E+000	-21.7397	0.0000000E+000	0.0000000E+000	0.0000000E+000	21.7397	2.50783	68.2603	-2.62812e-06	-4.21406e-06	17936.9
463.961	4.73191	2.03931	5.15264	-23.3145	8.73222	0.274923	-0.0151862	168.212	26.3488	1	10	0.00504804	0.000979699	0	-6.63127e-05	0.178228	0.0768108	0.194075	23.3145	26348.8	61138.6	66574.7	-66.6855	0.0000000E+000	0.0000000E+000	0.0000000E+000	66.6855	0.0000000E+000	0.0000000E+000	0.0000000E+000	-66.6855	0.0000000E+000	0.0000000E+000	0.0000000E+000	-23.3145	0.0000000E+000	0.0000000E+000	0.0000000E+000	23.3145	2.32035	66.6855	-2.16201e-06	-4.17503e-06	18103.5
215.345	5.77292	2.66857	6.35987	-24.8091	9.66645	0.274925	-0.0151769	276.954	48.7606	1	10	0.00501127	0.000787953	0	-7.0957e-05	0.142725	0.0659755	0.157236	24.8091	48760.6	105484	116209	-65.1909	0.0000000E+000	0.0000000E+000	0.0000000E+000	65.1909	0.0000000E+000	0.0000000E+000	0.0000000E+000	-65.1909	0.0000000E+000	0.0000000E+000	0.0000000E+000	-24.8091	0.0000000E+000	0.0000000E+000	0.0000000E+000	24.8091	2.1633	65.1909	-2.1686e-06	-4.17251e-06	18114.7
100.032	7.26643	3.42212	8.03193	-25.2181	10.5977	0.274922	-0.0148269	464.928	84.3989	1	10	0.00499711	0.000622155	0	-7.37308e-05	0.112637	0.0530463	0.124503	25.2181	84398.9	179210	198089	-64.7819	0.0000000E+000	0.0000000E+000	0.0000000E+000	64.7819	0.0000000E+000	0.0000000E+000	0.0000000E+000	-64.7819	0.0000000E+000	0.0000000E+000	0.0000000E+000	-25.2181	0.0000000E+000	0.0000000E+000	0.0000000E+000	25.2181	2.12337	64.7819	-1.30336e-06	-4.07624e-06	18542.1
46.4415	9.37467	4.01337	10.1976	-23.1761	11.5315	0.274922	-0.0155772	853.895	132.259	1	10	0.00499566	0.000489885	0	-7.66084e-05	0.0901484	0.0385932	0.0980621	23.1761	132259	308938	336058	-66.8239	0.0000000E+000	0.0000000E+000	0.0000000E+000	66.8239	0.0000000E+000	0.0000000E+000	0.0000000E+000	-66.8239	0.0000000E+000	0.0000000E+000	0.0000000E+000	-23.1761	0.0000000E+000	0.0000000E+000	0.0000000E+000	23.1761	2.33586	66.8239	-1.46193e-06	-4.28251e-06	17649
21.5517	11.7908	3.94663	12.4337	-18.5065	12.4163	0.274913	-0.0173998	1871.16	188.522	1	10	0.00499842	0.000402004	0	-7.98126e-05	0.0762673	0.0255284	0.0804263	18.5065	188522	563218	593932	-71.4935	0.0000000E+000	0.0000000E+000	0.0000000E+000	71.4935	0.0000000E+000	0.0000000E+000	0.0000000E+000	-71.4935	0.0000000E+000	0.0000000E+000	0.0000000E+000	-18.5065	0.0000000E+000	0.0000000E+000	0.0000000E+000	18.5065	2.98755	71.4935	-1.08295e-06	-4.78344e-06	15799.8
10.0032	13.7932	3.23316	14.1671	-13.1921	13.6167	0.274936	-0.0103112	4921.01	256.3	1	11	0.00498558	0.000351913	0	-8.71126e-05	0.0687235	0.0161089	0.0705862	13.1921	256299	1.09342e+06	1.12306e+06	-76.8079	0.0000000E+000	0.0000000E+000	0.0000000E+000	76.8079	0.0000000E+000	0.0000000E+000	0.0000000E+000	-76.8079	0.0000000E+000	0.0000000E+000	0.0000000E+000	-13.1921	0.0000000E+000	0.0000000E+000	0.0000000E+000	13.1921	4.26617	76.8079	-6.02025e-06	-2.83493e-06	26663.7
4.63925	15.1681	2.49461	15.3719	-9.33948	14.4763	0.274927	-0.00969263	13752.1	362.176	1	11	0.00498827	0.000324505	0	-8.79061e-05	0.0641914	0.0105572	0.0650537	9.33948	362176	2.20216e+06	2.23174e+06	-80.6605	0.0000000E+000	0.0000000E+000	0.0000000E+000	80.6605	0.0000000E+000	0.0000000E+000	0.0000000E+000	-80.6605	0.0000000E+000	0.0000000E+000	0.0000000E+000	-9.33948	0.0000000E+000	0.0000000E+000	0.0000000E+000	9.33948	6.08036	80.6605	-2.84333e-06	-2.66477e-06	28364.6
2.15577	16.1235	1.9577	16.2419	-6.9229	16.2028	0.274946	-0.00911754	37711.4	547.885	1	11	0.00499291	0.000307409	0	-9.45917e-05	0.0611202	0.00742114	0.061569	6.9229	547885	4.51235e+06	4.54549e+06	-83.0771	0.0000000E+000	0.0000000E+000	0.0000000E+000	83.0771	0.0000000E+000	0.0000000E+000	0.0000000E+000	-83.0771	0.0000000E+000	0.0000000E+000	0.0000000E+000	-6.9229	0.0000000E+000	0.0000000E+000	0.0000000E+000	6.9229	8.23595	83.0771	-1.70147e-07	-2.50683e-06	30155.7
1.00006	16.8135	1.62452	16.8918	-5.51878	20.8662	0.274947	-0.00708106	97964	906.075	1	12	0.00499238	0.00029555	0	-9.01026e-05	0.0589258	0.0056934	0.0592002	5.51878	906075	9.37773e+06	9.4214e+06	-84.4812	0.0000000E+000	0.0000000E+000	0.0000000E+000	84.4812	0.0000000E+000	0.0000000E+000	0.0000000E+000	-84.4812	0.0000000E+000	0.0000000E+000	0.0000000E+000	-5.51878	0.0000000E+000	0.0000000E+000	0.0000000E+000	5.51878	10.3498	84.4812	-5.6171e-08	-1.94691e-06	38828.4
0.464091	17.374	1.56255	17.4441	-5.13913	28.5509	0.274953	-0.00478366	219475	1760.97	1	12	0.00499193	0.000286167	0	-0.000124359	0.0570955	0.00513494	0.0573259	5.13913	1.76097e+06	1.95803e+07	1.96593e+07	-84.8609	0.0000000E+000	0.0000000E+000	0.0000000E+000	84.8609	0.0000000E+000	0.0000000E+000	0.0000000E+000	-84.8609	0.0000000E+000	0.0000000E+000	0.0000000E+000	-5.13913	0.0000000E+000	0.0000000E+000	0.0000000E+000	5.13913	11.119	84.8609	-2.41298e-05	-1.31528e-06	57477.6
0.215268	17.9742	1.84695	18.0689	-5.86687	45.031	0.27495	-0.00552956	400300	4182.49	1	12	0.00499505	0.000276445	0	-0.000190114	0.0550539	0.0056571	0.0553438	5.86687	4.18249e+06	4.07033e+07	4.09176e+07	-84.1331	0.0000000E+000	0.0000000E+000	0.0000000E+000	84.1331	0.0000000E+000	0.0000000E+000	0.0000000E+000	-84.1331	0.0000000E+000	0.0000000E+000	0.0000000E+000	-5.86687	0.0000000E+000	0.0000000E+000	0.0000000E+000	5.86687	9.73183	84.1331	-3.22077e-05	-1.52035e-06	49723.6
0.0999041	18.665	2.65986	18.8535	-8.11036	80.4375	0.274953	-0.00541702	598933	11920.9	1	12	0.00499435	0.000264903	0	-0.000177464	0.05251	0.00748296	0.0530405	8.11036	1.19209e+07	8.36524e+07	8.44976e+07	-81.8896	0.0000000E+000	0.0000000E+000	0.0000000E+000	81.8896	0.0000000E+000	0.0000000E+000	0.0000000E+000	-81.8896	0.0000000E+000	0.0000000E+000	0.0000000E+000	-8.11036	0.0000000E+000	0.0000000E+000	0.0000000E+000	8.11036	7.01727	81.8896	2.51774e-05	-1.48942e-06	50757.3
0.0464052	19.7081	3.98432	20.1068	-11.4292	156.674	0.274955	-0.00159476	860795	33800.3	1	12	0.00499215	0.000248281	0	-9.33649e-06	0.0487481	0.00985523	0.0497344	11.4292	3.38003e+07	1.6719e+08	1.70573e+08	-78.5708	0.0000000E+000	0.0000000E+000	0.0000000E+000	78.5708	0.0000000E+000	0.0000000E+000	0.0000000E+000	-78.5708	0.0000000E+000	0.0000000E+000	0.0000000E+000	-11.4292	0.0000000E+000	0.0000000E+000	0.0000000E+000	11.4292	4.94642	78.5708	0.000103178	-4.38486e-07	172412
0.0215268	21.1404	6.68837	22.1732	-17.5563	320.902	0.274955	0.000320394	1.1054e+06	100578	1	12	0.00499105	0.000225094	0	-5.66336e-05	0.0429988	0.0136039	0.0450995	17.5563	1.00578e+08	3.17905e+08	3.33436e+08	-72.4437	0.0000000E+000	0.0000000E+000	0.0000000E+000	72.4437	0.0000000E+000	0.0000000E+000	0.0000000E+000	-72.4437	0.0000000E+000	0.0000000E+000	0.0000000E+000	-17.5563	0.0000000E+000	0.0000000E+000	0.0000000E+000	17.5563	3.16077	72.4437	-0.000107749	8.80939e-08	858175
0.0100092	23.2138	11.1531	25.7541	-25.662	674.117	0.274951	-0.000629659	1.42569e+06	267378	1	12	0.00499257	0.000193856	0	-0.00102851	0.0349989	0.0168153	0.0388288	25.662	2.67378e+08	5.56515e+08	6.17414e+08	-64.338	0.0000000E+000	0.0000000E+000	0.0000000E+000	64.338	0.0000000E+000	0.0000000E+000	0.0000000E+000	-64.338	0.0000000E+000	0.0000000E+000	0.0000000E+000	-25.662	0.0000000E+000	0.0000000E+000	0.0000000E+000	25.662	2.08137	64.338	-0.000596328	-1.73125e-07	436667