File: txt/17460_R277_UA655_SOC00_C02.mpt
EC-Lab ASCII FILE
Nb header lines : 63

Potentio Electrochemical Impedance Spectroscopy

Run on channel : 2 (SN 66139)
User :
CE vs. WE compliance from -10 V to 10 V
Electrode connection : standard
Potential control : Ewe
Ewe ctrl range : min = -10.00 V, max = 10.00 V
Safety Limits :
	Do not start on E overload
Acquisition started on : 09/12/2025 09:48:31.821
Loaded Setting File :  C:\Users\Celltest\OneDrive - store-dot.com\Documents\EC-Lab\Data\Charmaine\R279\17382_C01.mpr
Saved on :
	File : 17460_C02.mpr
	Directory : C:\Users\Celltest\OneDrive - store-dot.com\Documents\EC-Lab\Data\Gyutae\R277\
	Host : 169.254.61.224
Device : VMP-3e (SN .003165)
Address : USB
EC-LAB for windows v11.62 (software)
Internet server v27.00 (firmware)
Command interpretor v12.03 (firmware)
Electrode material :
Initial state :
Electrolyte :
Comments :
Electrode surface area : 0.001 cm²
Characteristic mass : 0.001 g
Equivalent Weight : 0.000 g/eq.
Density : 0.000 g/cm3
Volume (V) : 0.001 cm³
Cycle Definition : Charge/Discharge alternance
Mode                Single sine
E (V)               0.0000
vs.                 Eoc
tE (h:m:s)          0:00:0.0000
record              0
dI                  0.000
unit dI             mA
dt (s)              0.000
fi                  100.000
unit fi             kHz
ff                  10.000
unit ff             mHz
Nd                  6
Points              per decade
spacing             Logarithmic
Va (mV)             5.0
pw                  0.10
Na                  2
corr                0
E range min (V)     -10.000
E range max (V)     10.000
I Range             Auto
Bandwidth           5
nc cycles           0
goto Ns'            0
nr cycles           0
inc. cycle          0

freq/Hz	Re(Z)/Ohm	-Im(Z)/Ohm	|Z|/Ohm	Phase(Z)/deg	time/s	<Ewe>/V	<I>/mA	Cs/µF	Cp/µF	cycle number	I Range	|Ewe|/V	|I|/A	Ns	(Q-Qo)/mA.h	Re(Y)/Ohm-1	Im(Y)/Ohm-1	|Y|/Ohm-1	Phase(Y)/deg	Re(C)/nF	Im(C)/nF	|C|/nF	Phase(C)/deg	Re(M)	Im(M)	|M|	Phase(M)/deg	Re(Permittivity)	Im(Permittivity)	|Permittivity|	Phase(Permittivity)/deg	Re(Resistivity)/Ohm.cm	Im(Resistivity)/Ohm.cm	|Resistivity|/Ohm.cm	Phase(Resistivity)/deg	Re(Conductivity)/mS/cm	Im(Conductivity)/mS/cm	|Conductivity|/mS/cm	Phase(Conductivity)/deg	Tan(Delta)	Loss Angle(Delta)/deg	dq/mA.h	Pwe/W	Rwe/Ohm
100004	1.23306	0.241427	1.25647	-11.0781	1.86547	0.275595	-0.0189372	6.59203	0.243378	1	9	0.00453894	0.00361244	0	-1.65414e-05	0.781048	0.152925	0.795878	11.0781	243.378	1243.03	1266.63	-78.9219	0.0000000E+000	0.0000000E+000	0.0000000E+000	78.9219	0.0000000E+000	0.0000000E+000	0.0000000E+000	-78.9219	0.0000000E+000	0.0000000E+000	0.0000000E+000	-11.0781	0.0000000E+000	0.0000000E+000	0.0000000E+000	11.0781	5.1074	78.9219	-1.65414e-05	-5.21901e-06	14553.1
46420.4	1.35743	0.286889	1.38741	-11.9337	3.0215	0.275591	-0.0105569	11.9508	0.510992	1	9	0.00507659	0.00365903	0	-1.85917e-05	0.705188	0.14904	0.720766	11.9337	510.992	2417.78	2471.19	-78.0663	0.0000000E+000	0.0000000E+000	0.0000000E+000	78.0663	0.0000000E+000	0.0000000E+000	0.0000000E+000	-78.0663	0.0000000E+000	0.0000000E+000	0.0000000E+000	-11.9337	0.0000000E+000	0.0000000E+000	0.0000000E+000	11.9337	4.73154	78.0663	-1.91696e-06	-2.90939e-06	26105.3
21544.7	1.49622	0.364651	1.54002	-13.6968	4.0365	0.275584	-0.0124751	20.2583	1.13581	1	9	0.00533081	0.00346152	0	-2.95113e-05	0.630877	0.153754	0.649343	13.6968	1135.81	4660.42	4796.83	-76.3032	0.0000000E+000	0.0000000E+000	0.0000000E+000	76.3032	0.0000000E+000	0.0000000E+000	0.0000000E+000	-76.3032	0.0000000E+000	0.0000000E+000	0.0000000E+000	-13.6968	0.0000000E+000	0.0000000E+000	0.0000000E+000	13.6968	4.10317	76.3032	-6.29491e-06	-3.43794e-06	22090.8
10002.2	1.67623	0.46226	1.7388	-15.4175	4.62849	0.275582	-0.0147471	34.4221	2.43282	1	9	0.00507972	0.00292139	0	-3.06077e-05	0.554414	0.152893	0.57511	15.4175	2432.82	8821.81	9151.12	-74.5825	0.0000000E+000	0.0000000E+000	0.0000000E+000	74.5825	0.0000000E+000	0.0000000E+000	0.0000000E+000	-74.5825	0.0000000E+000	0.0000000E+000	0.0000000E+000	-15.4175	0.0000000E+000	0.0000000E+000	0.0000000E+000	15.4175	3.62616	74.5825	-4.14528e-07	-4.06403e-06	18687.2
4641.49	1.90195	0.606326	1.99626	-17.6818	5.47669	0.275572	-0.0037223	56.5532	5.21717	1	9	0.00473338	0.00237113	0	-3.53861e-05	0.477271	0.15215	0.500937	17.6818	5217.17	16365.5	17176.9	-72.3182	0.0000000E+000	0.0000000E+000	0.0000000E+000	72.3182	0.0000000E+000	0.0000000E+000	0.0000000E+000	-72.3182	0.0000000E+000	0.0000000E+000	0.0000000E+000	-17.6818	0.0000000E+000	0.0000000E+000	0.0000000E+000	17.6818	3.13685	72.3182	8.92671e-07	-1.02576e-06	74032.5
2155.69	2.20195	0.788242	2.33878	-19.6961	6.41069	0.27557	0.00288882	93.6643	10.6393	1	9	0.00461614	0.00197373	0	-3.47807e-05	0.402557	0.144105	0.427572	19.6961	10639.3	29720.8	31567.7	-70.3039	0.0000000E+000	0.0000000E+000	0.0000000E+000	70.3039	0.0000000E+000	0.0000000E+000	0.0000000E+000	-70.3039	0.0000000E+000	0.0000000E+000	0.0000000E+000	-19.6961	0.0000000E+000	0.0000000E+000	0.0000000E+000	19.6961	2.7935	70.3039	1.47948e-06	7.96071e-07	95391.7
1000.32	2.60681	1.02691	2.80178	-21.5011	7.34668	0.275567	0.00415518	154.935	20.8134	1	9	0.00457105	0.00163148	0	-3.49418e-05	0.332078	0.130816	0.356916	21.5011	20813.4	52835	56786.7	-68.4989	0.0000000E+000	0.0000000E+000	0.0000000E+000	68.4989	0.0000000E+000	0.0000000E+000	0.0000000E+000	-68.4989	0.0000000E+000	0.0000000E+000	0.0000000E+000	-21.5011	0.0000000E+000	0.0000000E+000	0.0000000E+000	21.5011	2.53851	68.4989	5.06555e-07	1.14503e-06	66318.9
463.961	3.12011	1.31751	3.38688	-22.8926	8.53522	0.275576	-0.0317293	260.366	39.3999	1	10	0.00459378	0.00135634	0	-4.32495e-05	0.272001	0.114857	0.295257	22.8926	39399.9	93306.1	101284	-67.1074	0.0000000E+000	0.0000000E+000	0.0000000E+000	67.1074	0.0000000E+000	0.0000000E+000	0.0000000E+000	-67.1074	0.0000000E+000	0.0000000E+000	0.0000000E+000	-22.8926	0.0000000E+000	0.0000000E+000	0.0000000E+000	22.8926	2.36818	67.1074	-3.3166e-06	-8.74382e-06	8685.21
215.345	3.84383	1.70928	4.20674	-23.9739	9.46941	0.275577	-0.0316324	432.387	71.3852	1	10	0.00457031	0.00108643	0	-5.07165e-05	0.217206	0.0965878	0.237714	23.9739	71385.2	160531	175687	-66.0261	0.0000000E+000	0.0000000E+000	0.0000000E+000	66.0261	0.0000000E+000	0.0000000E+000	0.0000000E+000	-66.0261	0.0000000E+000	0.0000000E+000	0.0000000E+000	-23.9739	0.0000000E+000	0.0000000E+000	0.0000000E+000	23.9739	2.2488	66.0261	-4.14194e-06	-8.71716e-06	8711.84
100.032	4.87701	2.0741	5.29973	-23.0391	10.4007	0.275566	-0.0305801	767.098	117.491	1	10	0.00455608	0.000859681	0	-5.87933e-05	0.173639	0.0738452	0.188689	23.0391	117491	276266	300211	-66.9609	0.0000000E+000	0.0000000E+000	0.0000000E+000	66.9609	0.0000000E+000	0.0000000E+000	0.0000000E+000	-66.9609	0.0000000E+000	0.0000000E+000	0.0000000E+000	-23.0391	0.0000000E+000	0.0000000E+000	0.0000000E+000	23.0391	2.35138	66.9609	-4.02902e-06	-8.42681e-06	9011.28
46.4415	6.14358	2.1259	6.501	-19.0875	11.3335	0.275564	-0.0327593	1612.02	172.384	1	10	0.00454485	0.0006991	0	-6.67556e-05	0.145365	0.0503017	0.153822	19.0875	172384	498166	527149	-70.9125	0.0000000E+000	0.0000000E+000	0.0000000E+000	70.9125	0.0000000E+000	0.0000000E+000	0.0000000E+000	-70.9125	0.0000000E+000	0.0000000E+000	0.0000000E+000	-19.0875	0.0000000E+000	0.0000000E+000	0.0000000E+000	19.0875	2.88987	70.9125	-4.30249e-06	-9.02731e-06	8411.79
21.5517	7.27975	1.81534	7.50268	-14.0022	12.2173	0.275559	-0.0350895	4068	238.156	1	10	0.00455081	0.000606558	0	-7.64694e-05	0.129325	0.0322496	0.133286	14.0022	238156	955040	984287	-75.9978	0.0000000E+000	0.0000000E+000	0.0000000E+000	75.9978	0.0000000E+000	0.0000000E+000	0.0000000E+000	-75.9978	0.0000000E+000	0.0000000E+000	0.0000000E+000	-14.0022	0.0000000E+000	0.0000000E+000	0.0000000E+000	14.0022	4.01014	75.9978	-5.71268e-06	-9.66921e-06	7853.04
10.0032	8.07283	1.40417	8.19404	-9.86721	13.1637	0.27557	-0.0282388	11330.8	332.741	1	10	0.0045479	0.000555025	0	-7.87486e-05	0.120235	0.0209134	0.12204	9.86721	332741	1.91298e+06	1.9417e+06	-80.1328	0.0000000E+000	0.0000000E+000	0.0000000E+000	80.1328	0.0000000E+000	0.0000000E+000	0.0000000E+000	-80.1328	0.0000000E+000	0.0000000E+000	0.0000000E+000	-9.86721	0.0000000E+000	0.0000000E+000	0.0000000E+000	9.86721	5.74917	80.1328	5.93617e-07	-7.78175e-06	9758.55
4.63925	8.60892	1.07134	8.67532	-7.09372	14.2943	0.275596	-0.0196261	32021.7	488.346	1	11	0.00454117	0.000523458	0	-8.75713e-05	0.114387	0.0142349	0.115269	7.09372	488346	3.92418e+06	3.95445e+06	-82.9063	0.0000000E+000	0.0000000E+000	0.0000000E+000	82.9063	0.0000000E+000	0.0000000E+000	0.0000000E+000	-82.9063	0.0000000E+000	0.0000000E+000	0.0000000E+000	-7.09372	0.0000000E+000	0.0000000E+000	0.0000000E+000	7.09372	8.03566	82.9063	-1.5881e-06	-5.40888e-06	14042.3
2.15577	8.99929	0.833988	9.03785	-5.29463	16.0208	0.275602	-0.0181953	88523.4	753.785	1	11	0.00454657	0.000503059	0	-9.93112e-05	0.110174	0.0102101	0.110646	5.29463	753785	8.13385e+06	8.1687e+06	-84.7054	0.0000000E+000	0.0000000E+000	0.0000000E+000	84.7054	0.0000000E+000	0.0000000E+000	0.0000000E+000	-84.7054	0.0000000E+000	0.0000000E+000	0.0000000E+000	-5.29463	0.0000000E+000	0.0000000E+000	0.0000000E+000	5.29463	10.7907	84.7054	-7.98926e-07	-5.01465e-06	15146.9
1.00006	9.26596	0.738936	9.29538	-4.55954	19.6342	0.275605	-0.0148126	215370	1361.02	1	11	0.00454695	0.000489163	0	-9.19552e-05	0.10724	0.00855209	0.10758	4.55954	1.36102e+06	1.70667e+07	1.71208e+07	-85.4405	0.0000000E+000	0.0000000E+000	0.0000000E+000	85.4405	0.0000000E+000	0.0000000E+000	0.0000000E+000	-85.4405	0.0000000E+000	0.0000000E+000	0.0000000E+000	-4.55954	0.0000000E+000	0.0000000E+000	0.0000000E+000	4.55954	12.5396	85.4405	1.21939e-06	-4.08243e-06	18606.1
0.464091	9.50183	0.835017	9.53845	-5.02223	27.3189	0.275606	-0.0087272	410698	3147.44	1	11	0.00454644	0.000476643	0	-0.00014248	0.104436	0.00917782	0.104839	5.02223	3.14743e+06	3.58153e+07	3.59534e+07	-84.9778	0.0000000E+000	0.0000000E+000	0.0000000E+000	84.9778	0.0000000E+000	0.0000000E+000	0.0000000E+000	-84.9778	0.0000000E+000	0.0000000E+000	0.0000000E+000	-5.02223	0.0000000E+000	0.0000000E+000	0.0000000E+000	5.02223	11.3792	84.9778	-3.7269e-05	-2.40527e-06	31580.1
0.215268	9.80789	1.13804	9.8737	-6.61862	43.7989	0.275604	-0.00897413	649655	8630.58	1	11	0.00454632	0.000460448	0	-0.00026888	0.100604	0.0116734	0.101279	6.61862	8.63058e+06	7.43802e+07	7.48792e+07	-83.3814	0.0000000E+000	0.0000000E+000	0.0000000E+000	83.3814	0.0000000E+000	0.0000000E+000	0.0000000E+000	-83.3814	0.0000000E+000	0.0000000E+000	0.0000000E+000	-6.61862	0.0000000E+000	0.0000000E+000	0.0000000E+000	6.61862	8.61822	83.3814	-6.68757e-05	-2.47331e-06	30711
0.0999041	10.2111	1.84402	10.3763	-10.2367	79.2056	0.275606	-0.00896259	863917	27284.6	1	11	0.00454694	0.000438205	0	-0.000295762	0.0948396	0.017127	0.0963737	10.2367	2.72847e+07	1.51087e+08	1.53531e+08	-79.7633	0.0000000E+000	0.0000000E+000	0.0000000E+000	79.7633	0.0000000E+000	0.0000000E+000	0.0000000E+000	-79.7633	0.0000000E+000	0.0000000E+000	0.0000000E+000	-10.2367	0.0000000E+000	0.0000000E+000	0.0000000E+000	10.2367	5.53743	79.7633	1.74994e-05	-2.47015e-06	30750.7
0.0464052	10.8362	2.96287	11.2339	-15.2923	155.441	0.275607	-0.00214016	1.15755e+06	80519.6	1	11	0.00454533	0.000404607	0	6.32528e-06	0.0858641	0.0234773	0.0890159	15.2923	8.05196e+07	2.94486e+08	3.05296e+08	-74.7077	0.0000000E+000	0.0000000E+000	0.0000000E+000	74.7077	0.0000000E+000	0.0000000E+000	0.0000000E+000	-74.7077	0.0000000E+000	0.0000000E+000	0.0000000E+000	-15.2923	0.0000000E+000	0.0000000E+000	0.0000000E+000	15.2923	3.65732	74.7077	0.00020477	-5.89842e-07	128779
0.0215268	11.7989	5.29778	12.9337	-24.1804	319.672	0.275602	0.000727554	1.39556e+06	234148	1	11	0.00454556	0.000351452	0	9.03069e-05	0.0705337	0.0316701	0.0773175	24.1804	2.34148e+08	5.2148e+08	5.71635e+08	-65.8196	0.0000000E+000	0.0000000E+000	0.0000000E+000	65.8196	0.0000000E+000	0.0000000E+000	0.0000000E+000	-65.8196	0.0000000E+000	0.0000000E+000	0.0000000E+000	-24.1804	0.0000000E+000	0.0000000E+000	0.0000000E+000	24.1804	2.22714	65.8196	-8.88667e-05	2.00516e-07	378807
0.0100092	13.3022	9.31138	16.2373	-34.9916	772.964	0.275601	-0.000698882	1.70769e+06	561576	1	12	0.00454708	0.000280039	0	-0.0013306	0.050454	0.0353172	0.0615866	34.9916	5.61576e+08	8.02265e+08	9.79284e+08	-55.0084	0.0000000E+000	0.0000000E+000	0.0000000E+000	55.0084	0.0000000E+000	0.0000000E+000	0.0000000E+000	-55.0084	0.0000000E+000	0.0000000E+000	0.0000000E+000	-34.9916	0.0000000E+000	0.0000000E+000	0.0000000E+000	34.9916	1.42859	55.0084	-0.000893681	-1.92612e-07	394345