File: txt/17482_R279_UA653_SOC00_C01.mpt
EC-Lab ASCII FILE
Nb header lines : 63

Potentio Electrochemical Impedance Spectroscopy

Run on channel : 1 (SN 66354)
User :
CE vs. WE compliance from -10 V to 10 V
Electrode connection : standard
Potential control : Ewe
Ewe ctrl range : min = -10.00 V, max = 10.00 V
Safety Limits :
	Do not start on E overload
Acquisition started on : 09/15/2025 08:58:46.793
Loaded Setting File :  C:\Users\Celltest\OneDrive - store-dot.com\Documents\EC-Lab\Data\Gyutae\EIS_SOC0_C01.mpr
Saved on :
	File : 17482_C01.mpr
	Directory : C:\Users\Celltest\OneDrive - store-dot.com\Documents\EC-Lab\Data\Charmaine\R279\
	Host : 169.254.61.224
Device : VMP-3e (SN .003165)
Address : USB
EC-LAB for windows v11.62 (software)
Internet server v27.00 (firmware)
Command interpretor v12.03 (firmware)
Electrode material :
Initial state :
Electrolyte :
Comments :
Electrode surface area : 0.001 cm²
Characteristic mass : 0.001 g
Equivalent Weight : 0.000 g/eq.
Density : 0.000 g/cm3
Volume (V) : 0.001 cm³
Cycle Definition : Charge/Discharge alternance
Mode                Single sine
E (V)               0.0000
vs.                 Eoc
tE (h:m:s)          0:00:0.0000
record              0
dI                  0.000
unit dI             mA
dt (s)              0.000
fi                  100.000
unit fi             kHz
ff                  10.000
unit ff             mHz
Nd                  6
Points              per decade
spacing             Logarithmic
Va (mV)             5.0
pw                  0.10
Na                  2
corr                0
E range min (V)     -10.000
E range max (V)     10.000
I Range             Auto
Bandwidth           5
nc cycles           0
goto Ns'            0
nr cycles           0
inc. cycle          0

freq/Hz	Re(Z)/Ohm	-Im(Z)/Ohm	|Z|/Ohm	Phase(Z)/deg	time/s	<Ewe>/V	<I>/mA	Cs/µF	Cp/µF	cycle number	I Range	|Ewe|/V	|I|/A	Ns	(Q-Qo)/mA.h	Re(Y)/Ohm-1	Im(Y)/Ohm-1	|Y|/Ohm-1	Phase(Y)/deg	Re(C)/nF	Im(C)/nF	|C|/nF	Phase(C)/deg	Re(M)	Im(M)	|M|	Phase(M)/deg	Re(Permittivity)	Im(Permittivity)	|Permittivity|	Phase(Permittivity)/deg	Re(Resistivity)/Ohm.cm	Im(Resistivity)/Ohm.cm	|Resistivity|/Ohm.cm	Phase(Resistivity)/deg	Re(Conductivity)/mS/cm	Im(Conductivity)/mS/cm	|Conductivity|/mS/cm	Phase(Conductivity)/deg	Tan(Delta)	Loss Angle(Delta)/deg	dq/mA.h	Pwe/W	Rwe/Ohm
100004	1.3196	0.387029	1.37519	-16.346	1.86448	0.273886	0.0772796	4.11207	0.325704	1	9	0.00464091	0.00337474	0	1.10608e-05	0.69778	0.204653	0.727173	16.346	325.704	1110.51	1157.29	-73.654	0.0000000E+000	0.0000000E+000	0.0000000E+000	73.654	0.0000000E+000	0.0000000E+000	0.0000000E+000	-73.654	0.0000000E+000	0.0000000E+000	0.0000000E+000	-16.346	0.0000000E+000	0.0000000E+000	0.0000000E+000	16.346	3.40957	73.654	1.10608e-05	2.11658e-05	3544.1
46420.4	1.51922	0.471583	1.59073	-17.2449	3.02048	0.273899	0.0833334	7.27033	0.638966	1	9	0.00504763	0.00317316	0	4.5417e-05	0.600383	0.186366	0.628643	17.2449	638.966	2058.45	2155.34	-72.7551	0.0000000E+000	0.0000000E+000	0.0000000E+000	72.7551	0.0000000E+000	0.0000000E+000	0.0000000E+000	-72.7551	0.0000000E+000	0.0000000E+000	0.0000000E+000	-17.2449	0.0000000E+000	0.0000000E+000	0.0000000E+000	17.2449	3.22153	72.7551	1.94728e-05	2.28249e-05	3286.79
21544.7	1.76486	0.591264	1.86127	-18.5219	4.03548	0.273896	0.0808373	12.4939	1.26079	1	9	0.00512086	0.00275127	0	5.89315e-05	0.509438	0.170672	0.537267	18.5219	1260.79	3763.32	3968.9	-71.4781	0.0000000E+000	0.0000000E+000	0.0000000E+000	71.4781	0.0000000E+000	0.0000000E+000	0.0000000E+000	-71.4781	0.0000000E+000	0.0000000E+000	0.0000000E+000	-18.5219	0.0000000E+000	0.0000000E+000	0.0000000E+000	18.5219	2.9849	71.4781	9.42902e-06	2.2141e-05	3388.24
10002.2	2.05511	0.722341	2.17836	-19.3658	4.91049	0.273903	0.0796452	22.0283	2.42217	1	9	0.00496401	0.00227878	0	7.76517e-05	0.433087	0.152223	0.45906	19.3658	2422.17	6891.26	7304.54	-70.6342	0.0000000E+000	0.0000000E+000	0.0000000E+000	70.6342	0.0000000E+000	0.0000000E+000	0.0000000E+000	-70.6342	0.0000000E+000	0.0000000E+000	0.0000000E+000	-19.3658	0.0000000E+000	0.0000000E+000	0.0000000E+000	19.3658	2.84507	70.6342	9.03943e-06	2.18151e-05	3439.04
4641.49	2.39198	0.907148	2.55822	-20.769	5.75967	0.273924	0.134111	37.7994	4.75299	1	9	0.00457887	0.00178987	0	9.61851e-05	0.365496	0.138613	0.390897	20.769	4752.99	12532.7	13403.7	-69.231	0.0000000E+000	0.0000000E+000	0.0000000E+000	69.231	0.0000000E+000	0.0000000E+000	0.0000000E+000	-69.231	0.0000000E+000	0.0000000E+000	0.0000000E+000	-20.769	0.0000000E+000	0.0000000E+000	0.0000000E+000	20.769	2.63681	69.231	1.76204e-05	3.67363e-05	2042.52
2155.69	2.79929	1.19059	3.04196	-23.0409	6.91671	0.273914	0.135154	62.0115	9.49922	1	9	0.00498443	0.00163856	0	0.00013469	0.302511	0.128663	0.328735	23.0409	9499.22	22334.4	24270.6	-66.9591	0.0000000E+000	0.0000000E+000	0.0000000E+000	66.9591	0.0000000E+000	0.0000000E+000	0.0000000E+000	-66.9591	0.0000000E+000	0.0000000E+000	0.0000000E+000	-23.0409	0.0000000E+000	0.0000000E+000	0.0000000E+000	23.0409	2.35118	66.9591	2.14026e-05	3.70206e-05	2026.68
1000.32	3.33467	1.66822	3.72867	-26.5773	8.10771	0.273853	0.00537195	95.3733	19.091	1	10	0.00504885	0.00135406	0	0.000160774	0.239853	0.11999	0.268192	26.5773	19091	38161.5	42670.5	-63.4227	0.0000000E+000	0.0000000E+000	0.0000000E+000	63.4227	0.0000000E+000	0.0000000E+000	0.0000000E+000	-63.4227	0.0000000E+000	0.0000000E+000	0.0000000E+000	-26.5773	0.0000000E+000	0.0000000E+000	0.0000000E+000	26.5773	1.99893	63.4227	1.017e-05	1.47113e-06	50978.4
463.961	4.07621	2.47371	4.76809	-31.2521	9.0422	0.273859	0.0050328	138.672	37.3248	1	10	0.00498936	0.0010464	0	0.000162731	0.179294	0.108808	0.209727	31.2521	37324.9	61504.4	71943.9	-58.7479	0.0000000E+000	0.0000000E+000	0.0000000E+000	58.7479	0.0000000E+000	0.0000000E+000	0.0000000E+000	-58.7479	0.0000000E+000	0.0000000E+000	0.0000000E+000	-31.2521	0.0000000E+000	0.0000000E+000	0.0000000E+000	31.2521	1.64781	58.7479	3.02026e-07	1.37828e-06	54414.9
215.345	5.30606	3.72603	6.48364	-35.0773	9.97643	0.273856	0.00431349	198.354	65.508	1	10	0.00495189	0.000763751	0	0.000164181	0.126222	0.0886356	0.154234	35.0773	65508	93286.9	113990	-54.9227	0.0000000E+000	0.0000000E+000	0.0000000E+000	54.9227	0.0000000E+000	0.0000000E+000	0.0000000E+000	-54.9227	0.0000000E+000	0.0000000E+000	0.0000000E+000	-35.0773	0.0000000E+000	0.0000000E+000	0.0000000E+000	35.0773	1.42405	54.9227	1.07654e-06	1.18128e-06	63488.4
100.032	7.49644	5.35284	9.21138	-35.5288	10.9077	0.27385	0.00392215	297.233	100.373	1	10	0.00494088	0.000536388	0	0.000165487	0.0883498	0.0630862	0.108561	35.5288	100373	140568	172725	-54.4712	0.0000000E+000	0.0000000E+000	0.0000000E+000	54.4712	0.0000000E+000	0.0000000E+000	0.0000000E+000	-54.4712	0.0000000E+000	0.0000000E+000	0.0000000E+000	-35.5288	0.0000000E+000	0.0000000E+000	0.0000000E+000	35.5288	1.40046	54.4712	6.92093e-07	1.07408e-06	69821.2
46.4415	11.1028	6.67901	12.9569	-31.0295	11.8415	0.273849	0.000275339	513.1	136.341	1	10	0.00493861	0.000381157	0	0.000166913	0.0661349	0.0397843	0.0771791	31.0295	136341	226644	264492	-58.9705	0.0000000E+000	0.0000000E+000	0.0000000E+000	58.9705	0.0000000E+000	0.0000000E+000	0.0000000E+000	-58.9705	0.0000000E+000	0.0000000E+000	0.0000000E+000	-31.0295	0.0000000E+000	0.0000000E+000	0.0000000E+000	31.0295	1.66234	58.9705	4.31283e-07	7.54014e-08	994587
21.5517	15.5354	6.32431	16.7734	-22.1507	12.9673	0.273885	0.00653952	1167.68	166.001	1	11	0.00494366	0.000294732	0	0.000167775	0.0552181	0.0224787	0.0596182	22.1507	166001	407774	440268	-67.8493	0.0000000E+000	0.0000000E+000	0.0000000E+000	67.8493	0.0000000E+000	0.0000000E+000	0.0000000E+000	-67.8493	0.0000000E+000	0.0000000E+000	0.0000000E+000	-22.1507	0.0000000E+000	0.0000000E+000	0.0000000E+000	22.1507	2.45646	67.8493	8.50395e-07	1.79108e-06	41881.4
10.0032	18.5296	4.57643	19.0864	-13.8732	13.9137	0.273884	0.00707521	3476.6	199.875	1	11	0.00492533	0.000258054	0	0.000170479	0.0508649	0.0125626	0.0523933	13.8732	199875	809281	833598	-76.1268	0.0000000E+000	0.0000000E+000	0.0000000E+000	76.1268	0.0000000E+000	0.0000000E+000	0.0000000E+000	-76.1268	0.0000000E+000	0.0000000E+000	0.0000000E+000	-13.8732	0.0000000E+000	0.0000000E+000	0.0000000E+000	13.8732	4.04893	76.1268	1.35417e-06	1.93778e-06	38710.3
4.63925	20.0982	2.90008	20.3064	-8.21083	14.7733	0.273899	0.0077727	11829.4	241.277	1	11	0.00492995	0.000242778	0	0.000170772	0.0487408	0.00703305	0.0492456	8.21083	241277	1.67211e+06	1.68943e+06	-81.7892	0.0000000E+000	0.0000000E+000	0.0000000E+000	81.7892	0.0000000E+000	0.0000000E+000	0.0000000E+000	-81.7892	0.0000000E+000	0.0000000E+000	0.0000000E+000	-8.21083	0.0000000E+000	0.0000000E+000	0.0000000E+000	8.21083	6.93024	81.7892	1.52358e-06	2.12894e-06	35238.6
2.15577	20.9248	1.99343	21.0195	-5.44194	16.4988	0.273911	0.00957186	37035.4	333.099	1	11	0.00493607	0.000234833	0	0.000178217	0.0473604	0.00451186	0.0475748	5.44194	333099	3.4965e+06	3.51233e+06	-84.5581	0.0000000E+000	0.0000000E+000	0.0000000E+000	84.5581	0.0000000E+000	0.0000000E+000	0.0000000E+000	-84.5581	0.0000000E+000	0.0000000E+000	0.0000000E+000	-5.44194	0.0000000E+000	0.0000000E+000	0.0000000E+000	5.44194	10.4969	84.5581	1.91743e-06	2.62183e-06	28616.2
1.00006	21.532	1.58986	21.5906	-4.22287	21.1622	0.273913	0.00834976	100100	542.774	1	12	0.00493667	0.000228648	0	0.000177516	0.0461906	0.00341057	0.0463163	4.22287	542773	7.35099e+06	7.371e+06	-85.7771	0.0000000E+000	0.0000000E+000	0.0000000E+000	85.7771	0.0000000E+000	0.0000000E+000	0.0000000E+000	-85.7771	0.0000000E+000	0.0000000E+000	0.0000000E+000	-4.22287	0.0000000E+000	0.0000000E+000	0.0000000E+000	4.22287	13.5434	85.7771	1.24756e-06	2.28711e-06	32804.9
0.464091	22.1449	1.44027	22.1916	-3.7212	28.8486	0.273908	0.0063989	238107	1002.96	1	12	0.00493797	0.000222515	0	0.000206591	0.044967	0.0029246	0.045062	3.7212	1.00296e+06	1.5421e+07	1.54535e+07	-86.2788	0.0000000E+000	0.0000000E+000	0.0000000E+000	86.2788	0.0000000E+000	0.0000000E+000	0.0000000E+000	-86.2788	0.0000000E+000	0.0000000E+000	0.0000000E+000	-3.7212	0.0000000E+000	0.0000000E+000	0.0000000E+000	3.7212	15.3754	86.2788	2.07266e-05	1.75271e-06	42805.6
0.215268	22.7738	1.48274	22.822	-3.72513	45.3269	0.273908	0.00554291	498626	2104.75	1	12	0.00493673	0.000216315	0	0.000272527	0.0437248	0.00284682	0.0438174	3.72513	2.10475e+06	3.23273e+07	3.23957e+07	-86.2749	0.0000000E+000	0.0000000E+000	0.0000000E+000	86.2749	0.0000000E+000	0.0000000E+000	0.0000000E+000	-86.2749	0.0000000E+000	0.0000000E+000	0.0000000E+000	-3.72513	0.0000000E+000	0.0000000E+000	0.0000000E+000	3.72513	15.3592	86.2749	3.4141e-05	1.51825e-06	49415.9
0.0999041	23.3822	1.91404	23.4604	-4.67973	80.7334	0.273904	0.0049619	832312	5540.09	1	12	0.00493754	0.000210463	0	0.000289065	0.0424829	0.0034776	0.042625	4.67973	5.54009e+06	6.76786e+07	6.7905e+07	-85.3203	0.0000000E+000	0.0000000E+000	0.0000000E+000	85.3203	0.0000000E+000	0.0000000E+000	0.0000000E+000	-85.3203	0.0000000E+000	0.0000000E+000	0.0000000E+000	-4.67973	0.0000000E+000	0.0000000E+000	0.0000000E+000	4.67973	12.2162	85.3203	-5.95752e-06	1.35908e-06	55201.4
0.0464052	24.091	2.84949	24.259	-6.74562	156.97	0.273906	0.00170394	1.20361e+06	16606.4	1	12	0.00493452	0.00020341	0	0.000159271	0.0409365	0.00484198	0.0412218	6.74562	1.66064e+07	1.40399e+08	1.41378e+08	-83.2544	0.0000000E+000	0.0000000E+000	0.0000000E+000	83.2544	0.0000000E+000	0.0000000E+000	0.0000000E+000	-83.2544	0.0000000E+000	0.0000000E+000	0.0000000E+000	-6.74562	0.0000000E+000	0.0000000E+000	0.0000000E+000	6.74562	8.4545	83.2544	-8.90653e-05	4.66721e-07	160748
0.0215268	25.2697	4.97689	25.7552	-11.1418	321.199	0.273897	-0.00196435	1.48554e+06	55471.5	1	12	0.00493588	0.000191646	0	4.79749e-05	0.0380953	0.0075029	0.0388272	11.1418	5.54715e+07	2.81652e+08	2.87063e+08	-78.8582	0.0000000E+000	0.0000000E+000	0.0000000E+000	78.8582	0.0000000E+000	0.0000000E+000	0.0000000E+000	-78.8582	0.0000000E+000	0.0000000E+000	0.0000000E+000	-11.1418	0.0000000E+000	0.0000000E+000	0.0000000E+000	11.1418	5.07742	78.8582	-1.52183e-05	-5.38028e-07	139434
0.0100092	26.8765	8.61299	28.2229	-17.7688	674.415	0.273899	-0.00130637	1.84616e+06	171939	1	12	0.00493742	0.000174944	0	0.000649538	0.033742	0.0108131	0.0354322	17.7688	1.71939e+08	5.36528e+08	5.63405e+08	-72.2312	0.0000000E+000	0.0000000E+000	0.0000000E+000	72.2312	0.0000000E+000	0.0000000E+000	0.0000000E+000	-72.2312	0.0000000E+000	0.0000000E+000	0.0000000E+000	-17.7688	0.0000000E+000	0.0000000E+000	0.0000000E+000	17.7688	3.12046	72.2312	0.000420744	-3.57814e-07	209664