File: txt/17488_R279_UA654_SOC00_C06.mpt
EC-Lab ASCII FILE
Nb header lines : 63

Potentio Electrochemical Impedance Spectroscopy

Run on channel : 6 (SN 65795)
User :
CE vs. WE compliance from -10 V to 10 V
Electrode connection : standard
Potential control : Ewe
Ewe ctrl range : min = -10.00 V, max = 10.00 V
Safety Limits :
	Do not start on E overload
Acquisition started on : 09/15/2025 08:59:57.177
Loaded Setting File :  C:\Users\Celltest\OneDrive - store-dot.com\Documents\EC-Lab\Data\Charmaine\R279\17383.mps
Saved on :
	File : 17488_C06.mpr
	Directory : C:\Users\Celltest\OneDrive - store-dot.com\Documents\EC-Lab\Data\Charmaine\R279\
	Host : 169.254.61.224
Device : VMP-3e (SN .003165)
Address : USB
EC-LAB for windows v11.62 (software)
Internet server v27.00 (firmware)
Command interpretor v12.03 (firmware)
Electrode material :
Initial state :
Electrolyte :
Comments :
Electrode surface area : 0.001 cm²
Characteristic mass : 0.001 g
Equivalent Weight : 0.000 g/eq.
Density : 0.000 g/cm3
Volume (V) : 0.001 cm³
Cycle Definition : Charge/Discharge alternance
Mode                Single sine
E (V)               0.0000
vs.                 Eoc
tE (h:m:s)          0:00:0.0000
record              0
dI                  0.000
unit dI             mA
dt (s)              0.000
fi                  100.000
unit fi             kHz
ff                  10.000
unit ff             mHz
Nd                  6
Points              per decade
spacing             Logarithmic
Va (mV)             5.0
pw                  0.10
Na                  2
corr                0
E range min (V)     -10.000
E range max (V)     10.000
I Range             Auto
Bandwidth           5
nc cycles           0
goto Ns'            0
nr cycles           0
inc. cycle          0

freq/Hz	Re(Z)/Ohm	-Im(Z)/Ohm	|Z|/Ohm	Phase(Z)/deg	time/s	<Ewe>/V	<I>/mA	Cs/µF	Cp/µF	cycle number	I Range	|Ewe|/V	|I|/A	Ns	(Q-Qo)/mA.h	Re(Y)/Ohm-1	Im(Y)/Ohm-1	|Y|/Ohm-1	Phase(Y)/deg	Re(C)/nF	Im(C)/nF	|C|/nF	Phase(C)/deg	Re(M)	Im(M)	|M|	Phase(M)/deg	Re(Permittivity)	Im(Permittivity)	|Permittivity|	Phase(Permittivity)/deg	Re(Resistivity)/Ohm.cm	Im(Resistivity)/Ohm.cm	|Resistivity|/Ohm.cm	Phase(Resistivity)/deg	Re(Conductivity)/mS/cm	Im(Conductivity)/mS/cm	|Conductivity|/mS/cm	Phase(Conductivity)/deg	Tan(Delta)	Loss Angle(Delta)/deg	dq/mA.h	Pwe/W	Rwe/Ohm
100004	1.398	0.140994	1.40509	-5.75905	1.9185	0.276784	0.0576747	11.2876	0.113657	1	9	0.00384549	0.00273682	0	3.78934e-06	0.708104	0.0714153	0.711696	5.75905	113.657	1126.94	1132.66	-84.241	0.0000000E+000	0.0000000E+000	0.0000000E+000	84.241	0.0000000E+000	0.0000000E+000	0.0000000E+000	-84.241	0.0000000E+000	0.0000000E+000	0.0000000E+000	-5.75905	0.0000000E+000	0.0000000E+000	0.0000000E+000	5.75905	9.9153	84.241	3.78934e-06	1.59634e-05	4799.05
46420.4	1.45457	0.315382	1.48836	-12.2336	3.0745	0.2767	0.0263475	10.8711	0.488124	1	9	0.00511922	0.00343949	0	-1.72476e-05	0.656621	0.14237	0.671878	12.2336	488.124	2251.26	2303.57	-77.7664	0.0000000E+000	0.0000000E+000	0.0000000E+000	77.7664	0.0000000E+000	0.0000000E+000	0.0000000E+000	-77.7664	0.0000000E+000	0.0000000E+000	0.0000000E+000	-12.2336	0.0000000E+000	0.0000000E+000	0.0000000E+000	12.2336	4.61208	77.7664	-3.16434e-05	7.29035e-06	10501.9
21544.7	1.61397	0.411223	1.66554	-14.2942	3.94849	0.276692	0.0218962	17.964	1.09508	1	9	0.00531666	0.00319216	0	-6.57001e-06	0.581818	0.148241	0.600406	14.2942	1095.08	4298.01	4435.32	-75.7058	0.0000000E+000	0.0000000E+000	0.0000000E+000	75.7058	0.0000000E+000	0.0000000E+000	0.0000000E+000	-75.7058	0.0000000E+000	0.0000000E+000	0.0000000E+000	-14.2942	0.0000000E+000	0.0000000E+000	0.0000000E+000	14.2942	3.92482	75.7058	4.79936e-06	6.05849e-06	12636.5
10002.2	1.81089	0.535056	1.88828	-16.4606	4.68149	0.276691	0.0259378	29.7389	2.38775	1	9	0.00529513	0.00280421	0	-1.60281e-06	0.507877	0.15006	0.529582	16.4606	2387.75	8081.31	8426.68	-73.5394	0.0000000E+000	0.0000000E+000	0.0000000E+000	73.5394	0.0000000E+000	0.0000000E+000	0.0000000E+000	-73.5394	0.0000000E+000	0.0000000E+000	0.0000000E+000	-16.4606	0.0000000E+000	0.0000000E+000	0.0000000E+000	16.4606	3.38449	73.5394	7.50963e-07	7.17675e-06	10667.5
4641.49	2.07573	0.709617	2.19368	-18.8737	5.53067	0.27668	0.0418807	48.3214	5.0564	1	9	0.00517124	0.00235734	0	2.51102e-06	0.431346	0.147461	0.455855	18.8737	5056.4	14790.7	15631.1	-71.1263	0.0000000E+000	0.0000000E+000	0.0000000E+000	71.1263	0.0000000E+000	0.0000000E+000	0.0000000E+000	-71.1263	0.0000000E+000	0.0000000E+000	0.0000000E+000	-18.8737	0.0000000E+000	0.0000000E+000	0.0000000E+000	18.8737	2.92515	71.1263	5.78391e-06	1.15876e-05	6606.38
2155.69	2.3928	0.946244	2.5731	-21.5766	6.46467	0.276694	0.0502061	78.0244	10.5517	1	9	0.00505051	0.00196281	0	1.37214e-05	0.361403	0.142918	0.388636	21.5766	10551.7	26682.4	28693	-68.4234	0.0000000E+000	0.0000000E+000	0.0000000E+000	68.4234	0.0000000E+000	0.0000000E+000	0.0000000E+000	-68.4234	0.0000000E+000	0.0000000E+000	0.0000000E+000	-21.5766	0.0000000E+000	0.0000000E+000	0.0000000E+000	21.5766	2.52873	68.4234	4.14393e-06	1.38917e-05	5511.16
1000.32	2.78822	1.35266	3.09901	-25.8795	7.40071	0.276684	0.044451	117.623	22.409	1	9	0.00499117	0.00161057	0	2.53796e-05	0.290323	0.140845	0.322684	25.8795	22409	46191.5	51340.2	-64.1205	0.0000000E+000	0.0000000E+000	0.0000000E+000	64.1205	0.0000000E+000	0.0000000E+000	0.0000000E+000	-64.1205	0.0000000E+000	0.0000000E+000	0.0000000E+000	-25.8795	0.0000000E+000	0.0000000E+000	0.0000000E+000	25.8795	2.06129	64.1205	5.20469e-06	1.22989e-05	6224.48
463.961	3.34343	2.06361	3.929	-31.6834	8.5892	0.276686	-0.00924811	166.231	45.8567	1	10	0.00500619	0.00127416	0	2.57158e-05	0.216585	0.133679	0.254518	31.6834	45856.7	74296.4	87308.6	-58.3166	0.0000000E+000	0.0000000E+000	0.0000000E+000	58.3166	0.0000000E+000	0.0000000E+000	0.0000000E+000	-58.3166	0.0000000E+000	0.0000000E+000	0.0000000E+000	-31.6834	0.0000000E+000	0.0000000E+000	0.0000000E+000	31.6834	1.62019	58.3166	-1.68056e-06	-2.55882e-06	29918.1
215.345	4.32134	3.26891	5.41846	-37.106	9.52343	0.276685	-0.00942885	226.091	82.2882	1	10	0.00496631	0.000916553	0	2.30826e-05	0.147186	0.11134	0.184554	37.106	82288.2	108781	136399	-52.894	0.0000000E+000	0.0000000E+000	0.0000000E+000	52.894	0.0000000E+000	0.0000000E+000	0.0000000E+000	-52.894	0.0000000E+000	0.0000000E+000	0.0000000E+000	-37.106	0.0000000E+000	0.0000000E+000	0.0000000E+000	37.106	1.32195	52.894	-9.52411e-07	-2.60882e-06	29344.5
100.032	6.21779	4.92761	7.93361	-38.3969	10.4547	0.27669	-0.00895746	322.883	124.559	1	10	0.0049432	0.000623071	0	2.1289e-05	0.0987857	0.0782878	0.126046	38.3969	124559	157172	200544	-51.6031	0.0000000E+000	0.0000000E+000	0.0000000E+000	51.6031	0.0000000E+000	0.0000000E+000	0.0000000E+000	-51.6031	0.0000000E+000	0.0000000E+000	0.0000000E+000	-38.3969	0.0000000E+000	0.0000000E+000	0.0000000E+000	38.3969	1.26183	51.6031	-8.33749e-07	-2.47844e-06	30889.3
46.4415	9.50881	6.40946	11.4673	-33.9821	11.3885	0.27669	-0.0106214	534.678	167.037	1	10	0.0049354	0.000430389	0	1.95325e-05	0.0723111	0.0487416	0.0872046	33.9821	167037	247810	298850	-56.0179	0.0000000E+000	0.0000000E+000	0.0000000E+000	56.0179	0.0000000E+000	0.0000000E+000	0.0000000E+000	-56.0179	0.0000000E+000	0.0000000E+000	0.0000000E+000	-33.9821	0.0000000E+000	0.0000000E+000	0.0000000E+000	33.9821	1.48356	56.0179	-9.43938e-07	-2.93882e-06	26050.3
21.5517	13.7469	6.45903	15.1887	-25.1667	12.2734	0.276684	-0.0145249	1143.33	206.759	1	10	0.00493669	0.000325024	0	1.7568e-05	0.0595887	0.027998	0.0658385	25.1667	206759	440050	486203	-64.8333	0.0000000E+000	0.0000000E+000	0.0000000E+000	64.8333	0.0000000E+000	0.0000000E+000	0.0000000E+000	-64.8333	0.0000000E+000	0.0000000E+000	0.0000000E+000	-25.1667	0.0000000E+000	0.0000000E+000	0.0000000E+000	25.1667	2.12832	64.8333	-4.70718e-07	-4.01882e-06	19048.9
10.0032	17.1631	4.93686	17.859	-16.0476	13.4787	0.276708	-0.00650326	3222.78	246.273	1	11	0.00493071	0.000276091	0	1.22617e-05	0.0538122	0.0154787	0.0559942	16.0476	246273	856174	890889	-73.9524	0.0000000E+000	0.0000000E+000	0.0000000E+000	73.9524	0.0000000E+000	0.0000000E+000	0.0000000E+000	-73.9524	0.0000000E+000	0.0000000E+000	0.0000000E+000	-16.0476	0.0000000E+000	0.0000000E+000	0.0000000E+000	16.0476	3.47652	73.9524	-2.86055e-06	-1.7995e-06	42549.1
4.63925	18.9621	3.41035	19.2664	-10.1957	14.3383	0.276703	-0.00621619	10059.4	315.189	1	11	0.00493036	0.000255905	0	1.03559e-05	0.0510843	0.00918754	0.0519039	10.1957	315189	1.75251e+06	1.78062e+06	-79.8043	0.0000000E+000	0.0000000E+000	0.0000000E+000	79.8043	0.0000000E+000	0.0000000E+000	0.0000000E+000	-79.8043	0.0000000E+000	0.0000000E+000	0.0000000E+000	-10.1957	0.0000000E+000	0.0000000E+000	0.0000000E+000	10.1957	5.56017	79.8043	-4.2703e-06	-1.72004e-06	44513.2
2.15577	20.0207	2.51313	20.1778	-7.15474	16.0658	0.276714	-0.00526647	29376.7	455.708	1	11	0.00493752	0.000244701	0	1.16882e-05	0.0491736	0.0061726	0.0495595	7.15474	455708	3.63036e+06	3.65885e+06	-82.8453	0.0000000E+000	0.0000000E+000	0.0000000E+000	82.8453	0.0000000E+000	0.0000000E+000	0.0000000E+000	-82.8453	0.0000000E+000	0.0000000E+000	0.0000000E+000	-7.15474	0.0000000E+000	0.0000000E+000	0.0000000E+000	7.15474	7.96642	82.8453	3.31422e-06	-1.45731e-06	52542.7
1.00006	20.8861	2.18819	21.0004	-5.98092	20.7293	0.276718	-0.00409685	72729.1	789.624	1	12	0.0049372	0.0002351	0	8.82965e-06	0.0473589	0.00496167	0.0476181	5.98092	789625	7.53692e+06	7.57817e+06	-84.0191	0.0000000E+000	0.0000000E+000	0.0000000E+000	84.0191	0.0000000E+000	0.0000000E+000	0.0000000E+000	-84.0191	0.0000000E+000	0.0000000E+000	0.0000000E+000	-5.98092	0.0000000E+000	0.0000000E+000	0.0000000E+000	5.98092	9.54494	84.0191	-5.71986e-06	-1.13367e-06	67544.1
0.464091	21.8062	2.12523	21.9095	-5.56646	28.4145	0.276718	-0.00362954	161366	1518.3	1	12	0.00493503	0.000225246	0	-2.29914e-05	0.045427	0.00442731	0.0456422	5.56646	1.5183e+06	1.55787e+07	1.56525e+07	-84.4335	0.0000000E+000	0.0000000E+000	0.0000000E+000	84.4335	0.0000000E+000	0.0000000E+000	0.0000000E+000	-84.4335	0.0000000E+000	0.0000000E+000	0.0000000E+000	-5.56646	0.0000000E+000	0.0000000E+000	0.0000000E+000	5.56646	10.2606	84.4335	-1.83765e-05	-1.00436e-06	76240.5
0.215268	22.7908	2.27196	22.9038	-5.69287	44.8928	0.276714	-0.00476	325417	3202.05	1	12	0.00493746	0.000215574	0	-3.96445e-05	0.0434456	0.00433099	0.043661	5.69287	3.20205e+06	3.21209e+07	3.22801e+07	-84.3071	0.0000000E+000	0.0000000E+000	0.0000000E+000	84.3071	0.0000000E+000	0.0000000E+000	0.0000000E+000	-84.3071	0.0000000E+000	0.0000000E+000	0.0000000E+000	-5.69287	0.0000000E+000	0.0000000E+000	0.0000000E+000	5.69287	10.0313	84.3071	-2.27288e-06	-1.31716e-06	58133.3
0.0999041	23.6853	2.57488	23.8248	-6.20439	80.2983	0.276713	-0.00368875	618700	7226.61	1	12	0.0049377	0.00020725	0	1.32375e-05	0.0417272	0.00453626	0.0419731	6.20439	7.22662e+06	6.64747e+07	6.68663e+07	-83.7956	0.0000000E+000	0.0000000E+000	0.0000000E+000	83.7956	0.0000000E+000	0.0000000E+000	0.0000000E+000	-83.7956	0.0000000E+000	0.0000000E+000	0.0000000E+000	-6.20439	0.0000000E+000	0.0000000E+000	0.0000000E+000	6.20439	9.19859	83.7956	3.54752e-05	-1.02073e-06	75015.3
0.0464052	24.6865	3.50856	24.9346	-8.08898	156.535	0.276709	-0.000822548	977517	19354.4	1	12	0.00493567	0.000197945	0	5.92725e-05	0.0397059	0.0056432	0.040105	8.08898	1.93544e+07	1.36179e+08	1.37547e+08	-81.911	0.0000000E+000	0.0000000E+000	0.0000000E+000	81.911	0.0000000E+000	0.0000000E+000	0.0000000E+000	-81.911	0.0000000E+000	0.0000000E+000	0.0000000E+000	-8.08898	0.0000000E+000	0.0000000E+000	0.0000000E+000	8.08898	7.03607	81.911	8.02759e-06	-2.27607e-07	336405
0.0215268	25.7703	5.5917	26.3699	-12.2424	320.765	0.276717	-0.000280393	1.3222e+06	59452	1	12	0.004937	0.000187221	0	-0.000257427	0.0370596	0.00804129	0.037922	12.2424	5.9452e+07	2.73994e+08	2.8037e+08	-77.7576	0.0000000E+000	0.0000000E+000	0.0000000E+000	77.7576	0.0000000E+000	0.0000000E+000	0.0000000E+000	-77.7576	0.0000000E+000	0.0000000E+000	0.0000000E+000	-12.2424	0.0000000E+000	0.0000000E+000	0.0000000E+000	12.2424	4.60866	77.7576	-0.000231771	-7.75895e-08	986892
0.0100092	27.9181	9.4726	29.4813	-18.7421	673.981	0.276708	-0.00218405	1.67862e+06	173300	1	12	0.004936	0.000167428	0	-0.00103407	0.0321212	0.0108987	0.0339198	18.7421	1.733e+08	5.10756e+08	5.39356e+08	-71.2579	0.0000000E+000	0.0000000E+000	0.0000000E+000	71.2579	0.0000000E+000	0.0000000E+000	0.0000000E+000	-71.2579	0.0000000E+000	0.0000000E+000	0.0000000E+000	-18.7421	0.0000000E+000	0.0000000E+000	0.0000000E+000	18.7421	2.94724	71.2579	-0.000395202	-6.04344e-07	126695