File: txt/17486_R279_UA653_SOC00_C01.mpt
EC-Lab ASCII FILE
Nb header lines : 63

Potentio Electrochemical Impedance Spectroscopy

Run on channel : 1 (SN 66354)
User :
CE vs. WE compliance from -10 V to 10 V
Electrode connection : standard
Potential control : Ewe
Ewe ctrl range : min = -10.00 V, max = 10.00 V
Safety Limits :
	Do not start on E overload
Acquisition started on : 09/15/2025 10:08:03.148
Loaded Setting File :  C:\Users\Celltest\OneDrive - store-dot.com\Documents\EC-Lab\Data\Gyutae\EIS_SOC0_C01.mpr
Saved on :
	File : 17486_C01.mpr
	Directory : C:\Users\Celltest\OneDrive - store-dot.com\Documents\EC-Lab\Data\Charmaine\R279\
	Host : 169.254.61.224
Device : VMP-3e (SN .003165)
Address : USB
EC-LAB for windows v11.62 (software)
Internet server v27.00 (firmware)
Command interpretor v12.03 (firmware)
Electrode material :
Initial state :
Electrolyte :
Comments :
Electrode surface area : 0.001 cm²
Characteristic mass : 0.001 g
Equivalent Weight : 0.000 g/eq.
Density : 0.000 g/cm3
Volume (V) : 0.001 cm³
Cycle Definition : Charge/Discharge alternance
Mode                Single sine
E (V)               0.0000
vs.                 Eoc
tE (h:m:s)          0:00:0.0000
record              0
dI                  0.000
unit dI             mA
dt (s)              0.000
fi                  100.000
unit fi             kHz
ff                  10.000
unit ff             mHz
Nd                  6
Points              per decade
spacing             Logarithmic
Va (mV)             5.0
pw                  0.10
Na                  2
corr                0
E range min (V)     -10.000
E range max (V)     10.000
I Range             Auto
Bandwidth           5
nc cycles           0
goto Ns'            0
nr cycles           0
inc. cycle          0

freq/Hz	Re(Z)/Ohm	-Im(Z)/Ohm	|Z|/Ohm	Phase(Z)/deg	time/s	<Ewe>/V	<I>/mA	Cs/µF	Cp/µF	cycle number	I Range	|Ewe|/V	|I|/A	Ns	(Q-Qo)/mA.h	Re(Y)/Ohm-1	Im(Y)/Ohm-1	|Y|/Ohm-1	Phase(Y)/deg	Re(C)/nF	Im(C)/nF	|C|/nF	Phase(C)/deg	Re(M)	Im(M)	|M|	Phase(M)/deg	Re(Permittivity)	Im(Permittivity)	|Permittivity|	Phase(Permittivity)/deg	Re(Resistivity)/Ohm.cm	Im(Resistivity)/Ohm.cm	|Resistivity|/Ohm.cm	Phase(Resistivity)/deg	Re(Conductivity)/mS/cm	Im(Conductivity)/mS/cm	|Conductivity|/mS/cm	Phase(Conductivity)/deg	Tan(Delta)	Loss Angle(Delta)/deg	dq/mA.h	Pwe/W	Rwe/Ohm
100004	1.11163	0.249481	1.13928	-12.6491	2.06749	0.254312	0.0730326	6.37921	0.305898	1	9	0.00470592	0.00413059	0	3.8929e-06	0.85644	0.192208	0.877744	12.6491	305.898	1363.02	1396.92	-77.3509	0.0000000E+000	0.0000000E+000	0.0000000E+000	77.3509	0.0000000E+000	0.0000000E+000	0.0000000E+000	-77.3509	0.0000000E+000	0.0000000E+000	0.0000000E+000	-12.6491	0.0000000E+000	0.0000000E+000	0.0000000E+000	12.6491	4.45579	77.3509	3.8929e-06	1.8573e-05	3482.16
46420.4	1.23582	0.287411	1.2688	-13.0924	3.2245	0.254307	0.0729208	11.9291	0.612107	1	9	0.0050492	0.0039795	0	4.15606e-05	0.767659	0.178532	0.788145	13.0924	612.107	2631.96	2702.2	-76.9076	0.0000000E+000	0.0000000E+000	0.0000000E+000	76.9076	0.0000000E+000	0.0000000E+000	0.0000000E+000	-76.9076	0.0000000E+000	0.0000000E+000	0.0000000E+000	-13.0924	0.0000000E+000	0.0000000E+000	0.0000000E+000	13.0924	4.29984	76.9076	1.8163e-05	1.85443e-05	3487.44
21544.7	1.37659	0.350529	1.42052	-14.2859	4.24049	0.254314	0.0690464	21.0744	1.28325	1	9	0.00532762	0.00375047	0	6.30556e-05	0.682198	0.173712	0.703968	14.2859	1283.25	5039.54	5200.35	-75.7141	0.0000000E+000	0.0000000E+000	0.0000000E+000	75.7141	0.0000000E+000	0.0000000E+000	0.0000000E+000	-75.7141	0.0000000E+000	0.0000000E+000	0.0000000E+000	-14.2859	0.0000000E+000	0.0000000E+000	0.0000000E+000	14.2859	3.92718	75.7141	1.62095e-05	1.75595e-05	3683.23
10002.2	1.53919	0.433635	1.59911	-15.7341	5.11548	0.254308	0.0753423	36.6943	2.69831	1	9	0.0049281	0.00308178	0	8.25156e-05	0.601917	0.169578	0.625349	15.7341	2698.31	9577.68	9950.52	-74.2659	0.0000000E+000	0.0000000E+000	0.0000000E+000	74.2659	0.0000000E+000	0.0000000E+000	0.0000000E+000	-74.2659	0.0000000E+000	0.0000000E+000	0.0000000E+000	-15.7341	0.0000000E+000	0.0000000E+000	0.0000000E+000	15.7341	3.54951	74.2659	7.73165e-06	1.91602e-05	3375.37
4641.49	1.73648	0.568648	1.82722	-18.1322	6.18771	0.254287	0.092647	60.3003	5.84017	1	9	0.00499446	0.00273337	0	8.85427e-05	0.520103	0.170319	0.54728	18.1322	5840.18	17834.1	18766	-71.8678	0.0000000E+000	0.0000000E+000	0.0000000E+000	71.8678	0.0000000E+000	0.0000000E+000	0.0000000E+000	-71.8678	0.0000000E+000	0.0000000E+000	0.0000000E+000	-18.1322	0.0000000E+000	0.0000000E+000	0.0000000E+000	18.1322	3.0537	71.8678	1.36283e-05	2.35589e-05	2744.69
2155.69	1.96946	0.788167	2.12131	-21.811	7.12167	0.254289	0.0973969	93.6733	12.9313	1	9	0.00490208	0.00231087	0	0.000110377	0.43766	0.175149	0.471406	21.811	12931.3	32312.5	34804	-68.189	0.0000000E+000	0.0000000E+000	0.0000000E+000	68.189	0.0000000E+000	0.0000000E+000	0.0000000E+000	-68.189	0.0000000E+000	0.0000000E+000	0.0000000E+000	-21.811	0.0000000E+000	0.0000000E+000	0.0000000E+000	21.811	2.49878	68.189	9.31327e-06	2.4767e-05	2610.85
1000.32	2.28333	1.17308	2.56705	-27.1922	8.0577	0.254286	0.0926097	135.629	28.3231	1	9	0.00483616	0.00188394	0	0.000132573	0.346499	0.178016	0.389552	27.1922	28323.1	55129.3	61979.4	-62.8078	0.0000000E+000	0.0000000E+000	0.0000000E+000	62.8078	0.0000000E+000	0.0000000E+000	0.0000000E+000	-62.8078	0.0000000E+000	0.0000000E+000	0.0000000E+000	-27.1922	0.0000000E+000	0.0000000E+000	0.0000000E+000	27.1922	1.94644	62.8078	1.25063e-05	2.35493e-05	2745.78
463.961	2.81845	1.85567	3.37449	-33.361	9.24622	0.254271	-0.0197308	184.858	55.9017	1	10	0.00488139	0.00144656	0	0.000146459	0.247511	0.162962	0.296341	33.361	55901.7	84905	101656	-56.639	0.0000000E+000	0.0000000E+000	0.0000000E+000	56.639	0.0000000E+000	0.0000000E+000	0.0000000E+000	-56.639	0.0000000E+000	0.0000000E+000	0.0000000E+000	-33.361	0.0000000E+000	0.0000000E+000	0.0000000E+000	33.361	1.51883	56.639	1.26982e-06	-5.01698e-06	12887
215.345	3.83992	2.88961	4.80571	-36.9621	10.1804	0.254267	-0.0207055	255.768	92.4722	1	10	0.00483452	0.001006	0	0.000143224	0.166268	0.125119	0.208086	36.9621	92472.2	122884	153790	-53.0379	0.0000000E+000	0.0000000E+000	0.0000000E+000	53.0379	0.0000000E+000	0.0000000E+000	0.0000000E+000	-53.0379	0.0000000E+000	0.0000000E+000	0.0000000E+000	-36.9621	0.0000000E+000	0.0000000E+000	0.0000000E+000	36.9621	1.32887	53.0379	-1.59466e-06	-5.26471e-06	12280.2
100.032	5.72863	3.94462	6.95538	-34.5505	11.1117	0.254268	-0.020562	403.344	129.731	1	10	0.00480161	0.000690345	0	0.000137071	0.118416	0.0815388	0.143774	34.5505	129731	188404	228750	-55.4495	0.0000000E+000	0.0000000E+000	0.0000000E+000	55.4495	0.0000000E+000	0.0000000E+000	0.0000000E+000	-55.4495	0.0000000E+000	0.0000000E+000	0.0000000E+000	-34.5505	0.0000000E+000	0.0000000E+000	0.0000000E+000	34.5505	1.45226	55.4495	-3.13144e-06	-5.22825e-06	12365.9
46.4415	8.45021	4.1983	9.43566	-26.4195	12.0455	0.254268	-0.023441	816.282	161.6	1	10	0.00481057	0.000509829	0	0.000131517	0.0949124	0.0471551	0.105981	26.4195	161600	325264	363196	-63.5805	0.0000000E+000	0.0000000E+000	0.0000000E+000	63.5805	0.0000000E+000	0.0000000E+000	0.0000000E+000	-63.5805	0.0000000E+000	0.0000000E+000	0.0000000E+000	-26.4195	0.0000000E+000	0.0000000E+000	0.0000000E+000	26.4195	2.01277	63.5805	-3.01016e-06	-5.96031e-06	10847.1
21.5517	10.7926	3.27539	11.2787	-16.8823	12.9303	0.254261	-0.025994	2254.63	190.146	1	10	0.00480845	0.000426332	0	0.000125423	0.084842	0.0257483	0.0886631	16.8823	190146	626540	654758	-73.1177	0.0000000E+000	0.0000000E+000	0.0000000E+000	73.1177	0.0000000E+000	0.0000000E+000	0.0000000E+000	-73.1177	0.0000000E+000	0.0000000E+000	0.0000000E+000	-16.8823	0.0000000E+000	0.0000000E+000	0.0000000E+000	16.8823	3.29506	73.1177	-3.40035e-06	-6.60926e-06	9781.53
10.0032	12.099	2.13301	12.2856	-9.99833	14.1307	0.254309	-0.0107795	7459.12	224.846	1	11	0.00481131	0.000391623	0	0.000124165	0.0801602	0.014132	0.0813963	9.99833	224846	1.27538e+06	1.29505e+06	-80.0017	0.0000000E+000	0.0000000E+000	0.0000000E+000	80.0017	0.0000000E+000	0.0000000E+000	0.0000000E+000	-80.0017	0.0000000E+000	0.0000000E+000	0.0000000E+000	-9.99833	0.0000000E+000	0.0000000E+000	0.0000000E+000	9.99833	5.67225	80.0017	1.39714e-06	-2.74131e-06	23592
4.63925	12.6891	1.37256	12.7631	-6.17359	14.9903	0.254306	-0.0098159	24994.3	289.061	1	11	0.00480794	0.000376705	0	0.00012059	0.0778963	0.00842591	0.0783506	6.17359	289060	2.67232e+06	2.68791e+06	-83.8264	0.0000000E+000	0.0000000E+000	0.0000000E+000	83.8264	0.0000000E+000	0.0000000E+000	0.0000000E+000	-83.8264	0.0000000E+000	0.0000000E+000	0.0000000E+000	-6.17359	0.0000000E+000	0.0000000E+000	0.0000000E+000	6.17359	9.24485	83.8264	1.68929e-06	-2.49624e-06	25907.6
2.15577	13.0612	0.995062	13.099	-4.35664	16.7158	0.254326	-0.00689575	74193.9	428.144	1	11	0.00481148	0.000367316	0	0.00011669	0.0761209	0.00579924	0.0763415	4.35664	428144	5.61982e+06	5.6361e+06	-85.6434	0.0000000E+000	0.0000000E+000	0.0000000E+000	85.6434	0.0000000E+000	0.0000000E+000	0.0000000E+000	-85.6434	0.0000000E+000	0.0000000E+000	0.0000000E+000	-4.35664	0.0000000E+000	0.0000000E+000	0.0000000E+000	4.35664	13.126	85.6434	-6.5687e-06	-1.75376e-06	36881.5
1.00006	13.4007	0.846327	13.4274	-3.61374	20.3291	0.254317	-0.00722409	188042	747.047	1	11	0.00481375	0.000358503	0	9.502e-05	0.0743266	0.00469413	0.0744747	3.61374	747047	1.18287e+07	1.18523e+07	-86.3863	0.0000000E+000	0.0000000E+000	0.0000000E+000	86.3863	0.0000000E+000	0.0000000E+000	0.0000000E+000	-86.3863	0.0000000E+000	0.0000000E+000	0.0000000E+000	-3.61374	0.0000000E+000	0.0000000E+000	0.0000000E+000	3.61374	15.8339	86.3863	-9.35579e-06	-1.83721e-06	35204
0.464091	13.7223	0.846059	13.7484	-3.52815	28.0139	0.254314	-0.00745831	405337	1535.03	1	11	0.00481513	0.000350233	0	0.000106221	0.0725981	0.00447609	0.0727359	3.52815	1.53503e+06	2.48967e+07	2.4944e+07	-86.4718	0.0000000E+000	0.0000000E+000	0.0000000E+000	86.4718	0.0000000E+000	0.0000000E+000	0.0000000E+000	-86.4718	0.0000000E+000	0.0000000E+000	0.0000000E+000	-3.52815	0.0000000E+000	0.0000000E+000	0.0000000E+000	3.52815	16.2191	86.4718	1.19999e-05	-1.89675e-06	34098.1
0.215268	14.051	0.974903	14.0847	-3.96902	44.4939	0.254316	-0.00343368	758367	3633.33	1	11	0.00481549	0.000341894	0	0.000136705	0.0708286	0.00491433	0.0709989	3.96902	3.63333e+06	5.2366e+07	5.24919e+07	-86.031	0.0000000E+000	0.0000000E+000	0.0000000E+000	86.031	0.0000000E+000	0.0000000E+000	0.0000000E+000	-86.031	0.0000000E+000	0.0000000E+000	0.0000000E+000	-3.96902	0.0000000E+000	0.0000000E+000	0.0000000E+000	3.96902	14.4127	86.031	1.15405e-05	-8.7324e-07	74065
0.0999041	14.3799	1.43435	14.4513	-5.69622	79.901	0.254311	0.000418576	1.11066e+06	10941.6	1	11	0.00481507	0.000333194	0	5.24424e-05	0.0688565	0.0068682	0.0691982	5.69622	1.09416e+07	1.09694e+08	1.10238e+08	-84.3038	0.0000000E+000	0.0000000E+000	0.0000000E+000	84.3038	0.0000000E+000	0.0000000E+000	0.0000000E+000	-84.3038	0.0000000E+000	0.0000000E+000	0.0000000E+000	-5.69622	0.0000000E+000	0.0000000E+000	0.0000000E+000	5.69622	10.0254	84.3038	-6.78289e-05	1.06449e-07	607563
0.0464052	14.8549	2.37754	15.044	-9.0931	156.137	0.254316	-0.00153232	1.44253e+06	36029.3	1	11	0.00481515	0.000320071	0	-0.000253651	0.0656364	0.0105052	0.0664718	9.0931	3.60293e+07	2.25112e+08	2.27977e+08	-80.9069	0.0000000E+000	0.0000000E+000	0.0000000E+000	80.9069	0.0000000E+000	0.0000000E+000	0.0000000E+000	-80.9069	0.0000000E+000	0.0000000E+000	0.0000000E+000	-9.0931	0.0000000E+000	0.0000000E+000	0.0000000E+000	9.0931	6.24802	80.9069	-0.000184711	-3.89693e-07	165968
0.0215268	15.6024	4.40338	16.2119	-15.7604	366.922	0.254309	-0.00242269	1.67902e+06	123868	1	12	0.00481202	0.000296821	0	-0.00039385	0.0593643	0.016754	0.0616832	15.7604	1.23868e+08	4.38901e+08	4.56045e+08	-74.2396	0.0000000E+000	0.0000000E+000	0.0000000E+000	74.2396	0.0000000E+000	0.0000000E+000	0.0000000E+000	-74.2396	0.0000000E+000	0.0000000E+000	0.0000000E+000	-15.7604	0.0000000E+000	0.0000000E+000	0.0000000E+000	15.7604	3.54328	74.2396	1.07874e-05	-6.16113e-07	104970
0.0100092	17.0307	7.7705	18.7197	-24.5255	720.138	0.254307	-0.00103182	2.04632e+06	352593	1	12	0.0048121	0.000257061	0	0.000669646	0.0486	0.0221744	0.0534197	24.5255	3.52593e+08	7.72784e+08	8.49422e+08	-65.4745	0.0000000E+000	0.0000000E+000	0.0000000E+000	65.4745	0.0000000E+000	0.0000000E+000	0.0000000E+000	-65.4745	0.0000000E+000	0.0000000E+000	0.0000000E+000	-24.5255	0.0000000E+000	0.0000000E+000	0.0000000E+000	24.5255	2.19172	65.4745	0.00067343	-2.624e-07	246464