File: txt/17489_R279_UA654_SOC00_C07.mpt
EC-Lab ASCII FILE
Nb header lines : 63

Potentio Electrochemical Impedance Spectroscopy

Run on channel : 7 (SN 66126)
User :
CE vs. WE compliance from -10 V to 10 V
Electrode connection : standard
Potential control : Ewe
Ewe ctrl range : min = -10.00 V, max = 10.00 V
Safety Limits :
	Do not start on E overload
Acquisition started on : 09/15/2025 09:00:10.151
Loaded Setting File :  C:\Users\Celltest\OneDrive - store-dot.com\Documents\EC-Lab\Data\Charmaine\R279\17382_C01.mpr
Saved on :
	File : 17489_C07.mpr
	Directory : C:\Users\Celltest\OneDrive - store-dot.com\Documents\EC-Lab\Data\Charmaine\R279\
	Host : 169.254.61.224
Device : VMP-3e (SN .003165)
Address : USB
EC-LAB for windows v11.62 (software)
Internet server v27.00 (firmware)
Command interpretor v12.03 (firmware)
Electrode material :
Initial state :
Electrolyte :
Comments :
Electrode surface area : 0.001 cm²
Characteristic mass : 0.001 g
Equivalent Weight : 0.000 g/eq.
Density : 0.000 g/cm3
Volume (V) : 0.001 cm³
Cycle Definition : Charge/Discharge alternance
Mode                Single sine
E (V)               0.0000
vs.                 Eoc
tE (h:m:s)          0:00:0.0000
record              0
dI                  0.000
unit dI             mA
dt (s)              0.000
fi                  100.000
unit fi             kHz
ff                  10.000
unit ff             mHz
Nd                  6
Points              per decade
spacing             Logarithmic
Va (mV)             5.0
pw                  0.10
Na                  2
corr                0
E range min (V)     -10.000
E range max (V)     10.000
I Range             Auto
Bandwidth           5
nc cycles           0
goto Ns'            0
nr cycles           0
inc. cycle          0

freq/Hz	Re(Z)/Ohm	-Im(Z)/Ohm	|Z|/Ohm	Phase(Z)/deg	time/s	<Ewe>/V	<I>/mA	Cs/µF	Cp/µF	cycle number	I Range	|Ewe|/V	|I|/A	Ns	(Q-Qo)/mA.h	Re(Y)/Ohm-1	Im(Y)/Ohm-1	|Y|/Ohm-1	Phase(Y)/deg	Re(C)/nF	Im(C)/nF	|C|/nF	Phase(C)/deg	Re(M)	Im(M)	|M|	Phase(M)/deg	Re(Permittivity)	Im(Permittivity)	|Permittivity|	Phase(Permittivity)/deg	Re(Resistivity)/Ohm.cm	Im(Resistivity)/Ohm.cm	|Resistivity|/Ohm.cm	Phase(Resistivity)/deg	Re(Conductivity)/mS/cm	Im(Conductivity)/mS/cm	|Conductivity|/mS/cm	Phase(Conductivity)/deg	Tan(Delta)	Loss Angle(Delta)/deg	dq/mA.h	Pwe/W	Rwe/Ohm
100004	1.91429	0.281342	1.93485	-8.36089	2.06649	0.27826	0.0358843	5.65678	0.119604	1	9	0.00459092	0.00237275	0	5.22747e-06	0.511343	0.0751519	0.516836	8.36089	119.604	813.797	822.539	-81.6391	0.0000000E+000	0.0000000E+000	0.0000000E+000	81.6391	0.0000000E+000	0.0000000E+000	0.0000000E+000	-81.6391	0.0000000E+000	0.0000000E+000	0.0000000E+000	-8.36089	0.0000000E+000	0.0000000E+000	0.0000000E+000	8.36089	6.80412	81.6391	5.22747e-06	9.98516e-06	7754.38
46420.4	2.05226	0.343526	2.08081	-9.50259	3.2225	0.278273	0.033166	9.98051	0.272023	1	9	0.00506512	0.00243421	0	1.51715e-05	0.473988	0.0793404	0.480582	9.50259	272.023	1625.09	1647.7	-80.4974	0.0000000E+000	0.0000000E+000	0.0000000E+000	80.4974	0.0000000E+000	0.0000000E+000	0.0000000E+000	-80.4974	0.0000000E+000	0.0000000E+000	0.0000000E+000	-9.50259	0.0000000E+000	0.0000000E+000	0.0000000E+000	9.50259	5.9741	80.4974	5.75693e-06	9.2292e-06	8390.29
21544.7	2.22418	0.444769	2.26821	-11.3083	4.09648	0.278286	0.0322351	16.6091	0.638628	1	9	0.00527346	0.00232494	0	1.64502e-05	0.432317	0.0864505	0.440876	11.3083	638.628	3193.61	3256.84	-78.6917	0.0000000E+000	0.0000000E+000	0.0000000E+000	78.6917	0.0000000E+000	0.0000000E+000	0.0000000E+000	-78.6917	0.0000000E+000	0.0000000E+000	0.0000000E+000	-11.3083	0.0000000E+000	0.0000000E+000	0.0000000E+000	11.3083	5.00075	78.6917	7.01772e-07	8.97058e-06	8633
10002.2	2.43964	0.56787	2.50485	-13.1033	4.82949	0.278285	0.0329426	28.0204	1.44015	1	9	0.00511129	0.00204055	0	1.81305e-05	0.38883	0.0905074	0.399225	13.1033	1440.15	6187.04	6352.44	-76.8967	0.0000000E+000	0.0000000E+000	0.0000000E+000	76.8967	0.0000000E+000	0.0000000E+000	0.0000000E+000	-76.8967	0.0000000E+000	0.0000000E+000	0.0000000E+000	-13.1033	0.0000000E+000	0.0000000E+000	0.0000000E+000	13.1033	4.29612	76.8967	9.73361e-07	9.16742e-06	8447.56
4641.49	2.70666	0.741074	2.80628	-15.3121	5.67869	0.27831	0.056513	46.2702	3.22674	1	9	0.00501496	0.00178705	0	2.49875e-05	0.343694	0.0941025	0.356344	15.3121	3226.74	11785.2	12218.9	-74.6879	0.0000000E+000	0.0000000E+000	0.0000000E+000	74.6879	0.0000000E+000	0.0000000E+000	0.0000000E+000	-74.6879	0.0000000E+000	0.0000000E+000	0.0000000E+000	-15.3121	0.0000000E+000	0.0000000E+000	0.0000000E+000	15.3121	3.65234	74.6879	5.74432e-06	1.57281e-05	4924.7
2155.69	3.05176	0.989829	3.20827	-17.9703	6.61271	0.278318	0.0527708	74.5888	7.09991	1	9	0.00494376	0.00154094	0	3.73489e-05	0.296489	0.0961654	0.311695	17.9703	7099.91	21889.8	23012.5	-72.0297	0.0000000E+000	0.0000000E+000	0.0000000E+000	72.0297	0.0000000E+000	0.0000000E+000	0.0000000E+000	-72.0297	0.0000000E+000	0.0000000E+000	0.0000000E+000	-17.9703	0.0000000E+000	0.0000000E+000	0.0000000E+000	17.9703	3.08312	72.0297	4.92039e-06	1.46871e-05	5274.09
1000.32	3.48891	1.39523	3.75755	-21.7967	7.8027	0.278307	-0.00885009	114.034	15.7224	1	10	0.00497072	0.00132286	0	3.99554e-05	0.247104	0.0988184	0.266131	21.7967	15722.4	39315.3	42342.5	-68.2033	0.0000000E+000	0.0000000E+000	0.0000000E+000	68.2033	0.0000000E+000	0.0000000E+000	0.0000000E+000	-68.2033	0.0000000E+000	0.0000000E+000	0.0000000E+000	-21.7967	0.0000000E+000	0.0000000E+000	0.0000000E+000	21.7967	2.50059	68.2033	-7.9236e-07	-2.46304e-06	31446.8
463.961	4.08815	2.08723	4.59016	-27.0469	8.73721	0.278313	-0.00913675	164.349	33.9825	1	10	0.0049139	0.00107053	0	3.82429e-05	0.194031	0.0990641	0.217857	27.0469	33982.5	66559.6	74732.8	-62.9531	0.0000000E+000	0.0000000E+000	0.0000000E+000	62.9531	0.0000000E+000	0.0000000E+000	0.0000000E+000	-62.9531	0.0000000E+000	0.0000000E+000	0.0000000E+000	-27.0469	0.0000000E+000	0.0000000E+000	0.0000000E+000	27.0469	1.95865	62.9531	-1.55075e-06	-2.54288e-06	30460.8
215.345	5.1204	3.21491	6.046	-32.1232	9.67145	0.278302	-0.010678	229.889	65.0008	1	10	0.00488565	0.00080808	0	3.60083e-05	0.140077	0.0879494	0.165399	32.1232	65000.8	103527	122241	-57.8768	0.0000000E+000	0.0000000E+000	0.0000000E+000	57.8768	0.0000000E+000	0.0000000E+000	0.0000000E+000	-57.8768	0.0000000E+000	0.0000000E+000	0.0000000E+000	-32.1232	0.0000000E+000	0.0000000E+000	0.0000000E+000	32.1232	1.5927	57.8768	-7.84418e-07	-2.9717e-06	26063.1
100.032	7.00269	4.69826	8.43275	-33.8585	10.6027	0.278305	-0.00985154	338.645	105.119	1	10	0.00486481	0.000576895	0	3.38186e-05	0.0984751	0.0660691	0.118585	33.8585	105119	156678	188674	-56.1415	0.0000000E+000	0.0000000E+000	0.0000000E+000	56.1415	0.0000000E+000	0.0000000E+000	0.0000000E+000	-56.1415	0.0000000E+000	0.0000000E+000	0.0000000E+000	-33.8585	0.0000000E+000	0.0000000E+000	0.0000000E+000	33.8585	1.49049	56.1415	-1.02863e-06	-2.74173e-06	28249.9
46.4415	10.1619	5.9262	11.7637	-30.2499	11.5366	0.278306	-0.011752	578.278	146.759	1	10	0.00485632	0.000412824	0	3.19347e-05	0.0734327	0.0428245	0.0850076	30.2499	146759	251653	291321	-59.7501	0.0000000E+000	0.0000000E+000	0.0000000E+000	59.7501	0.0000000E+000	0.0000000E+000	0.0000000E+000	-59.7501	0.0000000E+000	0.0000000E+000	0.0000000E+000	-30.2499	0.0000000E+000	0.0000000E+000	0.0000000E+000	30.2499	1.71474	59.7501	-1.09469e-06	-3.27065e-06	23681.5
21.5517	13.9768	5.71082	15.0984	-22.2246	12.4224	0.278287	-0.0150839	1293.12	185	1	10	0.00485521	0.00032157	0	2.97027e-05	0.0613115	0.0250515	0.066232	22.2246	185000	452772	489109	-67.7754	0.0000000E+000	0.0000000E+000	0.0000000E+000	67.7754	0.0000000E+000	0.0000000E+000	0.0000000E+000	-67.7754	0.0000000E+000	0.0000000E+000	0.0000000E+000	-22.2246	0.0000000E+000	0.0000000E+000	0.0000000E+000	22.2246	2.44742	67.7754	-5.58695e-07	-4.19766e-06	18449.3
10.0032	16.8759	4.28608	17.4117	-14.2505	13.6277	0.278337	-0.0064	3712.11	224.936	1	11	0.00485725	0.000278965	0	2.41809e-05	0.0556654	0.0141377	0.0574327	14.2505	224936	885659	913777	-75.7495	0.0000000E+000	0.0000000E+000	0.0000000E+000	75.7495	0.0000000E+000	0.0000000E+000	0.0000000E+000	-75.7495	0.0000000E+000	0.0000000E+000	0.0000000E+000	-14.2505	0.0000000E+000	0.0000000E+000	0.0000000E+000	14.2505	3.93738	75.7495	-2.78441e-06	-1.78136e-06	43490.2
4.63925	18.4034	2.90014	18.6306	-8.95542	14.4873	0.278331	-0.00542343	11829.1	286.642	1	11	0.00486602	0.000261185	0	2.27092e-05	0.0530209	0.00835541	0.0536753	8.95542	286642	1.81895e+06	1.84139e+06	-81.0446	0.0000000E+000	0.0000000E+000	0.0000000E+000	81.0446	0.0000000E+000	0.0000000E+000	0.0000000E+000	-81.0446	0.0000000E+000	0.0000000E+000	0.0000000E+000	-8.95542	0.0000000E+000	0.0000000E+000	0.0000000E+000	8.95542	6.3457	81.0446	-4.04393e-06	-1.50951e-06	51320.1
2.15577	19.2726	2.21774	19.3998	-6.56427	16.2148	0.278351	-0.00430457	33289.6	435.045	1	11	0.00486136	0.000250588	0	2.39192e-05	0.051209	0.00589272	0.0515469	6.56427	435045	3.78063e+06	3.80558e+06	-83.4357	0.0000000E+000	0.0000000E+000	0.0000000E+000	83.4357	0.0000000E+000	0.0000000E+000	0.0000000E+000	-83.4357	0.0000000E+000	0.0000000E+000	0.0000000E+000	-6.56427	0.0000000E+000	0.0000000E+000	0.0000000E+000	6.56427	8.69021	83.4357	3.46459e-06	-1.19818e-06	64664.2
1.00006	20.054	1.96931	20.1505	-5.60847	20.8792	0.278358	-0.00317405	80812.5	771.853	1	12	0.00486151	0.00024126	0	2.38885e-05	0.049389	0.00485001	0.0496266	5.60847	771854	7.86e+06	7.89781e+06	-84.3915	0.0000000E+000	0.0000000E+000	0.0000000E+000	84.3915	0.0000000E+000	0.0000000E+000	0.0000000E+000	-84.3915	0.0000000E+000	0.0000000E+000	0.0000000E+000	-5.60847	0.0000000E+000	0.0000000E+000	0.0000000E+000	5.60847	10.1833	84.3915	-3.91402e-06	-8.83524e-07	87698
0.464091	20.895	1.95483	20.9862	-5.34475	28.5639	0.278361	-0.00271938	175432	1522.15	1	12	0.00485898	0.000231532	0	-6.69285e-06	0.0474431	0.00443854	0.0476503	5.34475	1.52215e+06	1.62701e+07	1.63412e+07	-84.6553	0.0000000E+000	0.0000000E+000	0.0000000E+000	84.6553	0.0000000E+000	0.0000000E+000	0.0000000E+000	-84.6553	0.0000000E+000	0.0000000E+000	0.0000000E+000	-5.34475	0.0000000E+000	0.0000000E+000	0.0000000E+000	5.34475	10.6889	84.6553	-1.81367e-05	-7.5697e-07	102362
0.215268	21.8006	2.10072	21.9016	-5.50406	45.0439	0.278363	-0.00394827	351943	3237.86	1	12	0.00485993	0.000221898	0	-2.48364e-05	0.0454483	0.00437942	0.0456588	5.50406	3.23786e+06	3.36015e+07	3.37571e+07	-84.4959	0.0000000E+000	0.0000000E+000	0.0000000E+000	84.4959	0.0000000E+000	0.0000000E+000	0.0000000E+000	-84.4959	0.0000000E+000	0.0000000E+000	0.0000000E+000	-5.50406	0.0000000E+000	0.0000000E+000	0.0000000E+000	5.50406	10.3777	84.4959	-2.51031e-06	-1.09905e-06	70502.6
0.0999041	22.6264	2.4634	22.7601	-6.21347	80.4495	0.278366	-0.00307178	646699	7575.69	1	12	0.0048603	0.000213545	0	3.52688e-05	0.0436784	0.00475538	0.0439365	6.21347	7.57569e+06	6.9583e+07	6.99942e+07	-83.7865	0.0000000E+000	0.0000000E+000	0.0000000E+000	83.7865	0.0000000E+000	0.0000000E+000	0.0000000E+000	-83.7865	0.0000000E+000	0.0000000E+000	0.0000000E+000	-6.21347	0.0000000E+000	0.0000000E+000	0.0000000E+000	6.21347	9.18504	83.7865	4.10174e-05	-8.55079e-07	90620.6
0.0464052	23.5963	3.48115	23.8517	-8.3923	156.686	0.278365	-0.000374664	985213	20986.5	1	12	0.00486105	0.000203803	0	0.000111695	0.0414768	0.00611907	0.0419258	8.3923	2.09865e+07	1.42252e+08	1.43792e+08	-81.6077	0.0000000E+000	0.0000000E+000	0.0000000E+000	81.6077	0.0000000E+000	0.0000000E+000	0.0000000E+000	-81.6077	0.0000000E+000	0.0000000E+000	0.0000000E+000	-8.3923	0.0000000E+000	0.0000000E+000	0.0000000E+000	8.3923	6.77829	81.6077	2.63396e-05	-1.04293e-07	742971
0.0215268	24.6769	5.72189	25.3316	-13.0546	320.915	0.278364	-0.000255242	1.29212e+06	65926	1	12	0.0048616	0.000191919	0	-0.000180479	0.0384562	0.00891694	0.0394765	13.0546	6.5926e+07	2.8432e+08	2.91863e+08	-76.9454	0.0000000E+000	0.0000000E+000	0.0000000E+000	76.9454	0.0000000E+000	0.0000000E+000	0.0000000E+000	-76.9454	0.0000000E+000	0.0000000E+000	0.0000000E+000	-13.0546	0.0000000E+000	0.0000000E+000	0.0000000E+000	13.0546	4.31271	76.9454	-0.000227167	-7.10503e-08	1.09059e+06
0.0100092	26.8695	9.83475	28.6128	-20.1036	674.133	0.27837	-0.00191512	1.61681e+06	191013	1	12	0.00485781	0.000169778	0	-0.000987818	0.03282	0.0120127	0.0349494	20.1036	1.91013e+08	5.21868e+08	5.55727e+08	-69.8964	0.0000000E+000	0.0000000E+000	0.0000000E+000	69.8964	0.0000000E+000	0.0000000E+000	0.0000000E+000	-69.8964	0.0000000E+000	0.0000000E+000	0.0000000E+000	-20.1036	0.0000000E+000	0.0000000E+000	0.0000000E+000	20.1036	2.7321	69.8964	-0.000419482	-5.33113e-07	145354