File: txt/17483_R279_UA653_SOC00_C02.mpt
EC-Lab ASCII FILE
Nb header lines : 63

Potentio Electrochemical Impedance Spectroscopy

Run on channel : 2 (SN 66139)
User :
CE vs. WE compliance from -10 V to 10 V
Electrode connection : standard
Potential control : Ewe
Ewe ctrl range : min = -10.00 V, max = 10.00 V
Safety Limits :
	Do not start on E overload
Acquisition started on : 09/15/2025 08:58:56.927
Loaded Setting File :  C:\Users\Celltest\OneDrive - store-dot.com\Documents\EC-Lab\Data\Charmaine\R279\17382_C01.mpr
Saved on :
	File : 17483_C02.mpr
	Directory : C:\Users\Celltest\OneDrive - store-dot.com\Documents\EC-Lab\Data\Charmaine\R279\
	Host : 169.254.61.224
Device : VMP-3e (SN .003165)
Address : USB
EC-LAB for windows v11.62 (software)
Internet server v27.00 (firmware)
Command interpretor v12.03 (firmware)
Electrode material :
Initial state :
Electrolyte :
Comments :
Electrode surface area : 0.001 cm²
Characteristic mass : 0.001 g
Equivalent Weight : 0.000 g/eq.
Density : 0.000 g/cm3
Volume (V) : 0.001 cm³
Cycle Definition : Charge/Discharge alternance
Mode                Single sine
E (V)               0.0000
vs.                 Eoc
tE (h:m:s)          0:00:0.0000
record              0
dI                  0.000
unit dI             mA
dt (s)              0.000
fi                  100.000
unit fi             kHz
ff                  10.000
unit ff             mHz
Nd                  6
Points              per decade
spacing             Logarithmic
Va (mV)             5.0
pw                  0.10
Na                  2
corr                0
E range min (V)     -10.000
E range max (V)     10.000
I Range             Auto
Bandwidth           5
nc cycles           0
goto Ns'            0
nr cycles           0
inc. cycle          0

freq/Hz	Re(Z)/Ohm	-Im(Z)/Ohm	|Z|/Ohm	Phase(Z)/deg	time/s	<Ewe>/V	<I>/mA	Cs/µF	Cp/µF	cycle number	I Range	|Ewe|/V	|I|/A	Ns	(Q-Qo)/mA.h	Re(Y)/Ohm-1	Im(Y)/Ohm-1	|Y|/Ohm-1	Phase(Y)/deg	Re(C)/nF	Im(C)/nF	|C|/nF	Phase(C)/deg	Re(M)	Im(M)	|M|	Phase(M)/deg	Re(Permittivity)	Im(Permittivity)	|Permittivity|	Phase(Permittivity)/deg	Re(Resistivity)/Ohm.cm	Im(Resistivity)/Ohm.cm	|Resistivity|/Ohm.cm	Phase(Resistivity)/deg	Re(Conductivity)/mS/cm	Im(Conductivity)/mS/cm	|Conductivity|/mS/cm	Phase(Conductivity)/deg	Tan(Delta)	Loss Angle(Delta)/deg	dq/mA.h	Pwe/W	Rwe/Ohm
100004	1.00455	0.237054	1.03214	-13.2778	2.02549	0.260177	-0.0102775	6.71361	0.354141	1	9	0.00492682	0.00477342	0	-9.47968e-06	0.942964	0.222522	0.968863	13.2778	354.142	1500.72	1541.94	-76.7222	0.0000000E+000	0.0000000E+000	0.0000000E+000	76.7222	0.0000000E+000	0.0000000E+000	0.0000000E+000	-76.7222	0.0000000E+000	0.0000000E+000	0.0000000E+000	-13.2778	0.0000000E+000	0.0000000E+000	0.0000000E+000	13.2778	4.23762	76.7222	-9.47968e-06	-2.67397e-06	25315.2
46420.4	1.12752	0.29302	1.16497	-14.5678	2.90148	0.260166	-0.0121584	11.7008	0.740246	1	9	0.00547122	0.00469643	0	-1.46414e-05	0.830791	0.215906	0.858388	14.5678	740.246	2848.42	2943.03	-75.4322	0.0000000E+000	0.0000000E+000	0.0000000E+000	75.4322	0.0000000E+000	0.0000000E+000	0.0000000E+000	-75.4322	0.0000000E+000	0.0000000E+000	0.0000000E+000	-14.5678	0.0000000E+000	0.0000000E+000	0.0000000E+000	14.5678	3.84793	75.4322	-3.63338e-06	-3.16321e-06	21398
21544.7	1.27082	0.360492	1.32096	-15.837	3.7755	0.260169	-0.00841526	20.492	1.52615	1	9	0.005391	0.00408113	0	-2.42917e-05	0.728291	0.206594	0.757026	15.837	1526.15	5380.03	5592.31	-74.163	0.0000000E+000	0.0000000E+000	0.0000000E+000	74.163	0.0000000E+000	0.0000000E+000	0.0000000E+000	-74.163	0.0000000E+000	0.0000000E+000	0.0000000E+000	-15.837	0.0000000E+000	0.0000000E+000	0.0000000E+000	15.837	3.52523	74.163	-3.58153e-06	-2.18939e-06	30916.3
10002.2	1.43805	0.454843	1.50827	-17.5517	4.65048	0.260172	-0.00943953	34.9834	3.18145	1	9	0.00528299	0.00350268	0	-3.24985e-05	0.632144	0.199941	0.663011	17.5517	3181.45	10058.7	10549.8	-72.4483	0.0000000E+000	0.0000000E+000	0.0000000E+000	72.4483	0.0000000E+000	0.0000000E+000	0.0000000E+000	-72.4483	0.0000000E+000	0.0000000E+000	0.0000000E+000	-17.5517	0.0000000E+000	0.0000000E+000	0.0000000E+000	17.5517	3.16165	72.4483	-5.44438e-07	-2.4559e-06	27561.9
4641.49	1.64931	0.594339	1.75313	-19.8169	5.9007	0.260164	-0.0138718	57.6937	6.63084	1	9	0.00510323	0.00291092	0	-3.96579e-05	0.536629	0.193377	0.570408	19.8169	6630.84	18400.8	19559.1	-70.1831	0.0000000E+000	0.0000000E+000	0.0000000E+000	70.1831	0.0000000E+000	0.0000000E+000	0.0000000E+000	-70.1831	0.0000000E+000	0.0000000E+000	0.0000000E+000	-19.8169	0.0000000E+000	0.0000000E+000	0.0000000E+000	19.8169	2.77503	70.1831	-3.32856e-07	-3.60895e-06	18754.9
2155.69	1.89434	0.825688	2.06647	-23.551	6.83469	0.260163	-0.00776348	89.4166	14.2755	1	9	0.00520261	0.00251764	0	-4.26309e-05	0.44361	0.193357	0.483918	23.551	14275.5	32751.8	35727.7	-66.449	0.0000000E+000	0.0000000E+000	0.0000000E+000	66.449	0.0000000E+000	0.0000000E+000	0.0000000E+000	-66.449	0.0000000E+000	0.0000000E+000	0.0000000E+000	-23.551	0.0000000E+000	0.0000000E+000	0.0000000E+000	23.551	2.29426	66.449	5.87931e-07	-2.01977e-06	33511.1
1000.32	2.22652	1.23575	2.54646	-29.0309	7.77071	0.260154	-0.00914161	128.751	30.3206	1	9	0.00507181	0.00199171	0	-4.51405e-05	0.343363	0.190571	0.392703	29.0309	30320.6	54630.4	62480.5	-60.9691	0.0000000E+000	0.0000000E+000	0.0000000E+000	60.9691	0.0000000E+000	0.0000000E+000	0.0000000E+000	-60.9691	0.0000000E+000	0.0000000E+000	0.0000000E+000	-29.0309	0.0000000E+000	0.0000000E+000	0.0000000E+000	29.0309	1.80176	60.9691	-2.84244e-06	-2.37822e-06	28458.2
463.961	2.74624	1.97116	3.38043	-35.6694	8.95922	0.260171	-0.0190654	174.027	59.1719	1	10	0.00504477	0.00149235	0	-4.85371e-05	0.240323	0.172495	0.29582	35.6694	59171.9	82439.2	101477	-54.3306	0.0000000E+000	0.0000000E+000	0.0000000E+000	54.3306	0.0000000E+000	0.0000000E+000	0.0000000E+000	-54.3306	0.0000000E+000	0.0000000E+000	0.0000000E+000	-35.6694	0.0000000E+000	0.0000000E+000	0.0000000E+000	35.6694	1.39321	54.3306	-8.62021e-07	-4.96027e-06	13646.2
215.345	3.78177	3.1429	4.91728	-39.7289	9.89342	0.260171	-0.0188493	235.155	96.0656	1	10	0.00495552	0.00100778	0	-5.4637e-05	0.156403	0.129982	0.203365	39.7289	96065.6	115593	150301	-50.2711	0.0000000E+000	0.0000000E+000	0.0000000E+000	50.2711	0.0000000E+000	0.0000000E+000	0.0000000E+000	-50.2711	0.0000000E+000	0.0000000E+000	0.0000000E+000	-39.7289	0.0000000E+000	0.0000000E+000	0.0000000E+000	39.7289	1.20327	50.2711	-2.93177e-06	-4.90405e-06	13802.7
100.032	5.80844	4.51762	7.35846	-37.8747	10.8247	0.260167	-0.0183576	352.185	132.745	1	10	0.00492436	0.000669211	0	-5.81056e-05	0.107272	0.0834327	0.135898	37.8747	132745	170674	216219	-52.1253	0.0000000E+000	0.0000000E+000	0.0000000E+000	52.1253	0.0000000E+000	0.0000000E+000	0.0000000E+000	-52.1253	0.0000000E+000	0.0000000E+000	0.0000000E+000	-37.8747	0.0000000E+000	0.0000000E+000	0.0000000E+000	37.8747	1.28573	52.1253	-1.6185e-06	-4.77605e-06	14172.1
46.4415	8.94834	5.21273	10.3559	-30.2223	11.7585	0.260167	-0.0196354	657.428	166.571	1	10	0.00491431	0.00047454	0	-6.17768e-05	0.083438	0.0486057	0.096563	30.2223	166571	285942	330921	-59.7777	0.0000000E+000	0.0000000E+000	0.0000000E+000	59.7777	0.0000000E+000	0.0000000E+000	0.0000000E+000	-59.7777	0.0000000E+000	0.0000000E+000	0.0000000E+000	-30.2223	0.0000000E+000	0.0000000E+000	0.0000000E+000	30.2223	1.71663	59.7776	-1.99846e-06	-5.10849e-06	13249.9
21.5517	12.0582	4.40423	12.8374	-20.0645	12.6433	0.260155	-0.0220549	1676.75	197.358	1	10	0.00490999	0.000382476	0	-6.62152e-05	0.0731697	0.026725	0.0778976	20.0645	197358	540343	575257	-69.9355	0.0000000E+000	0.0000000E+000	0.0000000E+000	69.9355	0.0000000E+000	0.0000000E+000	0.0000000E+000	-69.9355	0.0000000E+000	0.0000000E+000	0.0000000E+000	-20.0645	0.0000000E+000	0.0000000E+000	0.0000000E+000	20.0645	2.73788	69.9355	-1.76184e-06	-5.73771e-06	11795.8
10.0032	13.9505	2.97654	14.2645	-12.0443	13.8497	0.260181	-0.0126695	5345.27	232.745	1	11	0.00491087	0.000344273	0	-7.15121e-05	0.068561	0.0146285	0.0701042	12.0443	232745	1.09083e+06	1.11539e+06	-77.9557	0.0000000E+000	0.0000000E+000	0.0000000E+000	77.9557	0.0000000E+000	0.0000000E+000	0.0000000E+000	-77.9557	0.0000000E+000	0.0000000E+000	0.0000000E+000	-12.0443	0.0000000E+000	0.0000000E+000	0.0000000E+000	12.0443	4.68681	77.9557	-3.97948e-06	-3.29635e-06	20536
4.63925	14.8367	1.89505	14.9572	-7.27882	14.7103	0.260184	-0.0118962	18103.1	290.597	1	11	0.00490926	0.00032822	0	-7.66053e-05	0.0663186	0.00847069	0.0668573	7.27882	290597	2.27514e+06	2.29362e+06	-82.7212	0.0000000E+000	0.0000000E+000	0.0000000E+000	82.7212	0.0000000E+000	0.0000000E+000	0.0000000E+000	-82.7212	0.0000000E+000	0.0000000E+000	0.0000000E+000	-7.27882	0.0000000E+000	0.0000000E+000	0.0000000E+000	7.27882	7.82918	82.7212	-5.95715e-06	-3.0952e-06	21871.2
2.15577	15.3591	1.33901	15.4173	-4.98246	16.4358	0.26019	-0.0104461	55136	415.893	1	11	0.0049118	0.000318589	0	-7.23996e-05	0.0646169	0.00563331	0.064862	4.98246	415894	4.77051e+06	4.7886e+06	-85.0175	0.0000000E+000	0.0000000E+000	0.0000000E+000	85.0175	0.0000000E+000	0.0000000E+000	0.0000000E+000	-85.0175	0.0000000E+000	0.0000000E+000	0.0000000E+000	-4.98246	0.0000000E+000	0.0000000E+000	0.0000000E+000	4.98246	11.4705	85.0175	2.921e-06	-2.71796e-06	24908
1.00006	15.7991	1.1289	15.8394	-4.08703	20.0491	0.260195	-0.00856314	140973	716.096	1	11	0.0049132	0.000310189	0	-9.13545e-05	0.0629733	0.00449965	0.0631338	4.08703	716097	1.00219e+07	1.00474e+07	-85.913	0.0000000E+000	0.0000000E+000	0.0000000E+000	85.913	0.0000000E+000	0.0000000E+000	0.0000000E+000	-85.913	0.0000000E+000	0.0000000E+000	0.0000000E+000	-4.08703	0.0000000E+000	0.0000000E+000	0.0000000E+000	4.08703	13.9951	85.913	-1.45661e-05	-2.22809e-06	30385.5
0.464091	16.2669	1.06734	16.3019	-3.75403	29.2518	0.260195	-0.00836429	321304	1377.35	1	12	0.00491272	0.000301359	0	-0.000133686	0.061211	0.0040163	0.0613426	3.75403	1.37735e+06	2.09917e+07	2.10368e+07	-86.246	0.0000000E+000	0.0000000E+000	0.0000000E+000	86.246	0.0000000E+000	0.0000000E+000	0.0000000E+000	-86.246	0.0000000E+000	0.0000000E+000	0.0000000E+000	-3.75403	0.0000000E+000	0.0000000E+000	0.0000000E+000	3.75403	15.2406	86.246	-1.69722e-05	-2.17634e-06	31107.8
0.215268	16.6751	1.18274	16.717	-4.05713	45.7319	0.260186	-0.00842672	625101	3129.08	1	12	0.00491155	0.000293806	0	-0.00012487	0.0596696	0.00423229	0.0598195	4.05713	3.12908e+06	4.41158e+07	4.42266e+07	-85.9429	0.0000000E+000	0.0000000E+000	0.0000000E+000	85.9429	0.0000000E+000	0.0000000E+000	0.0000000E+000	-85.9429	0.0000000E+000	0.0000000E+000	0.0000000E+000	-4.05713	0.0000000E+000	0.0000000E+000	0.0000000E+000	4.05713	14.0986	85.9429	1.29573e-05	-2.19251e-06	30876.3
0.0999041	17.122	1.55273	17.1923	-5.18175	81.1386	0.260192	-0.00369494	1.02599e+06	8368.85	1	12	0.00491191	0.000285705	0	-7.54463e-05	0.057928	0.00525326	0.0581657	5.18175	8.36884e+06	9.22838e+07	9.26625e+07	-84.8183	0.0000000E+000	0.0000000E+000	0.0000000E+000	84.8183	0.0000000E+000	0.0000000E+000	0.0000000E+000	-84.8183	0.0000000E+000	0.0000000E+000	0.0000000E+000	-5.18175	0.0000000E+000	0.0000000E+000	0.0000000E+000	5.18175	11.0271	84.8183	2.29216e-05	-9.61396e-07	70418.5
0.0464052	17.6799	2.56763	17.8654	-8.26321	157.374	0.260189	-0.000309832	1.33574e+06	27590.5	1	12	0.00491186	0.000274937	0	-0.000187012	0.055393	0.00804463	0.0559741	8.26321	2.75905e+07	1.8998e+08	1.91973e+08	-81.7368	0.0000000E+000	0.0000000E+000	0.0000000E+000	81.7368	0.0000000E+000	0.0000000E+000	0.0000000E+000	-81.7368	0.0000000E+000	0.0000000E+000	0.0000000E+000	-8.26321	0.0000000E+000	0.0000000E+000	0.0000000E+000	8.26321	6.8857	81.7368	-0.000102447	-8.06149e-08	839774
0.0215268	18.605	4.44059	19.1276	-13.424	321.605	0.260181	-0.00220273	1.66495e+06	89734.4	1	12	0.00491174	0.000256788	0	-0.000802083	0.050852	0.0121372	0.0522804	13.424	8.97344e+07	3.75966e+08	3.86527e+08	-76.576	0.0000000E+000	0.0000000E+000	0.0000000E+000	76.576	0.0000000E+000	0.0000000E+000	0.0000000E+000	-76.576	0.0000000E+000	0.0000000E+000	0.0000000E+000	-13.424	0.0000000E+000	0.0000000E+000	0.0000000E+000	13.424	4.18977	76.576	-0.000368921	-5.73109e-07	118118
0.0100092	20.1929	8.12111	21.7648	-21.9088	674.822	0.260177	-0.00292052	1.95797e+06	272601	1	12	0.00491253	0.00022571	0	-0.00115969	0.0426275	0.0171437	0.0459457	21.9088	2.72601e+08	6.77816e+08	7.30579e+08	-68.0912	0.0000000E+000	0.0000000E+000	0.0000000E+000	68.0912	0.0000000E+000	0.0000000E+000	0.0000000E+000	-68.0912	0.0000000E+000	0.0000000E+000	0.0000000E+000	-21.9088	0.0000000E+000	0.0000000E+000	0.0000000E+000	21.9088	2.48647	68.0912	-2.08292e-05	-7.59853e-07	89085.9