File: txt/17484_R279_UA653_SOC00_C03.mpt
EC-Lab ASCII FILE
Nb header lines : 63

Potentio Electrochemical Impedance Spectroscopy

Run on channel : 3 (SN 65921)
User :
CE vs. WE compliance from -10 V to 10 V
Electrode connection : standard
Potential control : Ewe
Ewe ctrl range : min = -10.00 V, max = 10.00 V
Safety Limits :
	Do not start on E overload
Acquisition started on : 09/15/2025 08:59:18.803
Loaded Setting File :  C:\Users\Celltest\OneDrive - store-dot.com\Documents\EC-Lab\Data\Charmaine\R279\17382_C01.mpr
Saved on :
	File : 17484_C03.mpr
	Directory : C:\Users\Celltest\OneDrive - store-dot.com\Documents\EC-Lab\Data\Charmaine\R279\
	Host : 169.254.61.224
Device : VMP-3e (SN .003165)
Address : USB
EC-LAB for windows v11.62 (software)
Internet server v27.00 (firmware)
Command interpretor v12.03 (firmware)
Electrode material :
Initial state :
Electrolyte :
Comments :
Electrode surface area : 0.001 cm²
Characteristic mass : 0.001 g
Equivalent Weight : 0.000 g/eq.
Density : 0.000 g/cm3
Volume (V) : 0.001 cm³
Cycle Definition : Charge/Discharge alternance
Mode                Single sine
E (V)               0.0000
vs.                 Eoc
tE (h:m:s)          0:00:0.0000
record              0
dI                  0.000
unit dI             mA
dt (s)              0.000
fi                  100.000
unit fi             kHz
ff                  10.000
unit ff             mHz
Nd                  6
Points              per decade
spacing             Logarithmic
Va (mV)             5.0
pw                  0.10
Na                  2
corr                0
E range min (V)     -10.000
E range max (V)     10.000
I Range             Auto
Bandwidth           5
nc cycles           0
goto Ns'            0
nr cycles           0
inc. cycle          0

freq/Hz	Re(Z)/Ohm	-Im(Z)/Ohm	|Z|/Ohm	Phase(Z)/deg	time/s	<Ewe>/V	<I>/mA	Cs/µF	Cp/µF	cycle number	I Range	|Ewe|/V	|I|/A	Ns	(Q-Qo)/mA.h	Re(Y)/Ohm-1	Im(Y)/Ohm-1	|Y|/Ohm-1	Phase(Y)/deg	Re(C)/nF	Im(C)/nF	|C|/nF	Phase(C)/deg	Re(M)	Im(M)	|M|	Phase(M)/deg	Re(Permittivity)	Im(Permittivity)	|Permittivity|	Phase(Permittivity)/deg	Re(Resistivity)/Ohm.cm	Im(Resistivity)/Ohm.cm	|Resistivity|/Ohm.cm	Phase(Resistivity)/deg	Re(Conductivity)/mS/cm	Im(Conductivity)/mS/cm	|Conductivity|/mS/cm	Phase(Conductivity)/deg	Tan(Delta)	Loss Angle(Delta)/deg	dq/mA.h	Pwe/W	Rwe/Ohm
100004	1.31109	0.290282	1.34284	-12.4841	1.86448	0.266506	0.00348057	5.48257	0.256196	1	9	0.00451053	0.00335894	0	-4.23715e-06	0.72708	0.160979	0.744688	12.4841	256.196	1157.14	1185.16	-77.5159	0.0000000E+000	0.0000000E+000	0.0000000E+000	77.5159	0.0000000E+000	0.0000000E+000	0.0000000E+000	-77.5159	0.0000000E+000	0.0000000E+000	0.0000000E+000	-12.4841	0.0000000E+000	0.0000000E+000	0.0000000E+000	12.4841	4.51662	77.5159	-4.23715e-06	9.27593e-07	76569.7
46420.4	1.45648	0.323771	1.49203	-12.5329	2.8795	0.266511	-0.00185241	10.5895	0.498648	1	9	0.0050712	0.00339886	0	-1.03004e-05	0.654257	0.145439	0.670227	12.5329	498.647	2243.16	2297.91	-77.4671	0.0000000E+000	0.0000000E+000	0.0000000E+000	77.4671	0.0000000E+000	0.0000000E+000	0.0000000E+000	-77.4671	0.0000000E+000	0.0000000E+000	0.0000000E+000	-12.5329	0.0000000E+000	0.0000000E+000	0.0000000E+000	12.5329	4.49849	77.4671	-6.83567e-07	-4.93688e-07	143872
21544.7	1.60974	0.376474	1.65318	-13.1633	3.89448	0.266518	0.00493502	19.6221	1.01759	1	9	0.0052241	0.00316003	0	-4.51437e-06	0.589001	0.137751	0.604894	13.1633	1017.59	4351.07	4468.48	-76.8367	0.0000000E+000	0.0000000E+000	0.0000000E+000	76.8367	0.0000000E+000	0.0000000E+000	0.0000000E+000	-76.8367	0.0000000E+000	0.0000000E+000	0.0000000E+000	-13.1633	0.0000000E+000	0.0000000E+000	0.0000000E+000	13.1633	4.27585	76.8367	5.39514e-06	1.31527e-06	54005.6
10002.2	1.78393	0.458307	1.84186	-14.4082	4.62848	0.266519	0.00487906	34.719	2.14965	1	9	0.00497259	0.00269977	0	-3.42722e-06	0.525854	0.135097	0.54293	14.4082	2149.65	8367.36	8639.08	-75.5918	0.0000000E+000	0.0000000E+000	0.0000000E+000	75.5918	0.0000000E+000	0.0000000E+000	0.0000000E+000	-75.5918	0.0000000E+000	0.0000000E+000	0.0000000E+000	-14.4082	0.0000000E+000	0.0000000E+000	0.0000000E+000	14.4082	3.89243	75.5918	-1.27563e-06	1.30036e-06	54625
4641.49	1.9891	0.594695	2.07609	-16.6455	5.47671	0.266518	0.038033	57.6592	4.73112	1	9	0.00477688	0.0023009	0	-7.82167e-06	0.46149	0.137975	0.481674	16.6455	4731.12	15824.3	16516.4	-73.3545	0.0000000E+000	0.0000000E+000	0.0000000E+000	73.3545	0.0000000E+000	0.0000000E+000	0.0000000E+000	-73.3545	0.0000000E+000	0.0000000E+000	0.0000000E+000	-16.6455	0.0000000E+000	0.0000000E+000	0.0000000E+000	16.6455	3.34473	73.3545	2.18823e-06	1.01365e-05	7007.53
2155.69	2.23501	0.814091	2.37866	-20.0139	6.41071	0.266532	0.0398604	90.6904	10.6229	1	9	0.0046754	0.00196556	0	5.56948e-08	0.395017	0.143883	0.420405	20.0139	10622.9	29164.2	31038.6	-69.9861	0.0000000E+000	0.0000000E+000	0.0000000E+000	69.9861	0.0000000E+000	0.0000000E+000	0.0000000E+000	-69.9861	0.0000000E+000	0.0000000E+000	0.0000000E+000	-20.0139	0.0000000E+000	0.0000000E+000	0.0000000E+000	20.0139	2.74541	69.9861	5.0358e-06	1.06241e-05	6686.63
1000.32	2.57172	1.20637	2.84061	-25.1309	7.3467	0.266535	0.0365786	131.887	23.787	1	9	0.00462888	0.00162954	0	8.34437e-06	0.318714	0.149506	0.352037	25.1309	23787	50708.6	56010.6	-64.8691	0.0000000E+000	0.0000000E+000	0.0000000E+000	64.8691	0.0000000E+000	0.0000000E+000	0.0000000E+000	-64.8691	0.0000000E+000	0.0000000E+000	0.0000000E+000	-25.1309	0.0000000E+000	0.0000000E+000	0.0000000E+000	25.1309	2.13178	64.8691	3.16944e-06	9.74948e-06	7286.66
463.961	3.09203	1.88701	3.62236	-31.395	8.53518	0.26653	-0.0266286	181.788	49.3323	1	10	0.00465339	0.00128463	0	5.00527e-06	0.235647	0.143811	0.276063	31.395	49332.3	80835.2	94699.5	-58.605	0.0000000E+000	0.0000000E+000	0.0000000E+000	58.605	0.0000000E+000	0.0000000E+000	0.0000000E+000	-58.605	0.0000000E+000	0.0000000E+000	0.0000000E+000	-31.395	0.0000000E+000	0.0000000E+000	0.0000000E+000	31.395	1.63859	58.605	-2.9115e-06	-7.09732e-06	10009.2
215.345	4.11737	2.93729	5.05771	-35.5036	9.46946	0.266527	-0.0256311	251.617	84.8643	1	10	0.00461547	0.000912562	0	-2.66207e-06	0.160958	0.114826	0.197718	35.5036	84864.3	118959	146128	-54.4964	0.0000000E+000	0.0000000E+000	0.0000000E+000	54.4964	0.0000000E+000	0.0000000E+000	0.0000000E+000	-54.4964	0.0000000E+000	0.0000000E+000	0.0000000E+000	-35.5036	0.0000000E+000	0.0000000E+000	0.0000000E+000	35.5036	1.40176	54.4964	-4.11584e-06	-6.83137e-06	10398.6
100.032	6.00379	4.0989	7.26956	-34.3221	10.4007	0.266499	-0.0264776	388.162	123.405	1	10	0.00459358	0.000631892	0	-8.43707e-06	0.113608	0.0775624	0.13756	34.3221	123405	180755	218863	-55.6779	0.0000000E+000	0.0000000E+000	0.0000000E+000	55.6779	0.0000000E+000	0.0000000E+000	0.0000000E+000	-55.6779	0.0000000E+000	0.0000000E+000	0.0000000E+000	-34.3221	0.0000000E+000	0.0000000E+000	0.0000000E+000	34.3221	1.46473	55.6779	-2.78633e-06	-7.05623e-06	10065.1
46.4415	8.80793	4.58958	9.93196	-27.5228	11.3345	0.266499	-0.027751	746.69	159.447	1	10	0.00458397	0.000461538	0	-1.45045e-05	0.0892902	0.0465268	0.100685	27.5228	159447	305997	345047	-62.4772	0.0000000E+000	0.0000000E+000	0.0000000E+000	62.4772	0.0000000E+000	0.0000000E+000	0.0000000E+000	-62.4772	0.0000000E+000	0.0000000E+000	0.0000000E+000	-27.5228	0.0000000E+000	0.0000000E+000	0.0000000E+000	27.5228	1.91911	62.4772	-3.26534e-06	-7.39562e-06	9603.25
21.5517	11.511	3.81567	12.1269	-18.3394	12.2203	0.266498	-0.0297291	1935.39	191.605	1	10	0.00458247	0.000377876	0	-2.19876e-05	0.0782729	0.025946	0.0824612	18.3394	191605	578029	608959	-71.6606	0.0000000E+000	0.0000000E+000	0.0000000E+000	71.6606	0.0000000E+000	0.0000000E+000	0.0000000E+000	-71.6606	0.0000000E+000	0.0000000E+000	0.0000000E+000	-18.3394	0.0000000E+000	0.0000000E+000	0.0000000E+000	18.3394	3.01677	71.6606	-4.10821e-06	-7.92277e-06	8964.21
10.0032	13.1307	2.58276	13.3823	-11.1278	13.4217	0.266533	-0.022398	6160.22	229.457	1	11	0.00458347	0.000342502	0	-2.88187e-05	0.0733204	0.0144218	0.0747253	11.1278	229457	1.16656e+06	1.18891e+06	-78.8722	0.0000000E+000	0.0000000E+000	0.0000000E+000	78.8722	0.0000000E+000	0.0000000E+000	0.0000000E+000	-78.8722	0.0000000E+000	0.0000000E+000	0.0000000E+000	-11.1278	0.0000000E+000	0.0000000E+000	0.0000000E+000	11.1278	5.08399	78.8722	-4.39165e-06	-5.96982e-06	11899.8
4.63925	13.88	1.66579	13.9796	-6.84355	14.2813	0.266542	-0.0216349	20594.5	292.417	1	11	0.00457982	0.000327607	0	-3.54386e-05	0.0710231	0.00852375	0.0715328	6.84355	292417	2.43653e+06	2.45402e+06	-83.1565	0.0000000E+000	0.0000000E+000	0.0000000E+000	83.1565	0.0000000E+000	0.0000000E+000	0.0000000E+000	-83.1565	0.0000000E+000	0.0000000E+000	0.0000000E+000	-6.84355	0.0000000E+000	0.0000000E+000	0.0000000E+000	6.84355	8.33238	83.1565	-7.67308e-06	-5.76661e-06	12320
2.15577	14.3526	1.20627	14.4032	-4.80416	16.0067	0.266544	-0.0198465	61203.1	429.285	1	11	0.00458863	0.000318584	0	-3.70053e-05	0.0691851	0.0058147	0.069429	4.80416	429285	5.10776e+06	5.12577e+06	-85.1958	0.0000000E+000	0.0000000E+000	0.0000000E+000	85.1958	0.0000000E+000	0.0000000E+000	0.0000000E+000	-85.1958	0.0000000E+000	0.0000000E+000	0.0000000E+000	-4.80416	0.0000000E+000	0.0000000E+000	0.0000000E+000	4.80416	11.8983	85.1958	1.09233e-06	-5.28997e-06	13430.3
1.00006	14.7512	1.03201	14.7873	-4.00193	19.6203	0.266563	-0.015552	154209	751.098	1	11	0.00458993	0.000310397	0	-5.77452e-05	0.0674607	0.00471959	0.0676256	4.00193	751098	1.0736e+07	1.07623e+07	-85.9981	0.0000000E+000	0.0000000E+000	0.0000000E+000	85.9981	0.0000000E+000	0.0000000E+000	0.0000000E+000	-85.9981	0.0000000E+000	0.0000000E+000	0.0000000E+000	-4.00193	0.0000000E+000	0.0000000E+000	0.0000000E+000	4.00193	14.2938	85.9981	-1.6117e-05	-4.14559e-06	17140.1
0.464091	15.1608	1.00237	15.1939	-3.78265	27.3055	0.266533	-0.0151857	342130	1489.04	1	11	0.00459374	0.000302342	0	-0.000121829	0.0656726	0.004342	0.065816	3.78265	1.48904e+06	2.25217e+07	2.25709e+07	-86.2173	0.0000000E+000	0.0000000E+000	0.0000000E+000	86.2173	0.0000000E+000	0.0000000E+000	0.0000000E+000	-86.2173	0.0000000E+000	0.0000000E+000	0.0000000E+000	-3.78265	0.0000000E+000	0.0000000E+000	0.0000000E+000	3.78265	15.125	86.2173	-3.6135e-05	-4.04747e-06	17551.6
0.215268	15.5534	1.19198	15.599	-4.38245	43.7847	0.266529	-0.013947	620258	3621.72	1	11	0.00459184	0.000294367	0	-0.000175066	0.0639191	0.00489862	0.0641066	4.38245	3.62172e+06	4.72576e+07	4.73962e+07	-85.6175	0.0000000E+000	0.0000000E+000	0.0000000E+000	85.6175	0.0000000E+000	0.0000000E+000	0.0000000E+000	-85.6175	0.0000000E+000	0.0000000E+000	0.0000000E+000	-4.38245	0.0000000E+000	0.0000000E+000	0.0000000E+000	4.38245	13.0484	85.6175	-1.8622e-05	-3.71727e-06	19110.2
0.0999041	15.9216	1.63074	16.0049	-5.84801	79.1909	0.266528	-0.00825717	976907	10141.8	1	11	0.00458904	0.000286727	0	-0.000150693	0.0621557	0.00636617	0.0624809	5.84801	1.01418e+07	9.90189e+07	9.95369e+07	-84.152	0.0000000E+000	0.0000000E+000	0.0000000E+000	84.152	0.0000000E+000	0.0000000E+000	0.0000000E+000	-84.152	0.0000000E+000	0.0000000E+000	0.0000000E+000	-5.84801	0.0000000E+000	0.0000000E+000	0.0000000E+000	5.84801	9.76344	84.152	2.40392e-05	-2.20076e-06	32278.3
0.0464052	16.5537	2.7008	16.7726	-9.26638	170.181	0.266532	-0.00165322	1.26988e+06	32926.6	1	12	0.00458632	0.000273442	0	-0.00017477	0.0588432	0.00960049	0.0596212	9.26638	3.29266e+07	2.01813e+08	2.04482e+08	-80.7336	0.0000000E+000	0.0000000E+000	0.0000000E+000	80.7336	0.0000000E+000	0.0000000E+000	0.0000000E+000	-80.7336	0.0000000E+000	0.0000000E+000	0.0000000E+000	-9.26638	0.0000000E+000	0.0000000E+000	0.0000000E+000	9.26638	6.12918	80.7336	-2.89526e-05	-4.40635e-07	161220
0.0215268	17.3874	4.72856	18.0189	-15.2138	334.41	0.266537	-0.00124599	1.56355e+06	107675	1	12	0.00458605	0.000254513	0	-0.000716779	0.0535523	0.0145637	0.0554973	15.2138	1.07675e+08	3.9593e+08	4.10311e+08	-74.7862	0.0000000E+000	0.0000000E+000	0.0000000E+000	74.7862	0.0000000E+000	0.0000000E+000	0.0000000E+000	-74.7862	0.0000000E+000	0.0000000E+000	0.0000000E+000	-15.2138	0.0000000E+000	0.0000000E+000	0.0000000E+000	15.2138	3.6771	74.7862	-0.000367983	-3.32102e-07	213916
0.0100092	19.1871	8.41524	20.9514	-23.6817	687.625	0.266534	-0.00285551	1.88954e+06	304834	1	12	0.0045878	0.000218974	0	-0.00161256	0.0437103	0.0191708	0.0477295	23.6817	3.04834e+08	6.95033e+08	7.58943e+08	-66.3183	0.0000000E+000	0.0000000E+000	0.0000000E+000	66.3183	0.0000000E+000	0.0000000E+000	0.0000000E+000	-66.3183	0.0000000E+000	0.0000000E+000	0.0000000E+000	-23.6817	0.0000000E+000	0.0000000E+000	0.0000000E+000	23.6817	2.28004	66.3183	-0.000383255	-7.61092e-07	93340.3