File: txt/17487_R279_UA654_SOC00_C05.mpt
EC-Lab ASCII FILE
Nb header lines : 63

Potentio Electrochemical Impedance Spectroscopy

Run on channel : 5 (SN 65912)
User :
CE vs. WE compliance from -10 V to 10 V
Electrode connection : standard
Potential control : Ewe
Ewe ctrl range : min = -10.00 V, max = 10.00 V
Safety Limits :
	Do not start on E overload
Acquisition started on : 09/15/2025 08:59:45.599
Loaded Setting File :  C:\Users\Celltest\OneDrive - store-dot.com\Documents\EC-Lab\Data\Charmaine\R279\17382_C01.mpr
Saved on :
	File : 17487_C05.mpr
	Directory : C:\Users\Celltest\OneDrive - store-dot.com\Documents\EC-Lab\Data\Charmaine\R279\
	Host : 169.254.61.224
Device : VMP-3e (SN .003165)
Address : USB
EC-LAB for windows v11.62 (software)
Internet server v27.00 (firmware)
Command interpretor v12.03 (firmware)
Electrode material :
Initial state :
Electrolyte :
Comments :
Electrode surface area : 0.001 cm²
Characteristic mass : 0.001 g
Equivalent Weight : 0.000 g/eq.
Density : 0.000 g/cm3
Volume (V) : 0.001 cm³
Cycle Definition : Charge/Discharge alternance
Mode                Single sine
E (V)               0.0000
vs.                 Eoc
tE (h:m:s)          0:00:0.0000
record              0
dI                  0.000
unit dI             mA
dt (s)              0.000
fi                  100.000
unit fi             kHz
ff                  10.000
unit ff             mHz
Nd                  6
Points              per decade
spacing             Logarithmic
Va (mV)             5.0
pw                  0.10
Na                  2
corr                0
E range min (V)     -10.000
E range max (V)     10.000
I Range             Auto
Bandwidth           5
nc cycles           0
goto Ns'            0
nr cycles           0
inc. cycle          0

freq/Hz	Re(Z)/Ohm	-Im(Z)/Ohm	|Z|/Ohm	Phase(Z)/deg	time/s	<Ewe>/V	<I>/mA	Cs/µF	Cp/µF	cycle number	I Range	|Ewe|/V	|I|/A	Ns	(Q-Qo)/mA.h	Re(Y)/Ohm-1	Im(Y)/Ohm-1	|Y|/Ohm-1	Phase(Y)/deg	Re(C)/nF	Im(C)/nF	|C|/nF	Phase(C)/deg	Re(M)	Im(M)	|M|	Phase(M)/deg	Re(Permittivity)	Im(Permittivity)	|Permittivity|	Phase(Permittivity)/deg	Re(Resistivity)/Ohm.cm	Im(Resistivity)/Ohm.cm	|Resistivity|/Ohm.cm	Phase(Resistivity)/deg	Re(Conductivity)/mS/cm	Im(Conductivity)/mS/cm	|Conductivity|/mS/cm	Phase(Conductivity)/deg	Tan(Delta)	Loss Angle(Delta)/deg	dq/mA.h	Pwe/W	Rwe/Ohm
100004	1.4818	0.289319	1.50978	-11.0479	2.06648	0.28173	-0.0235198	5.50082	0.202001	1	9	0.00459619	0.00304428	0	-4.66007e-07	0.650073	0.126925	0.662348	11.0479	202.001	1034.58	1054.12	-78.9521	0.0000000E+000	0.0000000E+000	0.0000000E+000	78.9521	0.0000000E+000	0.0000000E+000	0.0000000E+000	-78.9521	0.0000000E+000	0.0000000E+000	0.0000000E+000	-11.0479	0.0000000E+000	0.0000000E+000	0.0000000E+000	11.0479	5.12169	78.9521	-4.66007e-07	-6.62623e-06	11978.4
46420.4	1.63067	0.373761	1.67296	-12.9096	3.22247	0.281716	-0.0280259	9.17313	0.457865	1	9	0.00508629	0.0030403	0	-3.17274e-06	0.582636	0.133544	0.597744	12.9096	457.865	1997.6	2049.4	-77.0904	0.0000000E+000	0.0000000E+000	0.0000000E+000	77.0904	0.0000000E+000	0.0000000E+000	0.0000000E+000	-77.0904	0.0000000E+000	0.0000000E+000	0.0000000E+000	-12.9096	0.0000000E+000	0.0000000E+000	0.0000000E+000	12.9096	4.36286	77.0904	-4.29751e-06	-7.89533e-06	10052
21544.7	1.81985	0.493279	1.88552	-15.1659	4.23748	0.28173	-0.0244322	14.9757	1.02497	1	9	0.00512048	0.00271569	0	-1.24772e-06	0.511887	0.13875	0.530359	15.1659	1024.97	3781.42	3917.87	-74.8341	0.0000000E+000	0.0000000E+000	0.0000000E+000	74.8341	0.0000000E+000	0.0000000E+000	0.0000000E+000	-74.8341	0.0000000E+000	0.0000000E+000	0.0000000E+000	-15.1659	0.0000000E+000	0.0000000E+000	0.0000000E+000	15.1659	3.68929	74.8341	-1.52354e-06	-6.88328e-06	11531.1
10002.2	2.06586	0.637888	2.1621	-17.1594	4.82948	0.281724	-0.0289941	24.9447	2.17128	1	9	0.00479784	0.00221906	0	-4.09202e-06	0.441925	0.136456	0.462513	17.1594	2171.28	7031.9	7359.49	-72.8406	0.0000000E+000	0.0000000E+000	0.0000000E+000	72.8406	0.0000000E+000	0.0000000E+000	0.0000000E+000	-72.8406	0.0000000E+000	0.0000000E+000	0.0000000E+000	-17.1594	0.0000000E+000	0.0000000E+000	0.0000000E+000	17.1594	3.23859	72.8406	-3.00411e-06	-8.16832e-06	9716.58
4641.49	2.38083	0.845131	2.52638	-19.5435	5.67871	0.281764	0.0227134	40.5732	4.54036	1	9	0.00453919	0.00179672	0	-9.97919e-06	0.373019	0.132412	0.395824	19.5435	4540.36	12790.7	13572.7	-70.4565	0.0000000E+000	0.0000000E+000	0.0000000E+000	70.4565	0.0000000E+000	0.0000000E+000	0.0000000E+000	-70.4565	0.0000000E+000	0.0000000E+000	0.0000000E+000	-19.5435	0.0000000E+000	0.0000000E+000	0.0000000E+000	19.5435	2.81711	70.4565	2.52087e-06	6.3998e-06	12405.2
2155.69	2.76775	1.13169	2.99018	-22.2389	6.8357	0.281763	0.0236257	65.239	9.34474	1	9	0.00495263	0.0016563	0	-6.72182e-06	0.309552	0.126571	0.334429	22.2389	9344.73	22854.3	24690.9	-67.7611	0.0000000E+000	0.0000000E+000	0.0000000E+000	67.7611	0.0000000E+000	0.0000000E+000	0.0000000E+000	-67.7611	0.0000000E+000	0.0000000E+000	0.0000000E+000	-22.2389	0.0000000E+000	0.0000000E+000	0.0000000E+000	22.2389	2.44568	67.7611	1.46197e-06	6.65685e-06	11926.1
1000.32	3.21581	1.59227	3.58842	-26.3417	8.02568	0.281718	-0.00908911	99.923	19.6739	1	10	0.00500856	0.00139576	0	-5.11023e-06	0.249738	0.123654	0.278674	26.3417	19673.9	39734.3	44338.2	-63.6583	0.0000000E+000	0.0000000E+000	0.0000000E+000	63.6583	0.0000000E+000	0.0000000E+000	0.0000000E+000	-63.6583	0.0000000E+000	0.0000000E+000	0.0000000E+000	-26.3417	0.0000000E+000	0.0000000E+000	0.0000000E+000	26.3417	2.01964	63.6583	-1.36659e-06	-2.56056e-06	30995.1
463.961	3.85849	2.43409	4.5621	-32.2454	8.96022	0.281713	-0.00883405	140.929	40.1186	1	10	0.00494251	0.00108338	0	-7.35976e-06	0.185391	0.116952	0.219197	32.2454	40118.6	63595.5	75192.4	-57.7546	0.0000000E+000	0.0000000E+000	0.0000000E+000	57.7546	0.0000000E+000	0.0000000E+000	0.0000000E+000	-57.7546	0.0000000E+000	0.0000000E+000	0.0000000E+000	-32.2454	0.0000000E+000	0.0000000E+000	0.0000000E+000	32.2454	1.58519	57.7546	-1.32514e-06	-2.48866e-06	31889.4
215.345	4.95908	3.89146	6.30364	-38.1218	9.89444	0.281707	-0.00963833	189.921	72.3795	1	10	0.00490708	0.000778451	0	-1.05894e-05	0.124801	0.0979331	0.158638	38.1218	72379.5	92236.8	117245	-51.8782	0.0000000E+000	0.0000000E+000	0.0000000E+000	51.8782	0.0000000E+000	0.0000000E+000	0.0000000E+000	-51.8782	0.0000000E+000	0.0000000E+000	0.0000000E+000	-38.1218	0.0000000E+000	0.0000000E+000	0.0000000E+000	38.1218	1.27435	51.8782	-1.51816e-06	-2.71518e-06	29227.7
100.032	7.12578	6.00893	9.32115	-40.1398	10.8257	0.281709	-0.00919339	264.779	110.037	1	10	0.00488521	0.000524099	0	-1.19073e-05	0.0820149	0.0691604	0.107283	40.1398	110037	130489	170691	-49.8602	0.0000000E+000	0.0000000E+000	0.0000000E+000	49.8602	0.0000000E+000	0.0000000E+000	0.0000000E+000	-49.8602	0.0000000E+000	0.0000000E+000	0.0000000E+000	-40.1398	0.0000000E+000	0.0000000E+000	0.0000000E+000	40.1398	1.18586	49.8602	-5.89235e-07	-2.58986e-06	30642.6
46.4415	11.092	8.15785	13.7689	-36.3335	11.7596	0.281707	-0.011016	420.086	147.466	1	10	0.00488449	0.000354748	0	-1.35807e-05	0.0585074	0.0430306	0.0726274	36.3335	147466	200505	248894	-53.6665	0.0000000E+000	0.0000000E+000	0.0000000E+000	53.6665	0.0000000E+000	0.0000000E+000	0.0000000E+000	-53.6665	0.0000000E+000	0.0000000E+000	0.0000000E+000	-36.3335	0.0000000E+000	0.0000000E+000	0.0000000E+000	36.3335	1.35967	53.6666	-1.0115e-06	-3.10328e-06	25572.5
21.5517	16.7162	8.75684	18.871	-27.6479	12.8853	0.281727	-0.00436157	843.317	181.592	1	11	0.00487902	0.000258546	0	-1.67217e-05	0.0469406	0.0245899	0.0529914	27.6479	181592	346646	391330	-62.3521	0.0000000E+000	0.0000000E+000	0.0000000E+000	62.3521	0.0000000E+000	0.0000000E+000	0.0000000E+000	-62.3521	0.0000000E+000	0.0000000E+000	0.0000000E+000	-27.6479	0.0000000E+000	0.0000000E+000	0.0000000E+000	27.6479	1.90894	62.3521	-1.51621e-06	-1.22877e-06	64593.2
10.0032	21.5493	7.01833	22.6634	-18.0398	13.8307	0.281727	-0.00392595	2266.98	217.403	1	11	0.00488069	0.000215356	0	-1.56879e-05	0.041955	0.0136642	0.044124	18.0398	217403	667521	702031	-71.9602	0.0000000E+000	0.0000000E+000	0.0000000E+000	71.9602	0.0000000E+000	0.0000000E+000	0.0000000E+000	-71.9602	0.0000000E+000	0.0000000E+000	0.0000000E+000	-18.0398	0.0000000E+000	0.0000000E+000	0.0000000E+000	18.0398	3.07043	71.9602	1.21505e-06	-1.10605e-06	71760.1
4.63925	24.2562	4.80743	24.728	-11.2104	14.6913	0.281733	-0.00379117	7136.07	269.715	1	11	0.00487521	0.000197153	0	-1.6214e-05	0.0396683	0.00786201	0.0404399	11.2104	269715	1.36087e+06	1.38734e+06	-78.7896	0.0000000E+000	0.0000000E+000	0.0000000E+000	78.7896	0.0000000E+000	0.0000000E+000	0.0000000E+000	-78.7896	0.0000000E+000	0.0000000E+000	0.0000000E+000	-11.2104	0.0000000E+000	0.0000000E+000	0.0000000E+000	11.2104	5.04557	78.7896	2.28932e-06	-1.0681e-06	74312.8
2.15577	25.7444	3.45978	25.9758	-7.65411	16.4158	0.281739	-0.00210373	21338.8	378.555	1	11	0.00488166	0.000187931	0	-2.11156e-05	0.0381543	0.00512755	0.0384973	7.65411	378554	2.81684e+06	2.84216e+06	-82.3459	0.0000000E+000	0.0000000E+000	0.0000000E+000	82.3459	0.0000000E+000	0.0000000E+000	0.0000000E+000	-82.3459	0.0000000E+000	0.0000000E+000	0.0000000E+000	-7.65411	0.0000000E+000	0.0000000E+000	0.0000000E+000	7.65411	7.44104	82.3459	-4.41118e-06	-5.92701e-07	133924
1.00006	26.9065	2.89052	27.0613	-6.13168	21.0802	0.281742	-0.00167246	55057.5	628.161	1	12	0.00488397	0.000180478	0	-2.4329e-05	0.0367417	0.0039471	0.0369531	6.13168	628161	5.84726e+06	5.8809e+06	-83.8683	0.0000000E+000	0.0000000E+000	0.0000000E+000	83.8683	0.0000000E+000	0.0000000E+000	0.0000000E+000	-83.8683	0.0000000E+000	0.0000000E+000	0.0000000E+000	-6.13168	0.0000000E+000	0.0000000E+000	0.0000000E+000	6.13168	9.30853	83.8683	8.19396e-07	-4.71203e-07	168460
0.464091	28.1104	2.76548	28.2461	-5.61865	28.7626	0.281744	-0.00152413	124007	1188.7	1	12	0.00488623	0.000172988	0	-9.83155e-06	0.0352331	0.00346621	0.0354032	5.61865	1.1887e+06	1.20828e+07	1.21411e+07	-84.3813	0.0000000E+000	0.0000000E+000	0.0000000E+000	84.3813	0.0000000E+000	0.0000000E+000	0.0000000E+000	-84.3813	0.0000000E+000	0.0000000E+000	0.0000000E+000	-5.61865	0.0000000E+000	0.0000000E+000	0.0000000E+000	5.61865	10.1647	84.3813	7.76144e-06	-4.29414e-07	184855
0.215268	29.4138	2.88218	29.5546	-5.5964	45.2418	0.281746	-0.000443031	256519	2439.55	1	12	0.00488573	0.000165312	0	-2.03904e-05	0.0336744	0.00329966	0.0338356	5.5964	2.43955e+06	2.48966e+07	2.50159e+07	-84.4036	0.0000000E+000	0.0000000E+000	0.0000000E+000	84.4036	0.0000000E+000	0.0000000E+000	0.0000000E+000	-84.4036	0.0000000E+000	0.0000000E+000	0.0000000E+000	-5.5964	0.0000000E+000	0.0000000E+000	0.0000000E+000	5.5964	10.2054	84.4036	-1.21626e-05	-1.24822e-07	635951
0.0999041	30.6742	3.12046	30.8325	-5.80867	80.6473	0.281748	-0.000663051	510527	5229.23	1	12	0.00488491	0.000158434	0	-9.79424e-05	0.0322668	0.00328247	0.0324333	5.80867	5.22923e+06	5.14034e+07	5.16687e+07	-84.1913	0.0000000E+000	0.0000000E+000	0.0000000E+000	84.1913	0.0000000E+000	0.0000000E+000	0.0000000E+000	-84.1913	0.0000000E+000	0.0000000E+000	0.0000000E+000	-5.80867	0.0000000E+000	0.0000000E+000	0.0000000E+000	5.80867	9.83003	84.1913	-4.68215e-05	-1.86813e-07	424926
0.0464052	31.9872	4.01804	32.2386	-7.15965	156.884	0.281748	-0.00226484	853570	13259.2	1	12	0.00488516	0.000151532	0	-0.000181174	0.0307769	0.003866	0.0310187	7.15965	1.32592e+07	1.05555e+08	1.06384e+08	-82.8403	0.0000000E+000	0.0000000E+000	0.0000000E+000	82.8403	0.0000000E+000	0.0000000E+000	0.0000000E+000	-82.8403	0.0000000E+000	0.0000000E+000	0.0000000E+000	-7.15965	0.0000000E+000	0.0000000E+000	0.0000000E+000	7.15965	7.9609	82.8403	-3.15318e-05	-6.38114e-07	124401
0.0215268	33.3141	6.0902	33.8662	-10.3599	321.114	0.281748	-0.00211946	1.21397e+06	39259.1	1	12	0.00488546	0.000144258	0	-2.93637e-05	0.0290466	0.00531006	0.029528	10.3599	3.92591e+07	2.14752e+08	2.18311e+08	-79.6401	0.0000000E+000	0.0000000E+000	0.0000000E+000	79.6401	0.0000000E+000	0.0000000E+000	0.0000000E+000	-79.6401	0.0000000E+000	0.0000000E+000	0.0000000E+000	-10.3599	0.0000000E+000	0.0000000E+000	0.0000000E+000	10.3599	5.47011	79.6401	0.000121413	-5.97154e-07	132934
0.0100092	35.6903	10.2161	37.1237	-15.9735	674.33	0.281755	-0.000557439	1.55645e+06	117871	1	12	0.00488683	0.000131636	0	0.000313511	0.0258969	0.00741285	0.026937	15.9735	1.17871e+08	4.11785e+08	4.28323e+08	-74.0265	0.0000000E+000	0.0000000E+000	0.0000000E+000	74.0265	0.0000000E+000	0.0000000E+000	0.0000000E+000	-74.0265	0.0000000E+000	0.0000000E+000	0.0000000E+000	-15.9735	0.0000000E+000	0.0000000E+000	0.0000000E+000	15.9735	3.49352	74.0265	0.000149841	-1.57061e-07	505446