File: txt/17494_R280_UC81_SOC50_C03.mpt
EC-Lab ASCII FILE
Nb header lines : 64

Potentio Electrochemical Impedance Spectroscopy

Run on channel : 3 (SN 65921)
User :
CE vs. WE compliance from -10 V to 10 V
Electrode connection : standard
Potential control : Ewe
Ewe ctrl range : min = -10.00 V, max = 10.00 V
Safety Limits :
	Do not start on E overload
Acquisition started on : 09/15/2025 12:22:15.638
Loaded Setting File :  C:\Users\Celltest\OneDrive - store-dot.com\Documents\EC-Lab\Data\John\17493_R280-G001, UC81 half-cell.mps
Saved on :
	File : 17494_R280-G001, UC81 half-cell_C03.mpr
	Directory : C:\Users\Celltest\OneDrive - store-dot.com\Documents\EC-Lab\Data\Gyutae\
	Host : 169.254.61.224
Device : VMP-3e (SN .003165)
Address : USB
EC-LAB for windows v11.62 (software)
Internet server v27.00 (firmware)
Command interpretor v12.03 (firmware)
Electrode material :
Initial state :
Electrolyte :
Comments :
Electrode surface area : 0.001 cm²
Characteristic mass : 0.001 g
Equivalent Weight : 0.000 g/eq.
Density : 0.000 g/cm3
Volume (V) : 0.001 cm³
Record Ece
Cycle Definition : Charge/Discharge alternance
Mode                Multi sine
E (V)               0.0000
vs.                 Eoc
tE (h:m:s)          0:00:0.0000
record              0
dI                  0.000
unit dI             mA
dt (s)              0.000
fi                  1.000
unit fi             MHz
ff                  0.100
unit ff             mHz
Nd                  10
Points              per decade
spacing             Logarithmic
Va (mV)             5.0
pw                  0.10
Na                  2
corr                0
E range min (V)     -10.000
E range max (V)     10.000
I Range             Auto
Bandwidth           5
nc cycles           0
goto Ns'            0
nr cycles           0
inc. cycle          0

freq/Hz	Re(Z)/Ohm	-Im(Z)/Ohm	|Z|/Ohm	Phase(Z)/deg	time/s	<Ewe>/V	<I>/mA	Cs/µF	Cp/µF	cycle number	I Range	|Ewe|/V	|I|/A	Ns	(Q-Qo)/mA.h	<Ece>/V	|Ece|/V	Phase(Zce)/deg	|Zce|/Ohm	Re(Zce)/Ohm	-Im(Zce)/Ohm	Phase(Zwe-ce)/deg	|Zwe-ce|/Ohm	Re(Zwe-ce)/Ohm	-Im(Zwe-ce)/Ohm	Re(Y)/Ohm-1	Im(Y)/Ohm-1	|Y|/Ohm-1	Phase(Y)/deg	Re(C)/nF	Im(C)/nF	|C|/nF	Phase(C)/deg	Re(M)	Im(M)	|M|	Phase(M)/deg	Re(Permittivity)	Im(Permittivity)	|Permittivity|	Phase(Permittivity)/deg	Re(Resistivity)/Ohm.cm	Im(Resistivity)/Ohm.cm	|Resistivity|/Ohm.cm	Phase(Resistivity)/deg	Re(Conductivity)/mS/cm	Im(Conductivity)/mS/cm	|Conductivity|/mS/cm	Phase(Conductivity)/deg	Tan(Delta)	Loss Angle(Delta)/deg	dq/mA.h	Pwe/W	Pce/W	Pwe-ce/W	<Ewe-Ece>/V	Rwe/Ohm	Rce/Ohm	Rwe-ce/Ohm		Ewe-Ece/V
1.00002e+06	2.98397	1.8633	3.51795	-31.9822	1.77452	3.78184	-0.0586783	0.0854138	0.0239617	1	10	0.000245387	6.97528e-05	0	-3.81833e-05	-0.000208064	0.000198481	-63.0997	2.84549	1.28741	2.5376	-45.8557	6.13291	4.27138	4.4009	0.24111	0.150558	0.284257	31.9822	23.9617	38.3731	45.24	-58.0178	0.0000000E+000	0.0000000E+000	0.0000000E+000	58.0178	0.0000000E+000	0.0000000E+000	0.0000000E+000	-58.0178	0.0000000E+000	0.0000000E+000	0.0000000E+000	-31.9822	0.0000000E+000	0.0000000E+000	0.0000000E+000	31.9822	1.60144	58.0178	-3.81833e-05	-0.000221912	1.22088e-08	-0.000221924	3.78204	64450.3	3.54583	64453.8
251206	1.18937	0.0904936	1.19281	-4.35098	4.60252	3.78149	-0.0257017	7.00119	0.0402964	1	9	0.0031133	0.00261006	0	-6.05234e-05	-3.6217e-05	4.6318e-05	100.053	0.017746	-0.00309774	-0.0174735	-3.52235	1.18852	1.18627	0.0730201	0.835941	0.0636028	0.838357	4.35098	40.2964	529.621	531.152	-85.649	0.0000000E+000	0.0000000E+000	0.0000000E+000	85.649	0.0000000E+000	0.0000000E+000	0.0000000E+000	-85.649	0.0000000E+000	0.0000000E+000	0.0000000E+000	-4.35098	0.0000000E+000	0.0000000E+000	0.0000000E+000	4.35098	13.1432	85.649	-3.50123e-06	-9.71905e-05	9.30837e-10	-9.71914e-05	3.78152	147130	1.40913	147131
63093.8	1.38878	0.249977	1.4111	-10.2038	6.78056	3.78145	-0.0268951	10.091	0.316678	1	9	0.00534527	0.00378802	0	-9.64718e-05	-0.000246252	4.64445e-05	-41.7291	0.0122609	0.00915031	0.00816096	-10.4622	1.42157	1.39793	0.258138	0.697458	0.125541	0.708667	10.2038	316.678	1759.35	1787.62	-79.7962	0.0000000E+000	0.0000000E+000	0.0000000E+000	79.7962	0.0000000E+000	0.0000000E+000	0.0000000E+000	-79.7962	0.0000000E+000	0.0000000E+000	0.0000000E+000	-10.2038	0.0000000E+000	0.0000000E+000	0.0000000E+000	10.2038	5.55564	79.7962	-5.13358e-06	-0.000101702	6.62295e-09	-0.000101709	3.7817	140600	9.15602	140609
15847.7	1.63511	0.427566	1.69009	-14.6542	8.95652	3.78144	-0.0128354	23.4883	1.50327	1	9	0.00521104	0.00308329	0	-0.000104498	-0.000169875	1.06261e-05	-47.5089	0.00344636	0.00232794	0.00254129	-14.7174	1.69298	1.63744	0.430107	0.572438	0.149687	0.591685	14.6542	1503.27	5748.87	5942.17	-75.3458	0.0000000E+000	0.0000000E+000	0.0000000E+000	75.3458	0.0000000E+000	0.0000000E+000	0.0000000E+000	-75.3458	0.0000000E+000	0.0000000E+000	0.0000000E+000	-14.6542	0.0000000E+000	0.0000000E+000	0.0000000E+000	14.6542	3.82423	75.3458	-3.56233e-06	-4.85361e-05	2.18041e-09	-4.85383e-05	3.78161	294611	13.2349	294624
3983.6	2.07654	0.72317	2.19886	-19.201	10.5571	3.78129	-0.106368	55.2464	5.97569	1	9	0.00465035	0.00211489	0	-0.000119913	0.000173818	1.00029e-05	-100.003	0.00472977	-0.000821571	0.00465787	-19.3226	2.19963	2.07572	0.727828	0.429481	0.14957	0.45478	19.201	5975.69	17158.9	18169.6	-70.799	0.0000000E+000	0.0000000E+000	0.0000000E+000	70.799	0.0000000E+000	0.0000000E+000	0.0000000E+000	-70.799	0.0000000E+000	0.0000000E+000	0.0000000E+000	-19.201	0.0000000E+000	0.0000000E+000	0.0000000E+000	19.201	2.87145	70.799	-8.25933e-06	-0.000402207	-1.84886e-08	-0.000402188	3.78111	35549.2	1.63412	35547.6
1000.32	2.85594	1.26185	3.12228	-23.8374	13.1848	3.78138	-0.00847209	126.088	20.5941	1	9	0.00451089	0.00144474	0	-0.000137581	4.01593e-05	9.82047e-06	-11.7497	0.00679738	0.00665496	0.0013842	-23.8114	3.12893	2.86259	1.26323	0.292957	0.129438	0.320278	23.8374	20594.1	46610.7	50957.6	-66.1626	0.0000000E+000	0.0000000E+000	0.0000000E+000	66.1626	0.0000000E+000	0.0000000E+000	0.0000000E+000	-66.1626	0.0000000E+000	0.0000000E+000	0.0000000E+000	-23.8374	0.0000000E+000	0.0000000E+000	0.0000000E+000	23.8374	2.2633	66.1626	-1.72404e-06	-3.20362e-05	-3.40233e-10	-3.20358e-05	3.78134	446334	4.74018	446329
251.044	4.42581	1.82523	4.78741	-22.4115	16.346	3.78138	-0.0831845	347.338	50.4878	1	10	0.00488213	0.00101978	0	-0.000208572	-1.71229e-05	1.38617e-05	116.667	0.0135928	-0.00610052	-0.0121469	-22.3048	4.77714	4.41971	1.81308	0.193104	0.0796374	0.208881	22.4115	50487.8	122423	132425	-67.5885	0.0000000E+000	0.0000000E+000	0.0000000E+000	67.5885	0.0000000E+000	0.0000000E+000	0.0000000E+000	-67.5885	0.0000000E+000	0.0000000E+000	0.0000000E+000	-22.4115	0.0000000E+000	0.0000000E+000	0.0000000E+000	22.4115	2.4248	67.5885	-1.07132e-05	-0.000314553	1.42436e-09	-0.000314554	3.7814	45457.8	0.205843	45458
63.0823	6.24144	1.31519	6.3785	-11.8992	19.066	3.78139	-0.0776844	1918.34	81.5573	1	10	0.00485421	0.000761027	0	-0.000269517	-0.000150781	7.40782e-06	-41.8788	0.00973399	0.00724752	0.006498	-11.9428	6.38694	6.24869	1.32168	0.153408	0.0323259	0.156777	11.8992	81557.2	387044	395543	-78.1008	0.0000000E+000	0.0000000E+000	0.0000000E+000	78.1008	0.0000000E+000	0.0000000E+000	0.0000000E+000	-78.1008	0.0000000E+000	0.0000000E+000	0.0000000E+000	-11.8992	0.0000000E+000	0.0000000E+000	0.0000000E+000	11.8992	4.74567	78.1008	-9.75438e-06	-0.000293755	1.17134e-08	-0.000293767	3.78154	48676.3	1.94095	48678.2
15.8576	6.94585	0.582756	6.97025	-4.79588	21.7241	3.78136	-0.0869955	17222.5	120.385	1	10	0.00486559	0.000698051	0	-0.000334677	-0.000169875	1.57824e-05	132.245	0.0226092	-0.0152001	-0.0167371	-4.66893	6.95372	6.93065	0.566019	0.142965	0.0119947	0.143467	4.79588	120385	1.43487e+06	1.43991e+06	-85.2041	0.0000000E+000	0.0000000E+000	0.0000000E+000	85.2041	0.0000000E+000	0.0000000E+000	0.0000000E+000	-85.2041	0.0000000E+000	0.0000000E+000	0.0000000E+000	-4.79588	0.0000000E+000	0.0000000E+000	0.0000000E+000	4.79588	11.919	85.2041	-1.30785e-05	-0.000328961	1.47784e-08	-0.000328976	3.78153	43466.2	1.95269	43468.1
3.97785	7.13809	0.327006	7.14558	-2.62296	24.6373	3.78141	-0.0734037	122353	256.243	1	10	0.00484577	0.00067815	0	-0.000391357	4.01593e-05	7.7493e-06	20.3459	0.0114271	0.0107142	-0.00397305	-2.58726	7.1561	7.1488	0.323033	0.1398	0.00640443	0.139947	2.62296	256243	5.59344e+06	5.59931e+06	-87.377	0.0000000E+000	0.0000000E+000	0.0000000E+000	87.377	0.0000000E+000	0.0000000E+000	0.0000000E+000	-87.377	0.0000000E+000	0.0000000E+000	0.0000000E+000	-2.62296	0.0000000E+000	0.0000000E+000	0.0000000E+000	2.62296	21.8286	87.377	-1.2454e-05	-0.000277569	-2.94784e-09	-0.000277566	3.78137	51515.2	0.547101	51514.7
1.00469	7.52768	0.388189	7.53768	-2.95203	239.812	3.78141	-0.0597137	408078	1082.32	1	11	0.00503917	0.00066853	0	-0.00672223	-0.00018897	6.43901e-07	4.18852	0.000963159	0.000960586	-7.03475e-05	-2.95112	7.53863	7.52864	0.388119	0.132491	0.00683232	0.132667	2.95203	1.08232e+06	2.09881e+07	2.10159e+07	-87.048	0.0000000E+000	0.0000000E+000	0.0000000E+000	87.048	0.0000000E+000	0.0000000E+000	0.0000000E+000	-87.048	0.0000000E+000	0.0000000E+000	0.0000000E+000	-2.95203	0.0000000E+000	0.0000000E+000	0.0000000E+000	2.95203	19.3918	87.048	-0.00622695	-0.000225802	1.12841e-08	-0.000225813	3.7816	63325.6	3.16459	63328.8
0.251173	7.84485	0.682138	7.87445	-4.96957	239.818	3.78141	-0.0597137	928911	6970.73	1	11	0.00506542	0.000643273	0	-0.00672223	-0.00018897	7.18109e-07	-26.0056	0.00111634	0.00100331	0.000489468	-4.97249	7.87549	7.84585	0.682627	0.126516	0.011001	0.126993	4.96957	6.97072e+06	8.0166e+07	8.04685e+07	-85.0304	0.0000000E+000	0.0000000E+000	0.0000000E+000	85.0304	0.0000000E+000	0.0000000E+000	0.0000000E+000	-85.0304	0.0000000E+000	0.0000000E+000	0.0000000E+000	-4.96957	0.0000000E+000	0.0000000E+000	0.0000000E+000	4.96957	11.5004	85.0304	0.000000000000000E+000	-0.000225802	1.12841e-08	-0.000225813	3.7816	63325.6	3.16459	63328.8
0.0602816	8.42799	1.42222	8.54715	-9.57841	239.823	3.78141	-0.0597137	1.85638e+06	51399.6	1	11	0.00505919	0.000591916	0	-0.00672223	-0.00018897	5.05169e-07	18.9089	0.000853448	0.000807392	-0.000276572	-9.57568	8.5479	8.4288	1.42194	0.115367	0.0194682	0.116998	9.57841	5.13996e+07	3.04591e+08	3.08897e+08	-80.4216	0.0000000E+000	0.0000000E+000	0.0000000E+000	80.4216	0.0000000E+000	0.0000000E+000	0.0000000E+000	-80.4216	0.0000000E+000	0.0000000E+000	0.0000000E+000	-9.57841	0.0000000E+000	0.0000000E+000	0.0000000E+000	9.57841	5.92593	80.4216	0.000000000000000E+000	-0.000225802	1.12841e-08	-0.000225813	3.7816	63325.6	3.16459	63328.8
0.00796479	12.3093	3.99747	12.9422	-17.9913	20328.7	3.78142	0.000542868	4.99874e+06	476889	1	11	0.00505348	0.000390466	0	-0.0351048	-0.000322628	4.4322e-07	-150.013	0.0011351	-0.000983156	0.000567333	-17.995	12.9414	12.3084	3.99804	0.0734887	0.0238655	0.0772668	17.9913	4.76889e+08	1.46848e+09	1.54397e+09	-72.0087	0.0000000E+000	0.0000000E+000	0.0000000E+000	72.0087	0.0000000E+000	0.0000000E+000	0.0000000E+000	-72.0087	0.0000000E+000	0.0000000E+000	0.0000000E+000	-17.9913	0.0000000E+000	0.0000000E+000	0.0000000E+000	17.9913	3.07928	72.0087	-0.0283825	2.05281e-06	-1.75144e-10	2.05299e-06	3.78174	6.96563e+06	594.303	6.96623e+06
0.0019912	16.5367	5.83412	17.5356	-19.4328	20328.7	3.78142	0.000542868	1.37003e+07	1.51649e+06	1	11	0.00506688	0.000288948	0	-0.0351048	-0.000322628	5.81577e-07	-59.7476	0.00201274	0.00101404	0.00173863	-19.4371	17.5372	16.5377	5.83586	0.0537781	0.0189729	0.0570268	19.4328	1.51649e+09	4.29845e+09	4.55811e+09	-70.5672	0.0000000E+000	0.0000000E+000	0.0000000E+000	70.5672	0.0000000E+000	0.0000000E+000	0.0000000E+000	-70.5672	0.0000000E+000	0.0000000E+000	0.0000000E+000	-19.4328	0.0000000E+000	0.0000000E+000	0.0000000E+000	19.4328	2.83447	70.5672	0.000000000000000E+000	2.05281e-06	-1.75144e-10	2.05299e-06	3.78174	6.96563e+06	594.303	6.96623e+06
0.000497799	19.7165	8.51408	21.4763	-23.3559	20328.7	3.78142	0.000542868	3.75516e+07	5.90183e+06	1	11	0.00506716	0.000235942	0	-0.0351048	-0.000322628	7.86559e-07	14.275	0.0033337	0.00323076	-0.000822007	-23.3505	21.4789	19.7197	8.51326	0.0427477	0.0184595	0.046563	23.3559	5.90183e+09	1.36672e+10	1.4887e+10	-66.6441	0.0000000E+000	0.0000000E+000	0.0000000E+000	66.6441	0.0000000E+000	0.0000000E+000	0.0000000E+000	-66.6441	0.0000000E+000	0.0000000E+000	0.0000000E+000	-23.3559	0.0000000E+000	0.0000000E+000	0.0000000E+000	23.3559	2.31575	66.6441	0.000000000000000E+000	2.05281e-06	-1.75144e-10	2.05299e-06	3.78174	6.96563e+06	594.303	6.96623e+06
9.95598e-05	24.1252	36.0161	43.3496	-56.1841	20328.7	3.78142	0.000542868	4.43853e+07	3.06382e+07	1	11	0.00506797	0.000116909	0	-0.0351048	-0.000322628	2.12392e-06	-72.9592	0.0181672	0.00532393	0.0173696	-56.191	43.367	24.1305	36.0335	0.0128381	0.0191658	0.0230683	56.1841	3.06382e+10	2.05228e+10	3.68766e+10	-33.8159	0.0000000E+000	0.0000000E+000	0.0000000E+000	33.8159	0.0000000E+000	0.0000000E+000	0.0000000E+000	-33.8159	0.0000000E+000	0.0000000E+000	0.0000000E+000	-56.1841	0.0000000E+000	0.0000000E+000	0.0000000E+000	56.1841	0.669844	33.8159	0.000000000000000E+000	2.05281e-06	-1.75144e-10	2.05299e-06	3.78174	6.96563e+06	594.303	6.96623e+06