File: txt/17499_R280_UC81_SOC50_C07.mpt
EC-Lab ASCII FILE
Nb header lines : 64

Potentio Electrochemical Impedance Spectroscopy

Run on channel : 7 (SN 66126)
User :
CE vs. WE compliance from -10 V to 10 V
Electrode connection : standard
Potential control : Ewe
Ewe ctrl range : min = -10.00 V, max = 10.00 V
Safety Limits :
	Do not start on E overload
Acquisition started on : 09/15/2025 12:23:28.095
Loaded Setting File :  C:\Users\Celltest\OneDrive - store-dot.com\Documents\EC-Lab\Data\John\17498_R280-G002, UC81 half-cell.mps
Saved on :
	File : 17499_R280-G002, UC81 half-cell_C06_C07.mpr
	Directory : C:\Users\Celltest\OneDrive - store-dot.com\Documents\EC-Lab\Data\John\
	Host : 169.254.61.224
Device : VMP-3e (SN .003165)
Address : USB
EC-LAB for windows v11.62 (software)
Internet server v27.00 (firmware)
Command interpretor v12.03 (firmware)
Electrode material :
Initial state :
Electrolyte :
Comments :
Electrode surface area : 0.001 cm²
Characteristic mass : 0.001 g
Equivalent Weight : 0.000 g/eq.
Density : 0.000 g/cm3
Volume (V) : 0.001 cm³
Record Ece
Cycle Definition : Charge/Discharge alternance
Mode                Multi sine
E (V)               0.0000
vs.                 Eoc
tE (h:m:s)          0:00:0.0000
record              0
dI                  0.000
unit dI             mA
dt (s)              0.000
fi                  1.000
unit fi             MHz
ff                  0.100
unit ff             mHz
Nd                  10
Points              per decade
spacing             Logarithmic
Va (mV)             5.0
pw                  0.10
Na                  2
corr                0
E range min (V)     -10.000
E range max (V)     10.000
I Range             Auto
Bandwidth           5
nc cycles           0
goto Ns'            0
nr cycles           0
inc. cycle          0

freq/Hz	Re(Z)/Ohm	-Im(Z)/Ohm	|Z|/Ohm	Phase(Z)/deg	time/s	<Ewe>/V	<I>/mA	Cs/µF	Cp/µF	cycle number	I Range	|Ewe|/V	|I|/A	Ns	(Q-Qo)/mA.h	<Ece>/V	|Ece|/V	Phase(Zce)/deg	|Zce|/Ohm	Re(Zce)/Ohm	-Im(Zce)/Ohm	Phase(Zwe-ce)/deg	|Zwe-ce|/Ohm	Re(Zwe-ce)/Ohm	-Im(Zwe-ce)/Ohm	Re(Y)/Ohm-1	Im(Y)/Ohm-1	|Y|/Ohm-1	Phase(Y)/deg	Re(C)/nF	Im(C)/nF	|C|/nF	Phase(C)/deg	Re(M)	Im(M)	|M|	Phase(M)/deg	Re(Permittivity)	Im(Permittivity)	|Permittivity|	Phase(Permittivity)/deg	Re(Resistivity)/Ohm.cm	Im(Resistivity)/Ohm.cm	|Resistivity|/Ohm.cm	Phase(Resistivity)/deg	Re(Conductivity)/mS/cm	Im(Conductivity)/mS/cm	|Conductivity|/mS/cm	Phase(Conductivity)/deg	Tan(Delta)	Loss Angle(Delta)/deg	dq/mA.h	Pwe/W	Pce/W	Pwe-ce/W	<Ewe-Ece>/V	Rwe/Ohm	Rce/Ohm	Rwe-ce/Ohm		Ewe-Ece/V
1.00002e+06	2.51029	2.75091	3.72412	-47.6186	2.23456	3.78083	-0.0796812	0.0578542	0.0315675	1	10	0.000223045	5.9892e-05	0	-4.11954e-05	-0.00026937	0.000197758	-62.0186	3.30192	1.54921	2.91592	-54.3836	6.97084	4.0595	5.66684	0.180999	0.198348	0.268519	47.6186	31.5675	28.8064	42.7354	-42.3814	0.0000000E+000	0.0000000E+000	0.0000000E+000	42.3814	0.0000000E+000	0.0000000E+000	0.0000000E+000	-42.3814	0.0000000E+000	0.0000000E+000	0.0000000E+000	-47.6186	0.0000000E+000	0.0000000E+000	0.0000000E+000	47.6186	0.912531	42.3814	-4.11954e-05	-0.000301261	2.14637e-08	-0.000301282	3.7811	47449.4	3.3806	47452.8
251206	1.12724	0.144069	1.13641	-7.28329	4.93656	3.78099	0.00559273	4.39763	0.0706786	1	9	0.00275533	0.00242459	0	-4.47598e-05	-0.000536426	4.11991e-05	102.965	0.0169922	-0.00381226	-0.016559	-6.47539	1.13064	1.12343	0.12751	0.872861	0.111557	0.879961	7.28329	70.6786	553.013	557.511	-82.7167	0.0000000E+000	0.0000000E+000	0.0000000E+000	82.7167	0.0000000E+000	0.0000000E+000	0.0000000E+000	-82.7167	0.0000000E+000	0.0000000E+000	0.0000000E+000	-7.28329	0.0000000E+000	0.0000000E+000	0.0000000E+000	7.28329	7.82433	82.7167	-1.70391e-06	2.11461e-05	-3.00008e-09	2.11491e-05	3.78153	676055	95.9149	676151
63093.8	1.35552	0.278928	1.38392	-11.6276	7.11052	3.78104	0.0218649	9.04361	0.36737	1	9	0.0053376	0.00385687	0	-3.46934e-05	-0.000460124	2.10926e-05	78.7647	0.00546883	0.00106554	-0.00536402	-11.4011	1.38389	1.35658	0.273563	0.707757	0.145636	0.722586	11.6276	367.37	1785.33	1822.73	-78.3724	0.0000000E+000	0.0000000E+000	0.0000000E+000	78.3724	0.0000000E+000	0.0000000E+000	0.0000000E+000	-78.3724	0.0000000E+000	0.0000000E+000	0.0000000E+000	-11.6276	0.0000000E+000	0.0000000E+000	0.0000000E+000	11.6276	4.85975	78.3724	2.83428e-06	8.2672e-05	-1.00606e-08	8.26821e-05	3.7815	172927	21.044	172948
15847.7	1.63353	0.486207	1.70435	-16.5752	9.28452	3.78105	0.0185881	20.6554	1.68096	1	9	0.00456519	0.00267855	0	-1.95987e-05	1.67614e-05	1.02522e-05	-88.1014	0.00382751	0.000126811	0.00382541	-16.6972	1.70557	1.63366	0.490033	0.562352	0.16738	0.586733	16.5752	1680.96	5647.58	5892.44	-73.4248	0.0000000E+000	0.0000000E+000	0.0000000E+000	73.4248	0.0000000E+000	0.0000000E+000	0.0000000E+000	-73.4248	0.0000000E+000	0.0000000E+000	0.0000000E+000	-16.5752	0.0000000E+000	0.0000000E+000	0.0000000E+000	16.5752	3.35974	73.4248	-7.43065e-07	7.02826e-05	3.11562e-10	7.02823e-05	3.78103	203412	0.901724	203411
3983.6	2.13577	0.816249	2.28643	-20.9159	11.1331	3.78089	-0.065342	48.9465	6.23809	1	9	0.00463724	0.00202816	0	-1.56125e-05	-0.000307521	7.07554e-06	-41.7851	0.00348865	0.00260131	0.00232463	-20.947	2.28969	2.13837	0.818574	0.408543	0.156137	0.437363	20.9159	6238.09	16322.3	17473.8	-69.0841	0.0000000E+000	0.0000000E+000	0.0000000E+000	69.0841	0.0000000E+000	0.0000000E+000	0.0000000E+000	-69.0841	0.0000000E+000	0.0000000E+000	0.0000000E+000	-20.9159	0.0000000E+000	0.0000000E+000	0.0000000E+000	20.9159	2.61656	69.0841	-5.42617e-06	-0.000247051	2.0094e-08	-0.000247071	3.7812	57863.1	4.70633	57867.8
1000.32	2.96816	1.36539	3.26715	-24.703	14.0068	3.78098	-0.0574526	116.527	20.3516	1	10	0.00459931	0.00140774	0	-2.05729e-05	-0.000307521	1.0392e-05	76.9608	0.00738203	0.00166551	-0.00719169	-24.5761	3.26567	2.96983	1.3582	0.278067	0.127914	0.306077	24.703	20351.6	44241.6	48698.1	-65.297	0.0000000E+000	0.0000000E+000	0.0000000E+000	65.297	0.0000000E+000	0.0000000E+000	0.0000000E+000	-65.297	0.0000000E+000	0.0000000E+000	0.0000000E+000	-24.703	0.0000000E+000	0.0000000E+000	0.0000000E+000	24.703	2.17386	65.297	-4.39438e-06	-0.000217227	1.76679e-08	-0.000217245	3.78129	65810.5	5.3526	65815.8
251.044	4.64148	2.22024	5.14518	-25.564	16.707	3.78097	-0.0570207	285.542	53.1703	1	10	0.00451006	0.000876562	0	-6.32081e-05	-0.000307521	2.79057e-06	70.5494	0.00318354	0.0010601	-0.00300185	-25.5287	5.14484	4.64254	2.21724	0.17533	0.0838686	0.194357	25.564	53170.3	111154	123217	-64.436	0.0000000E+000	0.0000000E+000	0.0000000E+000	64.436	0.0000000E+000	0.0000000E+000	0.0000000E+000	-64.436	0.0000000E+000	0.0000000E+000	0.0000000E+000	-25.564	0.0000000E+000	0.0000000E+000	0.0000000E+000	25.564	2.09053	64.436	-6.23223e-06	-0.000215594	1.75351e-08	-0.000215611	3.78128	66308.7	5.39314	66314.1
63.0823	7.10774	1.96266	7.37374	-15.4364	19.645	3.78099	-0.0537373	1285.49	91.0714	1	10	0.00485684	0.000658667	0	-0.000105085	-0.000364747	7.57799e-06	-75.2951	0.011505	0.00292045	0.0111282	-15.5137	7.37952	7.11066	1.97379	0.130724	0.0360969	0.135616	15.4364	91071.4	329814	342157	-74.5636	0.0000000E+000	0.0000000E+000	0.0000000E+000	74.5636	0.0000000E+000	0.0000000E+000	0.0000000E+000	-74.5636	0.0000000E+000	0.0000000E+000	0.0000000E+000	-15.4364	0.0000000E+000	0.0000000E+000	0.0000000E+000	15.4364	3.62149	74.5636	-6.73219e-06	-0.00020318	1.96005e-08	-0.000203199	3.78135	70360.6	6.7876	70367.4
15.8576	8.35408	0.959036	8.40895	-6.5488	22.304	3.78096	-0.0600027	10465.2	136.124	1	10	0.00486579	0.000578645	0	-0.000151359	-0.000193068	1.23524e-05	-63.7213	0.0213471	0.00945117	0.0191409	-6.67086	8.42054	8.36353	0.978177	0.118145	0.0135629	0.118921	6.5488	136124	1.18577e+06	1.19355e+06	-83.4512	0.0000000E+000	0.0000000E+000	0.0000000E+000	83.4512	0.0000000E+000	0.0000000E+000	0.0000000E+000	-83.4512	0.0000000E+000	0.0000000E+000	0.0000000E+000	-6.5488	0.0000000E+000	0.0000000E+000	0.0000000E+000	6.5488	8.71092	83.4512	-9.13762e-06	-0.000226867	1.15846e-08	-0.000226879	3.78115	63013.1	3.21766	63016.4
3.97785	8.71062	0.456907	8.72259	-3.00264	25.5133	3.78101	-0.0419393	87567.6	240.275	1	11	0.00485677	0.000556803	0	-0.000190527	-0.000307521	6.25831e-06	-37.4739	0.0112397	0.00892019	0.00683824	-3.04439	8.73186	8.71954	0.463746	0.114487	0.00600533	0.114645	3.00264	240275	4.58067e+06	4.58697e+06	-86.9974	0.0000000E+000	0.0000000E+000	0.0000000E+000	86.9974	0.0000000E+000	0.0000000E+000	0.0000000E+000	-86.9974	0.0000000E+000	0.0000000E+000	0.0000000E+000	-3.00264	0.0000000E+000	0.0000000E+000	0.0000000E+000	3.00264	19.0643	86.9974	-1.06083e-05	-0.000158573	1.28972e-08	-0.000158586	3.78131	90154.2	7.33252	90161.6
1.00469	8.99358	0.441521	9.00441	-2.81056	240.328	3.78097	-0.0322826	358786	862.635	1	11	0.00505806	0.000561731	0	-0.00445438	0.000150289	3.92455e-07	3.03698	0.000698652	0.000697671	-3.70149e-05	-2.8101	9.0051	8.99428	0.441483	0.110923	0.00544554	0.111057	2.81056	862634	1.75715e+07	1.75926e+07	-87.1894	0.0000000E+000	0.0000000E+000	0.0000000E+000	87.1894	0.0000000E+000	0.0000000E+000	0.0000000E+000	-87.1894	0.0000000E+000	0.0000000E+000	0.0000000E+000	-2.81056	0.0000000E+000	0.0000000E+000	0.0000000E+000	2.81056	20.3696	87.1894	-0.0042142	-0.000122059	-4.85173e-09	-0.000122055	3.78081	117121	4.65543	117116
0.251173	9.33784	0.673238	9.36208	-4.12377	240.328	3.78097	-0.0322826	941190	4867.11	1	11	0.00508859	0.000543532	0	-0.00445438	0.000150289	6.51375e-07	-7.42902	0.00119841	0.00118835	0.000154952	-4.12419	9.36327	9.33903	0.673393	0.106537	0.00768112	0.106814	4.12377	4.86711e+06	6.75069e+07	6.76822e+07	-85.8762	0.0000000E+000	0.0000000E+000	0.0000000E+000	85.8762	0.0000000E+000	0.0000000E+000	0.0000000E+000	-85.8762	0.0000000E+000	0.0000000E+000	0.0000000E+000	-4.12377	0.0000000E+000	0.0000000E+000	0.0000000E+000	4.12377	13.87	85.8762	0.000000000000000E+000	-0.000122059	-4.85173e-09	-0.000122055	3.78081	117121	4.65543	117116
0.0602816	9.88211	1.46157	9.9896	-8.41308	240.329	3.78097	-0.0322826	1.80641e+06	38668.5	1	11	0.00507779	0.000508307	0	-0.00445438	0.000150289	7.41751e-07	1.60287	0.00145926	0.00145868	-4.08179e-05	-8.41162	9.99104	9.88357	1.46153	0.0990268	0.0146461	0.100104	8.41308	3.86685e+07	2.6145e+08	2.64294e+08	-81.5869	0.0000000E+000	0.0000000E+000	0.0000000E+000	81.5869	0.0000000E+000	0.0000000E+000	0.0000000E+000	-81.5869	0.0000000E+000	0.0000000E+000	0.0000000E+000	-8.41308	0.0000000E+000	0.0000000E+000	0.0000000E+000	8.41308	6.76131	81.5869	0.000000000000000E+000	-0.000122059	-4.85173e-09	-0.000122055	3.78081	117121	4.65543	117116
0.00796479	13.7607	3.95616	14.3181	-16.0397	20329.3	3.78095	0.0011862	5.05094e+06	385608	1	11	0.00507205	0.000354239	0	-0.016117	-0.000154917	3.81243e-07	-53.1662	0.00107623	0.000645196	0.000861391	-16.0423	14.319	13.7614	3.95702	0.0671226	0.0192975	0.0698415	16.0397	3.85608e+08	1.34127e+09	1.3956e+09	-73.9603	0.0000000E+000	0.0000000E+000	0.0000000E+000	73.9603	0.0000000E+000	0.0000000E+000	0.0000000E+000	-73.9603	0.0000000E+000	0.0000000E+000	0.0000000E+000	-16.0397	0.0000000E+000	0.0000000E+000	0.0000000E+000	16.0397	3.47831	73.9603	-0.0116626	4.48496e-06	-1.83763e-10	4.48515e-06	3.78111	3.18746e+06	130.6	3.18759e+06
0.0019912	17.7241	5.599	18.5874	-17.5312	20329.3	3.78095	0.0011862	1.42756e+07	1.29532e+06	1	11	0.00508179	0.000273399	0	-0.016117	-0.000154917	8.16564e-07	13.173	0.00298671	0.00290812	-0.000680647	-17.5265	18.59	17.727	5.59832	0.0513009	0.0162058	0.0537998	17.5312	1.29532e+09	4.10045e+09	4.30018e+09	-72.4688	0.0000000E+000	0.0000000E+000	0.0000000E+000	72.4688	0.0000000E+000	0.0000000E+000	0.0000000E+000	-72.4688	0.0000000E+000	0.0000000E+000	0.0000000E+000	-17.5312	0.0000000E+000	0.0000000E+000	0.0000000E+000	17.5312	3.16559	72.4688	0.000000000000000E+000	4.48496e-06	-1.83763e-10	4.48515e-06	3.78111	3.18746e+06	130.6	3.18759e+06
0.000497799	20.5726	8.85517	22.3975	-23.2887	20329.3	3.78095	0.0011862	3.61051e+07	5.64371e+06	1	11	0.00508065	0.00022684	0	-0.016117	-0.000154917	2.04049e-06	-49.8453	0.00899528	0.00580064	0.00687514	-23.299	22.4055	20.5784	8.86205	0.0410102	0.0176522	0.0446479	23.2887	5.64371e+09	1.31117e+10	1.42747e+10	-66.7113	0.0000000E+000	0.0000000E+000	0.0000000E+000	66.7113	0.0000000E+000	0.0000000E+000	0.0000000E+000	-66.7113	0.0000000E+000	0.0000000E+000	0.0000000E+000	-23.2887	0.0000000E+000	0.0000000E+000	0.0000000E+000	23.2887	2.32323	66.7113	0.000000000000000E+000	4.48496e-06	-1.83763e-10	4.48515e-06	3.78111	3.18746e+06	130.6	3.18759e+06
9.95598e-05	24.8242	36.1223	43.8299	-55.5021	20329.3	3.78095	0.0011862	4.42549e+07	3.00587e+07	1	11	0.00507965	0.000115895	0	-0.016117	-0.000154917	4.97416e-06	-80.2572	0.0429197	0.00726312	0.0423007	-55.5256	43.8689	24.8315	36.1646	0.0129221	0.0188033	0.0228155	55.5021	3.00587e+10	2.06571e+10	3.64725e+10	-34.4979	0.0000000E+000	0.0000000E+000	0.0000000E+000	34.4979	0.0000000E+000	0.0000000E+000	0.0000000E+000	-34.4979	0.0000000E+000	0.0000000E+000	0.0000000E+000	-55.5021	0.0000000E+000	0.0000000E+000	0.0000000E+000	55.5021	0.687227	34.4979	0.000000000000000E+000	4.48496e-06	-1.83763e-10	4.48515e-06	3.78111	3.18746e+06	130.6	3.18759e+06