File: txt/17498_R280_UC81_SOC50_C06.mpt
EC-Lab ASCII FILE
Nb header lines : 64

Potentio Electrochemical Impedance Spectroscopy

Run on channel : 6 (SN 65795)
User :
CE vs. WE compliance from -10 V to 10 V
Electrode connection : standard
Potential control : Ewe
Ewe ctrl range : min = -10.00 V, max = 10.00 V
Safety Limits :
	Do not start on E overload
Acquisition started on : 09/15/2025 12:23:10.075
Loaded Setting File :  C:\Users\Celltest\OneDrive - store-dot.com\Documents\EC-Lab\Data\John\17497_R280-G001, UC81 half-cell.mps
Saved on :
	File : 17498_R280-G002, UC81 half-cell_C06.mpr
	Directory : C:\Users\Celltest\OneDrive - store-dot.com\Documents\EC-Lab\Data\John\
	Host : 169.254.61.224
Device : VMP-3e (SN .003165)
Address : USB
EC-LAB for windows v11.62 (software)
Internet server v27.00 (firmware)
Command interpretor v12.03 (firmware)
Electrode material :
Initial state :
Electrolyte :
Comments :
Electrode surface area : 0.001 cm²
Characteristic mass : 0.001 g
Equivalent Weight : 0.000 g/eq.
Density : 0.000 g/cm3
Volume (V) : 0.001 cm³
Record Ece
Cycle Definition : Charge/Discharge alternance
Mode                Multi sine
E (V)               0.0000
vs.                 Eoc
tE (h:m:s)          0:00:0.0000
record              0
dI                  0.000
unit dI             mA
dt (s)              0.000
fi                  1.000
unit fi             MHz
ff                  0.100
unit ff             mHz
Nd                  10
Points              per decade
spacing             Logarithmic
Va (mV)             5.0
pw                  0.10
Na                  2
corr                0
E range min (V)     -10.000
E range max (V)     10.000
I Range             Auto
Bandwidth           5
nc cycles           0
goto Ns'            0
nr cycles           0
inc. cycle          0

freq/Hz	Re(Z)/Ohm	-Im(Z)/Ohm	|Z|/Ohm	Phase(Z)/deg	time/s	<Ewe>/V	<I>/mA	Cs/µF	Cp/µF	cycle number	I Range	|Ewe|/V	|I|/A	Ns	(Q-Qo)/mA.h	<Ece>/V	|Ece|/V	Phase(Zce)/deg	|Zce|/Ohm	Re(Zce)/Ohm	-Im(Zce)/Ohm	Phase(Zwe-ce)/deg	|Zwe-ce|/Ohm	Re(Zwe-ce)/Ohm	-Im(Zwe-ce)/Ohm	Re(Y)/Ohm-1	Im(Y)/Ohm-1	|Y|/Ohm-1	Phase(Y)/deg	Re(C)/nF	Im(C)/nF	|C|/nF	Phase(C)/deg	Re(M)	Im(M)	|M|	Phase(M)/deg	Re(Permittivity)	Im(Permittivity)	|Permittivity|	Phase(Permittivity)/deg	Re(Resistivity)/Ohm.cm	Im(Resistivity)/Ohm.cm	|Resistivity|/Ohm.cm	Phase(Resistivity)/deg	Re(Conductivity)/mS/cm	Im(Conductivity)/mS/cm	|Conductivity|/mS/cm	Phase(Conductivity)/deg	Tan(Delta)	Loss Angle(Delta)/deg	dq/mA.h	Pwe/W	Pce/W	Pwe-ce/W	<Ewe-Ece>/V	Rwe/Ohm	Rce/Ohm	Rwe-ce/Ohm		Ewe-Ece/V
1.00002e+06	2.05676	3.4878	4.04908	-59.4721	2.23355	3.78355	0.018524	0.045631	0.0338572	1	10	0.00020456	5.05202e-05	0	-2.55027e-06	0.000305258	0.000200995	-65.1869	3.9785	1.66962	3.61121	-62.3043	8.0176	3.72638	7.09901	0.12545	0.212735	0.24697	59.4721	33.8572	19.9657	39.3057	-30.528	0.0000000E+000	0.0000000E+000	0.0000000E+000	30.528	0.0000000E+000	0.0000000E+000	0.0000000E+000	-30.528	0.0000000E+000	0.0000000E+000	0.0000000E+000	-59.4721	0.0000000E+000	0.0000000E+000	0.0000000E+000	59.4721	0.589702	30.528	-2.55027e-06	7.00865e-05	5.6546e-09	7.00809e-05	3.78324	204251	16.479	204234
251206	1.04549	0.0335058	1.04602	-1.83559	4.93855	3.78333	0.0693153	18.909	0.0194012	1	9	0.00199434	0.00190659	0	3.93464e-05	0.000228865	7.95094e-05	68.735	0.0417024	0.0151247	-0.038863	0.289398	1.06062	1.06061	-0.00535713	0.955511	0.0306223	0.956002	1.83559	19.4012	605.377	605.688	-88.1644	0.0000000E+000	0.0000000E+000	0.0000000E+000	88.1644	0.0000000E+000	0.0000000E+000	0.0000000E+000	-88.1644	0.0000000E+000	0.0000000E+000	0.0000000E+000	-1.83559	0.0000000E+000	0.0000000E+000	0.0000000E+000	1.83559	31.2031	88.1644	4.44187e-06	0.000262242	1.58639e-08	0.000262227	3.7831	54581.4	3.3018	54578.1
63093.8	1.19669	0.220738	1.21687	-10.4512	7.11255	3.78324	0.0584385	11.4276	0.376026	1	9	0.0053039	0.00435862	0	8.90173e-05	3.78851e-05	2.54277e-05	54.5419	0.00583389	0.00338428	-0.00475194	-10.2027	1.21935	1.20007	0.215986	0.808144	0.149068	0.821778	10.4512	376.026	2038.55	2072.94	-79.5488	0.0000000E+000	0.0000000E+000	0.0000000E+000	79.5488	0.0000000E+000	0.0000000E+000	0.0000000E+000	-79.5488	0.0000000E+000	0.0000000E+000	0.0000000E+000	-10.4512	0.0000000E+000	0.0000000E+000	0.0000000E+000	10.4512	5.42131	79.5488	4.58655e-06	0.000221087	2.21395e-09	0.000221084	3.7832	64738.8	0.648291	64738.2
15847.7	1.43622	0.426278	1.49815	-16.5312	9.41253	3.78324	0.0551231	23.5592	1.90738	1	9	0.00528671	0.00352883	0	0.000122585	-7.67031e-05	7.37616e-06	80.6242	0.00209025	0.000340523	-0.00206233	-16.4518	1.49789	1.43656	0.424216	0.6399	0.189926	0.667491	16.5312	1907.38	6426.39	6703.47	-73.4688	0.0000000E+000	0.0000000E+000	0.0000000E+000	73.4688	0.0000000E+000	0.0000000E+000	0.0000000E+000	-73.4688	0.0000000E+000	0.0000000E+000	0.0000000E+000	-16.5312	0.0000000E+000	0.0000000E+000	0.0000000E+000	16.5312	3.36921	73.4688	7.05356e-06	0.000208544	-4.22812e-09	0.000208548	3.78331	68632.5	1.39149	68633.9
3983.6	1.8728	0.752413	2.01829	-21.8882	11.778	3.78323	0.0604126	53.0992	7.37959	1	9	0.00513438	0.00254392	0	0.000143729	0.000209767	6.81666e-06	-5.16834	0.00267958	0.00266869	0.000241383	-21.8664	2.02086	1.87547	0.752654	0.459752	0.184709	0.495468	21.8882	7379.59	18368.2	19795.2	-68.1118	0.0000000E+000	0.0000000E+000	0.0000000E+000	68.1118	0.0000000E+000	0.0000000E+000	0.0000000E+000	-68.1118	0.0000000E+000	0.0000000E+000	0.0000000E+000	-21.8882	0.0000000E+000	0.0000000E+000	0.0000000E+000	21.8882	2.48906	68.1118	5.59517e-06	0.000228555	1.26726e-08	0.000228542	3.78302	62623.2	3.47225	62619.7
1000.32	2.66513	1.31682	2.9727	-26.2937	14.7978	3.78321	0.0511001	120.824	23.7086	1	9	0.00485114	0.0016319	0	0.000187063	0.000152473	1.12113e-05	-53.2694	0.0068701	0.00410868	0.00550608	-26.3536	2.97883	2.66924	1.32233	0.301589	0.149013	0.336394	26.2937	23708.6	47984.1	53521.7	-63.7063	0.0000000E+000	0.0000000E+000	0.0000000E+000	63.7063	0.0000000E+000	0.0000000E+000	0.0000000E+000	-63.7063	0.0000000E+000	0.0000000E+000	0.0000000E+000	-26.2937	0.0000000E+000	0.0000000E+000	0.0000000E+000	26.2937	2.02391	63.7063	4.47509e-06	0.000193323	7.7914e-09	0.000193315	3.78306	74035.4	2.98382	74032.4
251.044	4.32683	2.09631	4.80791	-25.8498	17.745	3.78322	-0.0121567	302.422	57.4928	1	10	0.00463253	0.000963523	0	0.000177913	0.000209767	4.14517e-06	-49.4689	0.0043021	0.00279576	0.00326982	-25.8703	4.81185	4.32963	2.09958	0.187179	0.0906867	0.20799	25.8498	57492.8	118666	131860	-64.1502	0.0000000E+000	0.0000000E+000	0.0000000E+000	64.1502	0.0000000E+000	0.0000000E+000	0.0000000E+000	-64.1502	0.0000000E+000	0.0000000E+000	0.0000000E+000	-25.8498	0.0000000E+000	0.0000000E+000	0.0000000E+000	25.8498	2.06402	64.1502	-9.12785e-07	-4.59914e-05	-2.55008e-09	-4.59889e-05	3.78301	311204	17.2553	311187
63.0823	6.58738	1.67441	6.79686	-14.2617	20.467	3.78322	-0.0110164	1506.78	91.4449	1	10	0.00457034	0.00067242	0	0.000169814	-5.76051e-05	6.217e-06	23.3009	0.0092457	0.00849163	-0.00365722	-14.2142	6.80419	6.59587	1.67076	0.142592	0.0362449	0.147127	14.2617	91444.9	359757	371197	-75.7383	0.0000000E+000	0.0000000E+000	0.0000000E+000	75.7383	0.0000000E+000	0.0000000E+000	0.0000000E+000	-75.7383	0.0000000E+000	0.0000000E+000	0.0000000E+000	-14.2617	0.0000000E+000	0.0000000E+000	0.0000000E+000	14.2617	3.93414	75.7383	-1.60596e-06	-4.16774e-05	6.346e-10	-4.1678e-05	3.78328	343418	5.22904	343423
15.8576	7.4987	0.688363	7.53023	-5.24491	23.125	3.78323	-0.0110462	14580.3	121.838	1	10	0.00457489	0.000607536	0	0.000167128	0.000209767	1.34931e-05	-104.415	0.0222095	-0.00552873	0.0215104	-5.41182	7.52673	7.49317	0.709873	0.132242	0.0121395	0.132798	5.24491	121838	1.32725e+06	1.33283e+06	-84.7551	0.0000000E+000	0.0000000E+000	0.0000000E+000	84.7551	0.0000000E+000	0.0000000E+000	0.0000000E+000	-84.7551	0.0000000E+000	0.0000000E+000	0.0000000E+000	-5.24491	0.0000000E+000	0.0000000E+000	0.0000000E+000	5.24491	10.8935	84.7551	1.36812e-06	-4.17903e-05	-2.31713e-09	-4.17879e-05	3.78302	342492	18.99	342473
3.97785	7.72634	0.376552	7.73551	-2.79017	26.0384	3.78324	-0.0079047	106254	251.778	1	10	0.00456326	0.00058991	0	0.000158471	-0.000191291	3.89536e-06	-18.3092	0.0066033	0.00626901	0.00207439	-2.80324	7.74188	7.73261	0.378627	0.129121	0.00629284	0.129274	2.79017	251778	5.16615e+06	5.17228e+06	-87.2098	0.0000000E+000	0.0000000E+000	0.0000000E+000	87.2098	0.0000000E+000	0.0000000E+000	0.0000000E+000	-87.2098	0.0000000E+000	0.0000000E+000	0.0000000E+000	-2.79017	0.0000000E+000	0.0000000E+000	0.0000000E+000	2.79017	20.5187	87.2098	2.69699e-06	-2.99054e-05	1.5121e-09	-2.99069e-05	3.78343	478606	24.1997	478630
1.00469	7.96691	0.397859	7.97684	-2.85892	241.214	3.78323	-0.0153606	398159	990.499	1	11	0.00500482	0.000627419	0	-0.00310431	0.000171571	4.97977e-07	3.97478	0.000793692	0.000791783	-5.50166e-05	-2.85824	7.97763	7.9677	0.397804	0.125207	0.0062527	0.125363	2.85892	990499	1.98342e+07	1.98589e+07	-87.1411	0.0000000E+000	0.0000000E+000	0.0000000E+000	87.1411	0.0000000E+000	0.0000000E+000	0.0000000E+000	-87.1411	0.0000000E+000	0.0000000E+000	0.0000000E+000	-2.85892	0.0000000E+000	0.0000000E+000	0.0000000E+000	2.85892	20.0245	87.1411	-0.0032375	-5.81125e-05	-2.63543e-09	-5.81099e-05	3.78306	246295	11.1696	246284
0.251173	8.2912	0.6715	8.31835	-4.63025	241.215	3.78323	-0.0153606	943627	6149.2	1	11	0.00503218	0.000604949	0	-0.00310431	0.000171571	8.09792e-07	-1.15707	0.00133861	0.00133834	2.7031e-05	-4.62969	8.31968	8.29254	0.671527	0.119824	0.00970447	0.120216	4.63025	6.1492e+06	7.59259e+07	7.61745e+07	-85.3698	0.0000000E+000	0.0000000E+000	0.0000000E+000	85.3698	0.0000000E+000	0.0000000E+000	0.0000000E+000	-85.3698	0.0000000E+000	0.0000000E+000	0.0000000E+000	-4.63025	0.0000000E+000	0.0000000E+000	0.0000000E+000	4.63025	12.3473	85.3698	0.000000000000000E+000	-5.81125e-05	-2.63543e-09	-5.81099e-05	3.78306	246295	11.1696	246284
0.0602816	8.85675	1.39914	8.96658	-8.97711	241.216	3.78323	-0.0153606	1.887e+06	45945.6	1	11	0.00502704	0.000560642	0	-0.00310431	0.000171571	2.91328e-07	-24.0721	0.000519633	0.000474442	0.000211951	-8.97797	8.96708	8.85722	1.39936	0.110159	0.0174024	0.111525	8.97711	4.59456e+07	2.90841e+08	2.94448e+08	-81.0229	0.0000000E+000	0.0000000E+000	0.0000000E+000	81.0229	0.0000000E+000	0.0000000E+000	0.0000000E+000	-81.0229	0.0000000E+000	0.0000000E+000	0.0000000E+000	-8.97711	0.0000000E+000	0.0000000E+000	0.0000000E+000	8.97711	6.33012	81.0229	0.000000000000000E+000	-5.81125e-05	-2.63543e-09	-5.81099e-05	3.78306	246295	11.1696	246284
0.00796479	12.635	3.78911	13.1909	-16.6935	20330.1	3.78325	0.00145673	5.27362e+06	435144	1	11	0.0050182	0.000380428	0	-0.0101725	-1.9409e-05	1.73192e-07	-163.13	0.000455256	-0.000435664	0.000132117	-16.6946	13.1906	12.6346	3.78924	0.0726147	0.0217764	0.0758097	16.6935	4.35144e+08	1.45101e+09	1.51485e+09	-73.3065	0.0000000E+000	0.0000000E+000	0.0000000E+000	73.3065	0.0000000E+000	0.0000000E+000	0.0000000E+000	-73.3065	0.0000000E+000	0.0000000E+000	0.0000000E+000	-16.6935	0.0000000E+000	0.0000000E+000	0.0000000E+000	16.6935	3.33455	73.3065	-0.00706816	5.51116e-06	-2.82736e-11	5.51119e-06	3.78327	2.59709e+06	13.3237	2.59711e+06
0.0019912	16.4182	5.31824	17.2581	-17.9483	20330.1	3.78325	0.00145673	1.50293e+07	1.42721e+06	1	11	0.00503094	0.000291512	0	-0.0101725	-1.9409e-05	5.81552e-07	-136.774	0.00199495	-0.00145364	0.0013663	-17.9541	17.2571	16.4168	5.31961	0.055124	0.0178559	0.0579438	17.9483	1.42721e+09	4.40602e+09	4.63141e+09	-72.0517	0.0000000E+000	0.0000000E+000	0.0000000E+000	72.0517	0.0000000E+000	0.0000000E+000	0.0000000E+000	-72.0517	0.0000000E+000	0.0000000E+000	0.0000000E+000	-17.9483	0.0000000E+000	0.0000000E+000	0.0000000E+000	17.9483	3.08715	72.0517	0.000000000000000E+000	5.51116e-06	-2.82736e-11	5.51119e-06	3.78327	2.59709e+06	13.3237	2.59711e+06
0.000497799	18.9683	8.31994	20.7127	-23.6834	20330.1	3.78325	0.00145673	3.84278e+07	6.20028e+06	1	11	0.00503378	0.000243028	0	-0.0101725	-1.9409e-05	9.45435e-07	108.205	0.00389022	-0.00121537	-0.0036955	-23.6754	20.7101	18.9671	8.31625	0.0442133	0.019393	0.0482795	23.6834	6.20028e+09	1.41358e+10	1.54358e+10	-66.3166	0.0000000E+000	0.0000000E+000	0.0000000E+000	66.3166	0.0000000E+000	0.0000000E+000	0.0000000E+000	-66.3166	0.0000000E+000	0.0000000E+000	0.0000000E+000	-23.6834	0.0000000E+000	0.0000000E+000	0.0000000E+000	23.6834	2.27986	66.3166	0.000000000000000E+000	5.51116e-06	-2.82736e-11	5.51119e-06	3.78327	2.59709e+06	13.3237	2.59711e+06
9.95598e-05	22.4291	34.6736	41.2956	-57.1026	20330.1	3.78325	0.00145673	4.61038e+07	3.25033e+07	1	11	0.00503516	0.00012193	0	-0.0101725	-1.9409e-05	2.83528e-06	136.664	0.0232534	-0.0169133	-0.0159581	-57.1103	41.273	22.4122	34.6577	0.0131524	0.0203325	0.0242156	57.1026	3.25033e+10	2.10252e+10	3.87108e+10	-32.8974	0.0000000E+000	0.0000000E+000	0.0000000E+000	32.8974	0.0000000E+000	0.0000000E+000	0.0000000E+000	-32.8974	0.0000000E+000	0.0000000E+000	0.0000000E+000	-57.1026	0.0000000E+000	0.0000000E+000	0.0000000E+000	57.1026	0.646864	32.8974	0.000000000000000E+000	5.51116e-06	-2.82736e-11	5.51119e-06	3.78327	2.59709e+06	13.3237	2.59711e+06