File: txt/17492_R280_UC81_SOC50_C01.mpt
EC-Lab ASCII FILE
Nb header lines : 64

Potentio Electrochemical Impedance Spectroscopy

Run on channel : 1 (SN 66354)
User :
CE vs. WE compliance from -10 V to 10 V
Electrode connection : standard
Potential control : Ewe
Ewe ctrl range : min = -10.00 V, max = 10.00 V
Safety Limits :
	Do not start on E overload
Acquisition started on : 09/15/2025 12:21:46.045
Loaded Setting File :  C:\Users\Celltest\OneDrive - store-dot.com\Documents\EC-Lab\Data\Michael\R278\UC78_17221_EIS_50SOC.mps
Saved on :
	File : 17492_R280-G001, UC81 half-cell_C01.mpr
	Directory : C:\Users\Celltest\OneDrive - store-dot.com\Documents\EC-Lab\Data\John\
	Host : 169.254.61.224
Device : VMP-3e (SN .003165)
Address : USB
EC-LAB for windows v11.62 (software)
Internet server v27.00 (firmware)
Command interpretor v12.03 (firmware)
Electrode material :
Initial state :
Electrolyte :
Comments :
Electrode surface area : 0.001 cm²
Characteristic mass : 0.001 g
Equivalent Weight : 0.000 g/eq.
Density : 0.000 g/cm3
Volume (V) : 0.001 cm³
Record Ece
Cycle Definition : Charge/Discharge alternance
Mode                Multi sine
E (V)               0.0000
vs.                 Eoc
tE (h:m:s)          0:00:0.0000
record              0
dI                  0.000
unit dI             mA
dt (s)              0.000
fi                  1.000
unit fi             MHz
ff                  0.100
unit ff             mHz
Nd                  10
Points              per decade
spacing             Logarithmic
Va (mV)             5.0
pw                  0.10
Na                  2
corr                0
E range min (V)     -10.000
E range max (V)     10.000
I Range             Auto
Bandwidth           5
nc cycles           0
goto Ns'            0
nr cycles           0
inc. cycle          0

freq/Hz	Re(Z)/Ohm	-Im(Z)/Ohm	|Z|/Ohm	Phase(Z)/deg	time/s	<Ewe>/V	<I>/mA	Cs/µF	Cp/µF	cycle number	I Range	|Ewe|/V	|I|/A	Ns	(Q-Qo)/mA.h	<Ece>/V	|Ece|/V	Phase(Zce)/deg	|Zce|/Ohm	Re(Zce)/Ohm	-Im(Zce)/Ohm	Phase(Zwe-ce)/deg	|Zwe-ce|/Ohm	Re(Zwe-ce)/Ohm	-Im(Zwe-ce)/Ohm	Re(Y)/Ohm-1	Im(Y)/Ohm-1	|Y|/Ohm-1	Phase(Y)/deg	Re(C)/nF	Im(C)/nF	|C|/nF	Phase(C)/deg	Re(M)	Im(M)	|M|	Phase(M)/deg	Re(Permittivity)	Im(Permittivity)	|Permittivity|	Phase(Permittivity)/deg	Re(Resistivity)/Ohm.cm	Im(Resistivity)/Ohm.cm	|Resistivity|/Ohm.cm	Phase(Resistivity)/deg	Re(Conductivity)/mS/cm	Im(Conductivity)/mS/cm	|Conductivity|/mS/cm	Phase(Conductivity)/deg	Tan(Delta)	Loss Angle(Delta)/deg	dq/mA.h	Pwe/W	Pce/W	Pwe-ce/W	<Ewe-Ece>/V	Rwe/Ohm	Rce/Ohm	Rwe-ce/Ohm		Ewe-Ece/V
1.00002e+06	1.05744	-0.196558	1.07556	10.53	2.69355	3.78442	0.0934665	-0.809696	-0.0270418	1	9	0.000216888	0.000201652	0	-3.85972e-06	-0.000315441	0.000192965	-7.93698	0.956925	0.947758	0.132136	1.84013	2.00624	2.0052	-0.064422	0.914093	-0.169912	0.929751	-10.53	-27.0418	145.48	147.972	-100.53	0.0000000E+000	0.0000000E+000	0.0000000E+000	100.53	0.0000000E+000	0.0000000E+000	0.0000000E+000	-100.53	0.0000000E+000	0.0000000E+000	0.0000000E+000	10.53	0.0000000E+000	0.0000000E+000	0.0000000E+000	-10.53	5.37982	79.47	-3.85972e-06	0.000353716	-2.94832e-08	0.000353746	3.78473	40489.6	3.37491	40493
251206	0.856191	0.0871597	0.860616	-5.81265	4.99453	3.78413	0.0638121	7.26899	0.0745568	1	9	0.00224982	0.0026142	0	3.72703e-05	0.000142415	6.21234e-05	114.828	0.0237639	-0.0099785	-0.0215673	-4.4323	0.848751	0.846212	0.0655924	1.15598	0.117679	1.16196	5.81265	74.5567	732.389	736.174	-84.1873	0.0000000E+000	0.0000000E+000	0.0000000E+000	84.1873	0.0000000E+000	0.0000000E+000	0.0000000E+000	-84.1873	0.0000000E+000	0.0000000E+000	0.0000000E+000	-5.81265	0.0000000E+000	0.0000000E+000	0.0000000E+000	5.81265	9.82324	84.1873	5.44194e-06	0.000241473	9.08777e-09	0.000241464	3.78399	59301.1	2.23178	59298.9
63093.8	1.02379	0.207586	1.04462	-11.462	7.29452	3.78407	0.0531947	12.1517	0.479855	1	9	0.0052686	0.00504353	0	6.90188e-05	8.87343e-06	3.60759e-05	97.8827	0.0071529	-0.00098099	-0.00708532	-11.091	1.04228	1.02281	0.2005	0.93819	0.190229	0.957282	11.462	479.855	2366.6	2414.75	-78.538	0.0000000E+000	0.0000000E+000	0.0000000E+000	78.538	0.0000000E+000	0.0000000E+000	0.0000000E+000	-78.538	0.0000000E+000	0.0000000E+000	0.0000000E+000	-11.462	0.0000000E+000	0.0000000E+000	0.0000000E+000	11.462	4.9319	78.538	-6.04637e-06	0.000201292	4.7202e-10	0.000201292	3.78406	71136.2	0.166811	71136
15847.7	1.23621	0.366803	1.28948	-16.5264	9.47252	3.78406	0.0561377	27.3792	2.21542	1	9	0.00484511	0.00375741	0	0.000102631	0.00010426	1.20404e-05	42.6642	0.00320446	0.00235636	-0.00217166	-16.4043	1.29113	1.23857	0.364632	0.743467	0.220598	0.775504	16.5264	2215.42	7466.48	7788.23	-73.4736	0.0000000E+000	0.0000000E+000	0.0000000E+000	73.4736	0.0000000E+000	0.0000000E+000	0.0000000E+000	-73.4736	0.0000000E+000	0.0000000E+000	0.0000000E+000	-16.5264	0.0000000E+000	0.0000000E+000	0.0000000E+000	16.5264	3.37024	73.4736	5.65918e-06	0.000212429	5.85292e-09	0.000212423	3.78396	67406.8	1.85722	67404.9
3983.6	1.6041	0.634642	1.72508	-21.5856	11.321	3.78391	-0.0698192	62.9529	8.52029	1	9	0.00462018	0.00267824	0	0.000118983	4.70281e-05	6.33636e-06	-91.4011	0.00236586	-5.78481e-05	0.00236516	-21.6593	1.7259	1.60404	0.637007	0.539029	0.21326	0.579683	21.5856	8520.29	21535.6	23159.8	-68.4144	0.0000000E+000	0.0000000E+000	0.0000000E+000	68.4144	0.0000000E+000	0.0000000E+000	0.0000000E+000	-68.4144	0.0000000E+000	0.0000000E+000	0.0000000E+000	-21.5856	0.0000000E+000	0.0000000E+000	0.0000000E+000	21.5856	2.52756	68.4144	-6.57378e-06	-0.000264189	-3.28346e-09	-0.000264186	3.78386	54195.8	0.673569	54195.1
1000.32	2.2675	1.15913	2.54659	-27.0758	14.1638	3.78389	-0.00685939	137.262	28.4378	1	9	0.00495842	0.00194708	0	9.84367e-05	0.000199647	4.93612e-06	20.8606	0.00253514	0.00236896	-0.000902753	-27.0335	2.54829	2.26986	1.15823	0.349646	0.178737	0.392682	27.0758	28437.8	55630.1	62477.3	-62.9241	0.0000000E+000	0.0000000E+000	0.0000000E+000	62.9241	0.0000000E+000	0.0000000E+000	0.0000000E+000	-62.9241	0.0000000E+000	0.0000000E+000	0.0000000E+000	-27.0758	0.0000000E+000	0.0000000E+000	0.0000000E+000	27.0758	1.9562	62.9241	-2.42262e-06	-2.59552e-05	-1.36945e-09	-2.59538e-05	3.78369	551637	29.1056	551608
251.044	3.7682	1.86783	4.20573	-26.3668	17.1101	3.78395	-0.0478171	339.416	66.946	1	10	0.00496108	0.0011796	0	7.44186e-05	4.70281e-05	6.57614e-06	-6.46883	0.00557489	0.00553939	0.000628082	-26.341	4.21097	3.77374	1.86846	0.213036	0.105598	0.237771	26.3668	66946	135058	150740	-63.6332	0.0000000E+000	0.0000000E+000	0.0000000E+000	63.6332	0.0000000E+000	0.0000000E+000	0.0000000E+000	-63.6332	0.0000000E+000	0.0000000E+000	0.0000000E+000	-26.3668	0.0000000E+000	0.0000000E+000	0.0000000E+000	26.3668	2.01742	63.6332	-5.41182e-06	-0.000180937	-2.24874e-09	-0.000180935	3.78391	79133.9	0.983499	79133
63.0823	5.74248	1.42607	5.9169	-13.9466	19.832	3.78396	-0.0445746	1769.18	102.77	1	10	0.0049328	0.000833679	0	4.23395e-05	-0.000200977	6.1534e-06	31.0212	0.00738102	0.00632536	-0.00380385	-13.8961	5.92213	5.7488	1.42227	0.164025	0.0407336	0.169007	13.9466	102770	413831	426401	-76.0534	0.0000000E+000	0.0000000E+000	0.0000000E+000	76.0534	0.0000000E+000	0.0000000E+000	0.0000000E+000	-76.0534	0.0000000E+000	0.0000000E+000	0.0000000E+000	-13.9466	0.0000000E+000	0.0000000E+000	0.0000000E+000	13.9466	4.02678	76.0534	-5.83857e-06	-0.000168669	8.95848e-09	-0.000168678	3.78416	84890.5	4.50877	84895
15.8576	6.50317	0.604149	6.53117	-5.30758	22.4901	3.78396	-0.048637	16612.7	142.149	1	10	0.00494224	0.000756716	0	4.12807e-06	-1.02039e-05	1.46673e-05	12.5901	0.0193828	0.0189167	-0.00422497	-5.25547	6.54962	6.52208	0.599924	0.152455	0.0141632	0.153112	5.30758	142149	1.53012e+06	1.53671e+06	-84.6924	0.0000000E+000	0.0000000E+000	0.0000000E+000	84.6924	0.0000000E+000	0.0000000E+000	0.0000000E+000	-84.6924	0.0000000E+000	0.0000000E+000	0.0000000E+000	-5.30758	0.0000000E+000	0.0000000E+000	0.0000000E+000	5.30758	10.7642	84.6924	-7.09949e-06	-0.00018404	4.96286e-10	-0.000184041	3.78397	77800	0.209796	77800.2
3.97785	6.70996	0.311387	6.71718	-2.657	25.4033	3.78399	-0.0318583	128491	276.12	1	10	0.00493324	0.000734422	0	-1.53833e-05	0.00010426	5.27501e-06	5.19718	0.00718254	0.00715301	-0.00065062	-2.64864	6.72429	6.71711	0.310736	0.148712	0.00690123	0.148872	2.657	276120	5.95001e+06	5.95641e+06	-87.343	0.0000000E+000	0.0000000E+000	0.0000000E+000	87.343	0.0000000E+000	0.0000000E+000	0.0000000E+000	-87.343	0.0000000E+000	0.0000000E+000	0.0000000E+000	-2.657	0.0000000E+000	0.0000000E+000	0.0000000E+000	2.657	21.5486	87.343	1.39561e-06	-0.000120551	-3.32155e-09	-0.000120548	3.78388	118775	3.27261	118772
1.00469	7.14447	0.353434	7.1532	-2.83209	240.579	3.78398	-0.0220795	448207	1094.19	1	11	0.0050082	0.000700134	0	-0.00412619	2.79507e-05	6.57005e-07	-5.53367	0.000938399	0.000934026	9.04905e-05	-2.83244	7.15414	7.1454	0.353524	0.139627	0.00690728	0.139798	2.83209	1.09419e+06	2.21185e+07	2.21455e+07	-87.1679	0.0000000E+000	0.0000000E+000	0.0000000E+000	87.1679	0.0000000E+000	0.0000000E+000	0.0000000E+000	-87.1679	0.0000000E+000	0.0000000E+000	0.0000000E+000	-2.83209	0.0000000E+000	0.0000000E+000	0.0000000E+000	2.83209	20.2144	87.1679	-0.0040855	-8.35484e-05	-6.17139e-10	-8.35478e-05	3.78395	171380	1.26591	171378
0.251173	7.42529	0.594044	7.44902	-4.57408	240.582	3.78398	-0.0220795	1.06666e+06	6783.71	1	11	0.00503541	0.000675983	0	-0.00412619	2.79507e-05	6.06721e-07	-34.9638	0.000897538	0.000735545	0.000514342	-4.57757	7.44979	7.42603	0.594559	0.133818	0.0107058	0.134246	4.57408	6.78371e+06	8.47934e+07	8.50643e+07	-85.4259	0.0000000E+000	0.0000000E+000	0.0000000E+000	85.4259	0.0000000E+000	0.0000000E+000	0.0000000E+000	-85.4259	0.0000000E+000	0.0000000E+000	0.0000000E+000	-4.57408	0.0000000E+000	0.0000000E+000	0.0000000E+000	4.57408	12.4996	85.4259	0.000000000000000E+000	-8.35484e-05	-6.17139e-10	-8.35478e-05	3.78395	171380	1.26591	171378
0.0602816	7.89442	1.26124	7.99453	-9.07706	240.584	3.78398	-0.0220795	2.09333e+06	52101.1	1	11	0.00502814	0.000628947	0	-0.00412619	2.79507e-05	3.90288e-07	33.2928	0.000620542	0.000518697	-0.000340627	-9.07407	7.99499	7.89494	1.2609	0.123519	0.0197338	0.125085	9.07706	5.21011e+07	3.26114e+08	3.30249e+08	-80.9229	0.0000000E+000	0.0000000E+000	0.0000000E+000	80.9229	0.0000000E+000	0.0000000E+000	0.0000000E+000	-80.9229	0.0000000E+000	0.0000000E+000	0.0000000E+000	-9.07706	0.0000000E+000	0.0000000E+000	0.0000000E+000	9.07706	6.25925	80.9229	0.000000000000000E+000	-8.35484e-05	-6.17139e-10	-8.35478e-05	3.78395	171380	1.26591	171378
0.00796479	11.4889	3.40076	11.9816	-16.489	20329.5	3.78399	0.00124543	5.87584e+06	473359	1	11	0.00502162	0.00041911	0	-0.0159465	0.000275956	5.86878e-07	-18.5438	0.0014003	0.00132759	0.000445335	-16.4892	11.983	11.4902	3.40121	0.0800287	0.0236889	0.0834611	16.489	4.73359e+08	1.59916e+09	1.66775e+09	-73.511	0.0000000E+000	0.0000000E+000	0.0000000E+000	73.511	0.0000000E+000	0.0000000E+000	0.0000000E+000	-73.511	0.0000000E+000	0.0000000E+000	0.0000000E+000	-16.489	0.0000000E+000	0.0000000E+000	0.0000000E+000	16.489	3.37832	73.511	-0.0118204	4.71269e-06	3.43683e-10	4.71235e-06	3.78371	3.0383e+06	221.575	3.03808e+06
0.0019912	14.7897	4.74832	15.5332	-17.7996	20329.5	3.78399	0.00124543	1.68332e+07	1.57298e+06	1	11	0.00503514	0.000324153	0	-0.0159465	0.000275956	7.1161e-07	-23.6925	0.00219529	0.00201026	0.000882128	-17.8004	15.5354	14.7917	4.7492	0.0612965	0.0196797	0.0643782	17.7996	1.57298e+09	4.89939e+09	5.1457e+09	-72.2004	0.0000000E+000	0.0000000E+000	0.0000000E+000	72.2004	0.0000000E+000	0.0000000E+000	0.0000000E+000	-72.2004	0.0000000E+000	0.0000000E+000	0.0000000E+000	-17.7996	0.0000000E+000	0.0000000E+000	0.0000000E+000	17.7996	3.11471	72.2004	0.000000000000000E+000	4.71269e-06	3.43683e-10	4.71235e-06	3.78371	3.0383e+06	221.575	3.03808e+06
0.000497799	16.7248	7.87778	18.4872	-25.2216	20329.5	3.78399	0.00124543	4.05847e+07	7.36931e+06	1	11	0.0050371	0.000272464	0	-0.0159465	0.000275956	5.79714e-07	-9.0935	0.00212767	0.00210093	0.00033627	-25.2198	18.4893	16.7269	7.87811	0.0489347	0.0230495	0.0540914	25.2216	7.36931e+09	1.56453e+10	1.7294e+10	-64.7784	0.0000000E+000	0.0000000E+000	0.0000000E+000	64.7784	0.0000000E+000	0.0000000E+000	0.0000000E+000	-64.7784	0.0000000E+000	0.0000000E+000	0.0000000E+000	-25.2216	0.0000000E+000	0.0000000E+000	0.0000000E+000	25.2216	2.12303	64.7784	0.000000000000000E+000	4.71269e-06	3.43683e-10	4.71235e-06	3.78371	3.0383e+06	221.575	3.03808e+06
9.95598e-05	19.794	34.731	39.9756	-60.3202	20329.5	3.78399	0.00124543	4.60276e+07	3.47428e+07	1	11	0.00503697	0.000126001	0	-0.0159465	0.000275956	1.20954e-06	-5.5158	0.00959941	0.00955496	0.000922699	-60.309	39.9811	19.8035	34.7319	0.0123864	0.0217334	0.0250153	60.3202	3.47428e+10	1.98007e+10	3.99891e+10	-29.6798	0.0000000E+000	0.0000000E+000	0.0000000E+000	29.6798	0.0000000E+000	0.0000000E+000	0.0000000E+000	-29.6798	0.0000000E+000	0.0000000E+000	0.0000000E+000	-60.3202	0.0000000E+000	0.0000000E+000	0.0000000E+000	60.3202	0.569923	29.6798	0.000000000000000E+000	4.71269e-06	3.43683e-10	4.71235e-06	3.78371	3.0383e+06	221.575	3.03808e+06