File: txt/17493_R280_UC81_SOC50_C02.mpt
EC-Lab ASCII FILE
Nb header lines : 64

Potentio Electrochemical Impedance Spectroscopy

Run on channel : 2 (SN 66139)
User :
CE vs. WE compliance from -10 V to 10 V
Electrode connection : standard
Potential control : Ewe
Ewe ctrl range : min = -10.00 V, max = 10.00 V
Safety Limits :
	Do not start on E overload
Acquisition started on : 09/15/2025 12:22:00.780
Loaded Setting File :  C:\Users\Celltest\OneDrive - store-dot.com\Documents\EC-Lab\Data\John\17492_R280-G001, UC81 half-cell.mps
Saved on :
	File : 17493_R280-G001, UC81 half-cell_C02.mpr
	Directory : C:\Users\Celltest\OneDrive - store-dot.com\Documents\EC-Lab\Data\John\
	Host : 169.254.61.224
Device : VMP-3e (SN .003165)
Address : USB
EC-LAB for windows v11.62 (software)
Internet server v27.00 (firmware)
Command interpretor v12.03 (firmware)
Electrode material :
Initial state :
Electrolyte :
Comments :
Electrode surface area : 0.001 cm²
Characteristic mass : 0.001 g
Equivalent Weight : 0.000 g/eq.
Density : 0.000 g/cm3
Volume (V) : 0.001 cm³
Record Ece
Cycle Definition : Charge/Discharge alternance
Mode                Multi sine
E (V)               0.0000
vs.                 Eoc
tE (h:m:s)          0:00:0.0000
record              0
dI                  0.000
unit dI             mA
dt (s)              0.000
fi                  1.000
unit fi             MHz
ff                  0.100
unit ff             mHz
Nd                  10
Points              per decade
spacing             Logarithmic
Va (mV)             5.0
pw                  0.10
Na                  2
corr                0
E range min (V)     -10.000
E range max (V)     10.000
I Range             Auto
Bandwidth           5
nc cycles           0
goto Ns'            0
nr cycles           0
inc. cycle          0

freq/Hz	Re(Z)/Ohm	-Im(Z)/Ohm	|Z|/Ohm	Phase(Z)/deg	time/s	<Ewe>/V	<I>/mA	Cs/µF	Cp/µF	cycle number	I Range	|Ewe|/V	|I|/A	Ns	(Q-Qo)/mA.h	<Ece>/V	|Ece|/V	Phase(Zce)/deg	|Zce|/Ohm	Re(Zce)/Ohm	-Im(Zce)/Ohm	Phase(Zwe-ce)/deg	|Zwe-ce|/Ohm	Re(Zwe-ce)/Ohm	-Im(Zwe-ce)/Ohm	Re(Y)/Ohm-1	Im(Y)/Ohm-1	|Y|/Ohm-1	Phase(Y)/deg	Re(C)/nF	Im(C)/nF	|C|/nF	Phase(C)/deg	Re(M)	Im(M)	|M|	Phase(M)/deg	Re(Permittivity)	Im(Permittivity)	|Permittivity|	Phase(Permittivity)/deg	Re(Resistivity)/Ohm.cm	Im(Resistivity)/Ohm.cm	|Resistivity|/Ohm.cm	Phase(Resistivity)/deg	Re(Conductivity)/mS/cm	Im(Conductivity)/mS/cm	|Conductivity|/mS/cm	Phase(Conductivity)/deg	Tan(Delta)	Loss Angle(Delta)/deg	dq/mA.h	Pwe/W	Pce/W	Pwe-ce/W	<Ewe-Ece>/V	Rwe/Ohm	Rce/Ohm	Rwe-ce/Ohm		Ewe-Ece/V
1.00002e+06	0.961497	-0.285517	1.00299	16.5388	2.23453	3.78309	-0.0478588	-0.557417	-0.0451697	1	9	0.000207726	0.000207106	0	-4.37447e-05	0.00017889	0.000177867	-0.00576255	0.858822	0.858822	8.63763e-05	8.91156	1.84256	1.82032	-0.28543	0.955766	-0.283815	0.997015	-16.5388	-45.1697	152.112	158.677	-106.539	0.0000000E+000	0.0000000E+000	0.0000000E+000	106.539	0.0000000E+000	0.0000000E+000	0.0000000E+000	-106.539	0.0000000E+000	0.0000000E+000	0.0000000E+000	16.5388	0.0000000E+000	0.0000000E+000	0.0000000E+000	-16.5388	3.36757	73.4612	-4.37447e-05	-0.000181054	-8.56144e-09	-0.000181045	3.78291	79046.9	3.73786	79043.2
251206	1.01066	0.0925018	1.01489	-5.22947	4.53553	3.78309	-0.0410055	6.8492	0.0568989	1	9	0.00263068	0.00259209	0	-6.67891e-05	7.07199e-06	2.86121e-05	76.7753	0.0110382	0.00252523	-0.0107455	-4.61332	1.01648	1.01319	0.0817563	0.981229	0.0898077	0.98533	5.22947	56.8988	621.67	624.269	-84.7705	0.0000000E+000	0.0000000E+000	0.0000000E+000	84.7705	0.0000000E+000	0.0000000E+000	0.0000000E+000	-84.7705	0.0000000E+000	0.0000000E+000	0.0000000E+000	-5.22947	0.0000000E+000	0.0000000E+000	0.0000000E+000	5.22947	10.9259	84.7705	-3.14367e-06	-0.000155128	-2.8999e-10	-0.000155127	3.78309	92258.3	0.172465	92258.2
63093.8	1.18993	0.228198	1.21162	-10.856	6.70951	3.783	-0.0487153	11.054	0.392116	1	9	0.00533768	0.00440542	0	-0.000140189	0.00017889	1.44229e-05	67.2068	0.00327389	0.00126832	-0.00301823	-10.7047	1.2123	1.1912	0.22518	0.810572	0.155447	0.825343	10.856	392.116	2044.68	2081.94	-79.144	0.0000000E+000	0.0000000E+000	0.0000000E+000	79.144	0.0000000E+000	0.0000000E+000	0.0000000E+000	-79.144	0.0000000E+000	0.0000000E+000	0.0000000E+000	-10.856	0.0000000E+000	0.0000000E+000	0.0000000E+000	10.856	5.21447	79.144	-1.77173e-05	-0.00018429	-8.71466e-09	-0.000184281	3.78282	77655.2	3.67214	77651.5
15847.7	1.42801	0.413787	1.48675	-16.1597	8.88552	3.783	-0.0418249	24.2704	1.87998	1	9	0.00477985	0.00321496	0	-0.000188102	2.61628e-05	7.26493e-06	23.9331	0.00225973	0.00206543	-0.000916703	-16.1037	1.48848	1.43008	0.412871	0.646031	0.187197	0.672606	16.1597	1879.98	6487.95	6754.84	-73.8403	0.0000000E+000	0.0000000E+000	0.0000000E+000	73.8403	0.0000000E+000	0.0000000E+000	0.0000000E+000	-73.8403	0.0000000E+000	0.0000000E+000	0.0000000E+000	-16.1597	0.0000000E+000	0.0000000E+000	0.0000000E+000	16.1597	3.45108	73.8403	-1.98419e-06	-0.000158223	-1.09426e-09	-0.000158222	3.78297	90448.6	0.625533	90448
3983.6	1.84965	0.721834	1.98551	-21.3185	10.7341	3.78285	-0.121457	55.3486	7.31542	1	9	0.00459868	0.00231612	0	-0.000211825	-5.02005e-05	6.37889e-06	-87.3763	0.00275412	0.000126073	0.00275124	-21.3911	1.98663	1.84977	0.724586	0.469187	0.183103	0.50365	21.3185	7315.42	18745.2	20122.1	-68.6815	0.0000000E+000	0.0000000E+000	0.0000000E+000	68.6815	0.0000000E+000	0.0000000E+000	0.0000000E+000	-68.6815	0.0000000E+000	0.0000000E+000	0.0000000E+000	-21.3185	0.0000000E+000	0.0000000E+000	0.0000000E+000	21.3185	2.56242	68.6815	-1.08661e-05	-0.000459453	6.09719e-09	-0.000459459	3.7829	31145.7	0.413321	31146.1
1000.32	2.61153	1.29066	2.91306	-26.2994	13.5768	3.78291	-0.0490878	123.273	24.1989	1	9	0.00493698	0.00169477	0	-0.000264216	0.000255253	4.63354e-06	-33.8732	0.00273402	0.00226998	0.00152382	-26.3064	2.91577	2.6138	1.29219	0.307749	0.152095	0.343282	26.2994	24198.9	48964.1	54617.5	-63.7006	0.0000000E+000	0.0000000E+000	0.0000000E+000	63.7006	0.0000000E+000	0.0000000E+000	0.0000000E+000	-63.7006	0.0000000E+000	0.0000000E+000	0.0000000E+000	-26.2994	0.0000000E+000	0.0000000E+000	0.0000000E+000	26.2994	2.0234	63.7006	-5.12913e-06	-0.000185695	-1.25298e-08	-0.000185682	3.78265	77064	5.19992	77058.8
251.044	4.2338	1.97344	4.67114	-24.991	16.523	3.78291	-0.0785609	321.251	57.3388	1	10	0.00494279	0.00105815	0	-0.000323475	0.000140708	1.69992e-05	-143.799	0.016065	-0.0129637	0.0094883	-25.1639	4.66342	4.22084	1.98293	0.194037	0.0904438	0.21408	24.991	57338.8	123014	135721	-65.009	0.0000000E+000	0.0000000E+000	0.0000000E+000	65.009	0.0000000E+000	0.0000000E+000	0.0000000E+000	-65.009	0.0000000E+000	0.0000000E+000	0.0000000E+000	-24.991	0.0000000E+000	0.0000000E+000	0.0000000E+000	24.991	2.14539	65.009	-1.04094e-05	-0.000297188	-1.10541e-08	-0.000297177	3.78277	48152.5	1.79107	48150.8
63.0823	6.28923	1.50072	6.46581	-13.4208	19.245	3.78292	-0.0726043	1681.17	90.5667	1	10	0.00491057	0.000759468	0	-0.00038261	0.00040798	4.18517e-06	-109.975	0.00551066	-0.00188253	0.00517914	-13.4694	6.46518	6.28735	1.5059	0.150436	0.0358968	0.15466	13.4208	90566.7	379547	390202	-76.5792	0.0000000E+000	0.0000000E+000	0.0000000E+000	76.5792	0.0000000E+000	0.0000000E+000	0.0000000E+000	-76.5792	0.0000000E+000	0.0000000E+000	0.0000000E+000	-13.4208	0.0000000E+000	0.0000000E+000	0.0000000E+000	13.4208	4.1908	76.5792	-8.8928e-06	-0.000274656	-2.96211e-08	-0.000274627	3.78252	52103.3	5.61923	52097.7
15.8576	7.05123	0.624263	7.07881	-5.05935	21.903	3.78291	-0.0773353	16077.4	125.035	1	10	0.00488914	0.000690672	0	-0.00043373	0.000102526	2.12015e-05	-45.8929	0.0306969	0.0213651	0.0220416	-5.22128	7.10207	7.0726	0.646305	0.140716	0.012458	0.141267	5.05935	125035	1.4123e+06	1.41783e+06	-84.9407	0.0000000E+000	0.0000000E+000	0.0000000E+000	84.9407	0.0000000E+000	0.0000000E+000	0.0000000E+000	-84.9407	0.0000000E+000	0.0000000E+000	0.0000000E+000	-5.05935	0.0000000E+000	0.0000000E+000	0.0000000E+000	5.05935	11.2953	84.9407	-7.78426e-06	-0.000292553	-7.92889e-09	-0.000292545	3.78281	48915.8	1.32574	48914.4
3.97785	7.31762	0.34431	7.32571	-2.69391	24.8164	3.78295	-0.0632707	116204	256.698	1	10	0.0049111	0.000670392	0	-0.000497096	0.000293435	7.27065e-06	54.2219	0.0108454	0.00634072	-0.00879871	-2.62289	7.33164	7.32396	0.335512	0.136355	0.00641579	0.136505	2.69391	256698	5.45558e+06	5.46162e+06	-87.3061	0.0000000E+000	0.0000000E+000	0.0000000E+000	87.3061	0.0000000E+000	0.0000000E+000	0.0000000E+000	-87.3061	0.0000000E+000	0.0000000E+000	0.0000000E+000	-2.69391	0.0000000E+000	0.0000000E+000	0.0000000E+000	2.69391	21.253	87.3061	-1.58467e-05	-0.00023935	-1.85658e-08	-0.000239331	3.78265	59789.9	4.63776	59785.2
1.00469	7.69707	0.388832	7.70688	-2.89195	239.99	3.78294	-0.0401475	407403	1037.03	1	11	0.00497961	0.000646125	0	-0.00565167	0.000331616	1.82767e-07	77.5018	0.000282867	6.12148e-05	-0.000276163	-2.88988	7.70693	7.69713	0.388556	0.129589	0.00654644	0.129754	2.89195	1.03703e+06	2.05284e+07	2.05545e+07	-87.108	0.0000000E+000	0.0000000E+000	0.0000000E+000	87.108	0.0000000E+000	0.0000000E+000	0.0000000E+000	-87.108	0.0000000E+000	0.0000000E+000	0.0000000E+000	-2.89195	0.0000000E+000	0.0000000E+000	0.0000000E+000	2.89195	19.7953	87.108	-0.00504332	-0.000151876	-1.33136e-08	-0.000151862	3.78261	94226	8.25994	94217.8
0.251173	8.01395	0.662783	8.04131	-4.72782	239.994	3.78294	-0.0401475	956037	6494.78	1	11	0.00500621	0.000622562	0	-0.00565167	0.000331616	2.05519e-07	-54.4682	0.000330118	0.00019185	0.000268647	-4.72961	8.04152	8.01414	0.663052	0.123935	0.0102499	0.124358	4.72782	6.49478e+06	7.85307e+07	7.87988e+07	-85.2722	0.0000000E+000	0.0000000E+000	0.0000000E+000	85.2722	0.0000000E+000	0.0000000E+000	0.0000000E+000	-85.2722	0.0000000E+000	0.0000000E+000	0.0000000E+000	-4.72782	0.0000000E+000	0.0000000E+000	0.0000000E+000	4.72782	12.0914	85.2722	0.000000000000000E+000	-0.000151876	-1.33136e-08	-0.000151862	3.78261	94226	8.25994	94217.8
0.0602816	8.55997	1.38325	8.67102	-9.17937	239.999	3.78294	-0.0401475	1.90868e+06	48573.1	1	11	0.00500052	0.000576693	0	-0.00565167	0.000331616	5.86677e-07	109.174	0.00101731	-0.000334122	-0.000960878	-9.17346	8.67053	8.55964	1.38229	0.11385	0.0183976	0.115327	9.17937	4.85731e+07	3.00585e+08	3.04484e+08	-80.8206	0.0000000E+000	0.0000000E+000	0.0000000E+000	80.8206	0.0000000E+000	0.0000000E+000	0.0000000E+000	-80.8206	0.0000000E+000	0.0000000E+000	0.0000000E+000	-9.17937	0.0000000E+000	0.0000000E+000	0.0000000E+000	9.17937	6.1883	80.8206	0.000000000000000E+000	-0.000151876	-1.33136e-08	-0.000151862	3.78261	94226	8.25994	94217.8
0.00796479	12.4377	3.75851	12.9932	-16.8141	20328.9	3.78297	0.000282107	5.31656e+06	444865	1	11	0.00499488	0.000384422	0	-0.0264149	0.00017889	3.29835e-07	-45.7784	0.000858002	0.000598401	0.000614884	-16.8159	12.994	12.4383	3.75912	0.0736729	0.0222629	0.0769632	16.8141	4.44865e+08	1.47216e+09	1.5379e+09	-73.1859	0.0000000E+000	0.0000000E+000	0.0000000E+000	73.1859	0.0000000E+000	0.0000000E+000	0.0000000E+000	-73.1859	0.0000000E+000	0.0000000E+000	0.0000000E+000	-16.8141	0.0000000E+000	0.0000000E+000	0.0000000E+000	16.8141	3.30922	73.1859	-0.0207633	1.0672e-06	5.04661e-11	1.06715e-06	3.78279	1.34097e+07	634.119	1.3409e+07
0.0019912	16.1961	5.28791	17.0375	-18.0815	20328.9	3.78297	0.000282107	1.51155e+07	1.45607e+06	1	11	0.00500798	0.000293939	0	-0.0264149	0.00017889	3.43786e-07	-95.5789	0.00116958	-0.000113701	0.00116404	-18.0854	17.0377	16.196	5.28908	0.0557956	0.0182169	0.0586942	18.0815	1.45607e+09	4.45971e+09	4.69139e+09	-71.9185	0.0000000E+000	0.0000000E+000	0.0000000E+000	71.9185	0.0000000E+000	0.0000000E+000	0.0000000E+000	-71.9185	0.0000000E+000	0.0000000E+000	0.0000000E+000	-18.0815	0.0000000E+000	0.0000000E+000	0.0000000E+000	18.0815	3.06285	71.9185	0.000000000000000E+000	1.0672e-06	5.04661e-11	1.06715e-06	3.78279	1.34097e+07	634.119	1.3409e+07
0.000497799	18.7148	8.18388	20.4259	-23.6195	20328.9	3.78297	0.000282107	3.90667e+07	6.27135e+06	1	11	0.00501019	0.000245286	0	-0.0264149	0.00017889	1.48623e-06	-19.0627	0.00605918	0.0057269	0.00197894	-23.6182	20.432	18.7205	8.18586	0.044856	0.0196153	0.0489573	23.6195	6.27135e+09	1.43412e+10	1.56525e+10	-66.3805	0.0000000E+000	0.0000000E+000	0.0000000E+000	66.3805	0.0000000E+000	0.0000000E+000	0.0000000E+000	-66.3805	0.0000000E+000	0.0000000E+000	0.0000000E+000	-23.6195	0.0000000E+000	0.0000000E+000	0.0000000E+000	23.6195	2.28679	66.3805	0.000000000000000E+000	1.0672e-06	5.04661e-11	1.06715e-06	3.78279	1.34097e+07	634.119	1.3409e+07
9.95598e-05	22.3866	35.1461	41.6702	-57.5046	20329	3.78297	0.000282107	4.5484e+07	3.23565e+07	1	11	0.00501287	0.000120299	0	-0.0264149	0.00017889	2.01478e-06	105.202	0.0167481	-0.00439168	-0.0161621	-57.4978	41.6542	22.3822	35.13	0.0128925	0.0202407	0.0239979	57.5046	3.23565e+10	2.06097e+10	3.83628e+10	-32.4954	0.0000000E+000	0.0000000E+000	0.0000000E+000	32.4954	0.0000000E+000	0.0000000E+000	0.0000000E+000	-32.4954	0.0000000E+000	0.0000000E+000	0.0000000E+000	-57.5046	0.0000000E+000	0.0000000E+000	0.0000000E+000	57.5046	0.636957	32.4954	0.000000000000000E+000	1.0672e-06	5.04661e-11	1.06715e-06	3.78279	1.34097e+07	634.119	1.3409e+07