File: txt/17495_R280_UC81_SOC50_C04.mpt
EC-Lab ASCII FILE
Nb header lines : 64

Potentio Electrochemical Impedance Spectroscopy

Run on channel : 4 (SN 66756)
User :
CE vs. WE compliance from -10 V to 10 V
Electrode connection : standard
Potential control : Ewe
Ewe ctrl range : min = -10.00 V, max = 10.00 V
Safety Limits :
	Do not start on E overload
Acquisition started on : 09/15/2025 12:22:32.413
Loaded Setting File :  C:\Users\Celltest\OneDrive - store-dot.com\Documents\EC-Lab\Data\Gyutae\17494_R280-G001, UC81 half-cell_C03.mpr
Saved on :
	File : 17495_R280-G001, UC81 half-cell_C04.mpr
	Directory : C:\Users\Celltest\OneDrive - store-dot.com\Documents\EC-Lab\Data\John\
	Host : 169.254.61.224
Device : VMP-3e (SN .003165)
Address : USB
EC-LAB for windows v11.62 (software)
Internet server v27.00 (firmware)
Command interpretor v12.03 (firmware)
Electrode material :
Initial state :
Electrolyte :
Comments :
Electrode surface area : 0.001 cm²
Characteristic mass : 0.001 g
Equivalent Weight : 0.000 g/eq.
Density : 0.000 g/cm3
Volume (V) : 0.001 cm³
Record Ece
Cycle Definition : Charge/Discharge alternance
Mode                Multi sine
E (V)               0.0000
vs.                 Eoc
tE (h:m:s)          0:00:0.0000
record              0
dI                  0.000
unit dI             mA
dt (s)              0.000
fi                  1.000
unit fi             MHz
ff                  0.100
unit ff             mHz
Nd                  10
Points              per decade
spacing             Logarithmic
Va (mV)             5.0
pw                  0.10
Na                  2
corr                0
E range min (V)     -10.000
E range max (V)     10.000
I Range             Auto
Bandwidth           5
nc cycles           0
goto Ns'            0
nr cycles           0
inc. cycle          0

freq/Hz	Re(Z)/Ohm	-Im(Z)/Ohm	|Z|/Ohm	Phase(Z)/deg	time/s	<Ewe>/V	<I>/mA	Cs/µF	Cp/µF	cycle number	I Range	|Ewe|/V	|I|/A	Ns	(Q-Qo)/mA.h	<Ece>/V	|Ece|/V	Phase(Zce)/deg	|Zce|/Ohm	Re(Zce)/Ohm	-Im(Zce)/Ohm	Phase(Zwe-ce)/deg	|Zwe-ce|/Ohm	Re(Zwe-ce)/Ohm	-Im(Zwe-ce)/Ohm	Re(Y)/Ohm-1	Im(Y)/Ohm-1	|Y|/Ohm-1	Phase(Y)/deg	Re(C)/nF	Im(C)/nF	|C|/nF	Phase(C)/deg	Re(M)	Im(M)	|M|	Phase(M)/deg	Re(Permittivity)	Im(Permittivity)	|Permittivity|	Phase(Permittivity)/deg	Re(Resistivity)/Ohm.cm	Im(Resistivity)/Ohm.cm	|Resistivity|/Ohm.cm	Phase(Resistivity)/deg	Re(Conductivity)/mS/cm	Im(Conductivity)/mS/cm	|Conductivity|/mS/cm	Phase(Conductivity)/deg	Tan(Delta)	Loss Angle(Delta)/deg	dq/mA.h	Pwe/W	Pce/W	Pwe-ce/W	<Ewe-Ece>/V	Rwe/Ohm	Rce/Ohm	Rwe-ce/Ohm		Ewe-Ece/V
1.00002e+06	2.0303	3.14844	3.7463	-57.1837	2.23353	3.78495	0.124518	0.0505495	0.0357028	1	10	0.000209103	5.58159e-05	0	2.42088e-05	3.03501e-06	0.000184433	-66.1884	3.3043	1.33405	3.02303	-61.4033	7.02893	3.36434	6.17147	0.144662	0.224331	0.26693	57.1837	35.7028	23.0232	42.4824	-32.8163	0.0000000E+000	0.0000000E+000	0.0000000E+000	32.8163	0.0000000E+000	0.0000000E+000	0.0000000E+000	-32.8163	0.0000000E+000	0.0000000E+000	0.0000000E+000	-57.1837	0.0000000E+000	0.0000000E+000	0.0000000E+000	57.1837	0.644858	32.8163	2.42088e-05	0.000471296	3.77915e-10	0.000471296	3.78495	30396.7	0.024374	30396.7
251206	1.06847	0.0732342	1.07097	-3.921	4.93756	3.78359	-0.0225129	8.65119	0.0404525	1	9	0.00240437	0.00224504	0	2.58619e-05	-0.000130735	5.00192e-05	77.3547	0.0222799	0.00487739	-0.0217395	-2.74671	1.07458	1.07334	0.0514947	0.931544	0.0638493	0.933729	3.921	40.4525	590.192	591.576	-86.079	0.0000000E+000	0.0000000E+000	0.0000000E+000	86.079	0.0000000E+000	0.0000000E+000	0.0000000E+000	-86.079	0.0000000E+000	0.0000000E+000	0.0000000E+000	-3.921	0.0000000E+000	0.0000000E+000	0.0000000E+000	3.921	14.5897	86.079	-3.08803e-07	-8.51796e-05	2.94321e-09	-8.51825e-05	3.78372	168064	5.80711	168069
63093.8	1.22458	0.24234	1.24833	-11.194	7.23755	3.78349	-0.0196782	10.409	0.392286	1	9	0.00526061	0.00421413	0	8.74129e-06	-1.60749e-05	2.01251e-05	51.6113	0.00477563	0.00296564	-0.00374322	-10.9994	1.25052	1.22754	0.238597	0.785832	0.155514	0.801072	11.194	392.286	1982.27	2020.71	-78.806	0.0000000E+000	0.0000000E+000	0.0000000E+000	78.806	0.0000000E+000	0.0000000E+000	0.0000000E+000	-78.806	0.0000000E+000	0.0000000E+000	0.0000000E+000	-11.194	0.0000000E+000	0.0000000E+000	0.0000000E+000	11.194	5.05313	78.806	-2.14561e-06	-7.44523e-05	3.16326e-10	-7.44526e-05	3.78351	192268	0.81689	192269
15847.7	1.48021	0.458544	1.54961	-17.2121	9.53954	3.7835	-0.0320983	21.9015	1.91775	1	9	0.00522661	0.00337286	0	8.17093e-06	0.000117695	8.93623e-06	2.19344	0.00264945	0.00264751	-0.000101403	-17.1796	1.55211	1.48286	0.458443	0.616425	0.190958	0.645325	17.2121	1917.75	6190.62	6480.86	-72.7879	0.0000000E+000	0.0000000E+000	0.0000000E+000	72.7879	0.0000000E+000	0.0000000E+000	0.0000000E+000	-72.7879	0.0000000E+000	0.0000000E+000	0.0000000E+000	-17.2121	0.0000000E+000	0.0000000E+000	0.0000000E+000	17.2121	3.22806	72.7879	-8.77748e-07	-0.000121444	-3.7778e-09	-0.00012144	3.78339	117873	3.6667	117869
3983.6	1.96105	0.811223	2.12221	-22.4733	11.907	3.7835	-0.0198648	49.2497	7.19626	1	9	0.00499351	0.00235297	0	-5.85608e-06	-0.000207174	4.33768e-06	16.268	0.00184349	0.00176968	-0.000516418	-22.4422	2.12365	1.96282	0.810707	0.435422	0.18012	0.471206	22.4733	7196.26	17396.2	18825.9	-67.5267	0.0000000E+000	0.0000000E+000	0.0000000E+000	67.5267	0.0000000E+000	0.0000000E+000	0.0000000E+000	-67.5267	0.0000000E+000	0.0000000E+000	0.0000000E+000	-22.4733	0.0000000E+000	0.0000000E+000	0.0000000E+000	22.4733	2.41739	67.5267	3.26238e-06	-7.51584e-05	4.11547e-09	-7.51625e-05	3.78371	190463	10.4292	190473
1000.32	2.78865	1.37525	3.10932	-26.2506	14.5358	3.78348	-0.0304572	115.691	22.6324	1	9	0.00505777	0.00162665	0	-3.5359e-05	-0.000436494	4.10185e-06	-15.6176	0.00252166	0.00242856	0.000678867	-26.242	3.1118	2.79108	1.37593	0.288445	0.142249	0.321614	26.2506	22632.4	45892.7	51170	-63.7494	0.0000000E+000	0.0000000E+000	0.0000000E+000	63.7494	0.0000000E+000	0.0000000E+000	0.0000000E+000	-63.7494	0.0000000E+000	0.0000000E+000	0.0000000E+000	-26.2506	0.0000000E+000	0.0000000E+000	0.0000000E+000	26.2506	2.02775	63.7494	-4.11733e-06	-0.000115234	1.32944e-08	-0.000115248	3.78392	124223	14.3314	124237
251.044	4.49363	2.21248	5.00877	-26.2137	17.483	3.78348	-0.0235135	286.544	55.9096	1	10	0.0049145	0.00098118	0	-5.52783e-05	-0.000245394	1.24072e-05	-18.0321	0.0126452	0.0120241	0.00391431	-26.1932	5.02128	4.50565	2.21639	0.179116	0.0881895	0.19965	26.2137	55909.6	113555	126572	-63.7863	0.0000000E+000	0.0000000E+000	0.0000000E+000	63.7863	0.0000000E+000	0.0000000E+000	0.0000000E+000	-63.7863	0.0000000E+000	0.0000000E+000	0.0000000E+000	-26.2137	0.0000000E+000	0.0000000E+000	0.0000000E+000	26.2137	2.03104	63.7863	-3.40529e-06	-8.89631e-05	5.77009e-09	-8.89688e-05	3.78373	160907	10.4363	160917
63.0823	6.94773	1.90457	7.20405	-15.3299	20.2049	3.78349	-0.0319699	1324.69	92.5886	1	10	0.00485674	0.000674169	0	-7.67739e-05	-0.000226284	1.29881e-05	-12.9809	0.0192654	0.018773	0.0043275	-15.3236	7.2233	6.9665	1.9089	0.133872	0.0366982	0.138811	15.3299	92588.6	337755	350216	-74.6701	0.0000000E+000	0.0000000E+000	0.0000000E+000	74.6701	0.0000000E+000	0.0000000E+000	0.0000000E+000	-74.6701	0.0000000E+000	0.0000000E+000	0.0000000E+000	-15.3299	0.0000000E+000	0.0000000E+000	0.0000000E+000	15.3299	3.64792	74.6701	-2.88917e-06	-0.000120958	7.23428e-09	-0.000120965	3.78372	118346	7.07806	118353
15.8576	8.10687	0.86082	8.15244	-6.06119	22.863	3.78348	-0.022167	11659.3	129.993	1	10	0.00484881	0.000594768	0	-9.48053e-05	-1.60749e-05	1.32419e-05	52.564	0.022264	0.0135337	-0.0176783	-5.92778	8.16406	8.1204	0.843142	0.121977	0.012952	0.122663	6.06119	129993	1.22422e+06	1.23111e+06	-83.9388	0.0000000E+000	0.0000000E+000	0.0000000E+000	83.9388	0.0000000E+000	0.0000000E+000	0.0000000E+000	-83.9388	0.0000000E+000	0.0000000E+000	0.0000000E+000	-6.06119	0.0000000E+000	0.0000000E+000	0.0000000E+000	6.06119	9.41761	83.9388	-3.36513e-06	-8.38682e-05	3.56333e-10	-8.38686e-05	3.78349	170681	0.725176	170682
3.97785	8.36706	0.452387	8.37928	-3.09483	26.0713	3.7835	-0.0115871	88442.6	257.791	1	11	0.00486063	0.000580077	0	-0.000120456	-0.000130735	6.86417e-06	32.9969	0.0118332	0.00992452	-0.00644429	-3.04722	8.38885	8.37699	0.445942	0.119168	0.00644312	0.119342	3.09483	257791	4.76794e+06	4.7749e+06	-86.9052	0.0000000E+000	0.0000000E+000	0.0000000E+000	86.9052	0.0000000E+000	0.0000000E+000	0.0000000E+000	-86.9052	0.0000000E+000	0.0000000E+000	0.0000000E+000	-3.09483	0.0000000E+000	0.0000000E+000	0.0000000E+000	3.09483	18.4954	86.9052	-9.38363e-06	-4.38398e-05	1.51483e-09	-4.38413e-05	3.78363	326527	11.2828	326539
1.00469	8.82107	0.430232	8.83155	-2.79229	240.885	3.78347	-0.0153761	368200	873.806	1	11	0.00506361	0.000573355	0	-0.00328394	4.12549e-05	3.67463e-07	11.5477	0.000640899	0.000627926	-0.000128298	-2.79126	8.83217	8.82169	0.430104	0.113096	0.00551605	0.11323	2.79229	873807	1.79157e+07	1.7937e+07	-87.2077	0.0000000E+000	0.0000000E+000	0.0000000E+000	87.2077	0.0000000E+000	0.0000000E+000	0.0000000E+000	-87.2077	0.0000000E+000	0.0000000E+000	0.0000000E+000	-2.79229	0.0000000E+000	0.0000000E+000	0.0000000E+000	2.79229	20.5031	87.2077	-0.00312405	-5.81752e-05	-6.34342e-10	-5.81746e-05	3.78343	246061	2.68305	246058
0.251173	9.15539	0.675066	9.18024	-4.21703	240.889	3.78347	-0.0153761	938643	5075.57	1	11	0.00509016	0.000554469	0	-0.00328394	4.12549e-05	5.22505e-07	-11.1782	0.000942352	0.000924474	0.000182685	-4.21774	9.18118	9.15631	0.675249	0.108635	0.0080101	0.10893	4.21703	5.07557e+06	6.88359e+07	6.90228e+07	-85.783	0.0000000E+000	0.0000000E+000	0.0000000E+000	85.783	0.0000000E+000	0.0000000E+000	0.0000000E+000	-85.783	0.0000000E+000	0.0000000E+000	0.0000000E+000	-4.21703	0.0000000E+000	0.0000000E+000	0.0000000E+000	4.21703	13.5622	85.783	0.000000000000000E+000	-5.81752e-05	-6.34342e-10	-5.81746e-05	3.78343	246061	2.68305	246058
0.0602816	9.6944	1.46228	9.80406	-8.57768	240.893	3.78347	-0.0153761	1.80553e+06	40165.5	1	11	0.00508373	0.000518533	0	-0.00328394	4.12549e-05	3.01166e-07	41.1051	0.000580804	0.000437639	-0.000381845	-8.57509	9.80443	9.69483	1.4619	0.100858	0.0152131	0.101999	8.57768	4.01655e+07	2.66283e+08	2.69296e+08	-81.4223	0.0000000E+000	0.0000000E+000	0.0000000E+000	81.4223	0.0000000E+000	0.0000000E+000	0.0000000E+000	-81.4223	0.0000000E+000	0.0000000E+000	0.0000000E+000	-8.57768	0.0000000E+000	0.0000000E+000	0.0000000E+000	8.57768	6.62966	81.4223	0.000000000000000E+000	-5.81752e-05	-6.34342e-10	-5.81746e-05	3.78343	246061	2.68305	246058
0.00796479	13.7486	3.8049	14.2654	-15.4693	20329.8	3.78346	0.000571764	5.25173e+06	373612	1	11	0.00507452	0.000355722	0	-0.0145786	7.94748e-05	4.2313e-07	-3.76469	0.0011895	0.00118693	7.8101e-05	-15.4683	14.2666	13.7498	3.80498	0.0675601	0.0186971	0.0700996	15.4693	3.73612e+08	1.35001e+09	1.40075e+09	-74.5307	0.0000000E+000	0.0000000E+000	0.0000000E+000	74.5307	0.0000000E+000	0.0000000E+000	0.0000000E+000	-74.5307	0.0000000E+000	0.0000000E+000	0.0000000E+000	-15.4693	0.0000000E+000	0.0000000E+000	0.0000000E+000	15.4693	3.6134	74.5307	-0.0112947	2.16325e-06	4.54409e-11	2.1632e-06	3.78338	6.61717e+06	138.999	6.61703e+06
0.0019912	17.4248	5.22404	18.191	-16.689	20329.8	3.78346	0.000571764	1.53003e+07	1.26182e+06	1	11	0.00509011	0.000279814	0	-0.0145786	7.94748e-05	7.78148e-07	-26.1502	0.00278094	0.00249629	0.00122563	-16.6904	18.1938	17.4273	5.22526	0.0526566	0.0157867	0.0549722	16.689	1.26182e+09	4.20881e+09	4.39389e+09	-73.311	0.0000000E+000	0.0000000E+000	0.0000000E+000	73.311	0.0000000E+000	0.0000000E+000	0.0000000E+000	-73.311	0.0000000E+000	0.0000000E+000	0.0000000E+000	-16.689	0.0000000E+000	0.0000000E+000	0.0000000E+000	16.689	3.3355	73.311	0.000000000000000E+000	2.16325e-06	4.54409e-11	2.1632e-06	3.78338	6.61717e+06	138.999	6.61703e+06
0.000497799	19.738	8.3641	21.437	-22.9651	20329.8	3.78346	0.000571764	3.82249e+07	5.81911e+06	1	11	0.00508971	0.000237426	0	-0.0145786	7.94748e-05	1.53868e-06	-25.371	0.00648065	0.00585561	0.00277682	-22.9659	21.4435	19.7438	8.36688	0.042951	0.0182008	0.0466483	22.9651	5.81911e+09	1.37322e+10	1.49143e+10	-67.0349	0.0000000E+000	0.0000000E+000	0.0000000E+000	67.0349	0.0000000E+000	0.0000000E+000	0.0000000E+000	-67.0349	0.0000000E+000	0.0000000E+000	0.0000000E+000	-22.9651	0.0000000E+000	0.0000000E+000	0.0000000E+000	22.9651	2.35984	67.0349	0.000000000000000E+000	2.16325e-06	4.54409e-11	2.1632e-06	3.78338	6.61717e+06	138.999	6.61703e+06
9.95598e-05	23.2683	34.7563	41.826	-56.1989	20329.8	3.78346	0.000571764	4.59941e+07	3.17597e+07	1	11	0.00508832	0.000121654	0	-0.0145786	7.94748e-05	2.12315e-06	-91.1309	0.0174523	-0.000344443	0.0174489	-56.2125	41.8403	23.268	34.7738	0.0133006	0.0198674	0.0239086	56.1989	3.17597e+10	2.12622e+10	3.82199e+10	-33.8011	0.0000000E+000	0.0000000E+000	0.0000000E+000	33.8011	0.0000000E+000	0.0000000E+000	0.0000000E+000	-33.8011	0.0000000E+000	0.0000000E+000	0.0000000E+000	-56.1989	0.0000000E+000	0.0000000E+000	0.0000000E+000	56.1989	0.66947	33.8011	0.000000000000000E+000	2.16325e-06	4.54409e-11	2.1632e-06	3.78338	6.61717e+06	138.999	6.61703e+06