File: txt/17497_R280_UC81_SOC50_C05.mpt
EC-Lab ASCII FILE
Nb header lines : 64

Potentio Electrochemical Impedance Spectroscopy

Run on channel : 5 (SN 65912)
User :
CE vs. WE compliance from -10 V to 10 V
Electrode connection : standard
Potential control : Ewe
Ewe ctrl range : min = -10.00 V, max = 10.00 V
Safety Limits :
	Do not start on E overload
Acquisition started on : 09/15/2025 12:22:53.145
Loaded Setting File :  C:\Users\Celltest\OneDrive - store-dot.com\Documents\EC-Lab\Data\John\17495_R280-G001, UC81 half-cell.mps
Saved on :
	File : 17497_R280-G001, UC81 half-cell_C05.mpr
	Directory : C:\Users\Celltest\OneDrive - store-dot.com\Documents\EC-Lab\Data\John\
	Host : 169.254.61.224
Device : VMP-3e (SN .003165)
Address : USB
EC-LAB for windows v11.62 (software)
Internet server v27.00 (firmware)
Command interpretor v12.03 (firmware)
Electrode material :
Initial state :
Electrolyte :
Comments :
Electrode surface area : 0.001 cm²
Characteristic mass : 0.001 g
Equivalent Weight : 0.000 g/eq.
Density : 0.000 g/cm3
Volume (V) : 0.001 cm³
Record Ece
Cycle Definition : Charge/Discharge alternance
Mode                Multi sine
E (V)               0.0000
vs.                 Eoc
tE (h:m:s)          0:00:0.0000
record              0
dI                  0.000
unit dI             mA
dt (s)              0.000
fi                  1.000
unit fi             MHz
ff                  0.100
unit ff             mHz
Nd                  10
Points              per decade
spacing             Logarithmic
Va (mV)             5.0
pw                  0.10
Na                  2
corr                0
E range min (V)     -10.000
E range max (V)     10.000
I Range             Auto
Bandwidth           5
nc cycles           0
goto Ns'            0
nr cycles           0
inc. cycle          0

freq/Hz	Re(Z)/Ohm	-Im(Z)/Ohm	|Z|/Ohm	Phase(Z)/deg	time/s	<Ewe>/V	<I>/mA	Cs/µF	Cp/µF	cycle number	I Range	|Ewe|/V	|I|/A	Ns	(Q-Qo)/mA.h	<Ece>/V	|Ece|/V	Phase(Zce)/deg	|Zce|/Ohm	Re(Zce)/Ohm	-Im(Zce)/Ohm	Phase(Zwe-ce)/deg	|Zwe-ce|/Ohm	Re(Zwe-ce)/Ohm	-Im(Zwe-ce)/Ohm	Re(Y)/Ohm-1	Im(Y)/Ohm-1	|Y|/Ohm-1	Phase(Y)/deg	Re(C)/nF	Im(C)/nF	|C|/nF	Phase(C)/deg	Re(M)	Im(M)	|M|	Phase(M)/deg	Re(Permittivity)	Im(Permittivity)	|Permittivity|	Phase(Permittivity)/deg	Re(Resistivity)/Ohm.cm	Im(Resistivity)/Ohm.cm	|Resistivity|/Ohm.cm	Phase(Resistivity)/deg	Re(Conductivity)/mS/cm	Im(Conductivity)/mS/cm	|Conductivity|/mS/cm	Phase(Conductivity)/deg	Tan(Delta)	Loss Angle(Delta)/deg	dq/mA.h	Pwe/W	Pce/W	Pwe-ce/W	<Ewe-Ece>/V	Rwe/Ohm	Rce/Ohm	Rwe-ce/Ohm		Ewe-Ece/V
1.00002e+06	1.02192	-0.269608	1.05688	14.7794	2.69354	3.78587	0.171021	-0.590309	-0.0384142	1	9	0.000227154	0.000214928	0	4.46815e-05	0.000265815	0.000190277	-1.26985	0.885304	0.885087	0.0196195	7.4683	1.92332	1.907	-0.249989	0.914875	-0.241368	0.946179	-14.7794	-38.4142	145.604	150.586	-104.779	0.0000000E+000	0.0000000E+000	0.0000000E+000	104.779	0.0000000E+000	0.0000000E+000	0.0000000E+000	-104.779	0.0000000E+000	0.0000000E+000	0.0000000E+000	14.7794	0.0000000E+000	0.0000000E+000	0.0000000E+000	-14.7794	3.79038	75.2206	4.46815e-05	0.000647462	4.54599e-08	0.000647416	3.7856	22136.9	1.55429	22135.3
251206	1.05206	0.116465	1.05849	-6.31705	4.99152	3.78428	-0.00478822	5.43993	0.0658591	1	9	0.0029206	0.00275923	0	6.87402e-05	-5.87355e-05	4.84118e-05	92.7607	0.0175454	-0.000845069	-0.0175251	-5.37683	1.05586	1.05121	0.0989402	0.939009	0.10395	0.944745	6.31705	65.8591	594.921	598.556	-83.683	0.0000000E+000	0.0000000E+000	0.0000000E+000	83.683	0.0000000E+000	0.0000000E+000	0.0000000E+000	-83.683	0.0000000E+000	0.0000000E+000	0.0000000E+000	-6.31705	0.0000000E+000	0.0000000E+000	0.0000000E+000	6.31705	9.03325	83.683	2.31608e-06	-1.812e-05	2.81238e-10	-1.81202e-05	3.78434	790332	12.2667	790344
63093.8	1.2504	0.25243	1.27563	-11.4134	7.16953	3.78404	-0.0151409	9.99292	0.391314	1	9	0.00533025	0.00417852	0	6.09942e-05	-9.69179e-05	2.40939e-05	90.3972	0.00576612	-3.99736e-05	-0.00576598	-11.1597	1.27446	1.25036	0.246664	0.768425	0.155129	0.783927	11.4134	391.314	1938.36	1977.47	-78.5866	0.0000000E+000	0.0000000E+000	0.0000000E+000	78.5866	0.0000000E+000	0.0000000E+000	0.0000000E+000	-78.5866	0.0000000E+000	0.0000000E+000	0.0000000E+000	-11.4134	0.0000000E+000	0.0000000E+000	0.0000000E+000	11.4134	4.95347	78.5866	9.33361e-06	-5.72937e-05	1.46742e-09	-5.72951e-05	3.78414	249923	6.40108	249929
15847.7	1.5133	0.465294	1.58322	-17.091	9.21956	3.78402	-0.0132416	21.5837	1.86423	1	9	0.0049187	0.00310677	0	8.05622e-05	0.000227633	7.47164e-06	32.9116	0.00240496	0.00201898	-0.00130672	-17.0244	1.58477	1.51532	0.463987	0.60373	0.185628	0.631624	17.091	1864.23	6063.14	6343.26	-72.909	0.0000000E+000	0.0000000E+000	0.0000000E+000	72.909	0.0000000E+000	0.0000000E+000	0.0000000E+000	-72.909	0.0000000E+000	0.0000000E+000	0.0000000E+000	-17.091	0.0000000E+000	0.0000000E+000	0.0000000E+000	17.091	3.25236	72.909	1.0969e-06	-5.01066e-05	-3.01423e-09	-5.01036e-05	3.78379	285766	17.1907	285749
3983.6	2.0105	0.818362	2.17067	-22.1485	10.9441	3.78384	-0.116843	48.8201	6.93906	1	9	0.0045231	0.00208373	0	7.27284e-05	0.000303998	5.74049e-06	-27.4189	0.00275491	0.00244544	0.00126862	-22.1552	2.17342	2.01295	0.819631	0.426692	0.173683	0.460686	22.1485	6939.06	17047.4	18405.6	-67.8515	0.0000000E+000	0.0000000E+000	0.0000000E+000	67.8515	0.0000000E+000	0.0000000E+000	0.0000000E+000	-67.8515	0.0000000E+000	0.0000000E+000	0.0000000E+000	-22.1485	0.0000000E+000	0.0000000E+000	0.0000000E+000	22.1485	2.45674	67.8515	-7.48824e-06	-0.000442115	-3.55199e-08	-0.000442079	3.78354	32384	2.60177	32381.4
1000.32	2.84902	1.39683	3.17302	-26.1181	13.7498	3.78397	0.009847	113.903	22.074	1	9	0.004895	0.00154269	0	6.04149e-05	0.000132177	5.88215e-06	22.9187	0.0038129	0.00351191	-0.00148484	-26.0661	3.17552	2.85253	1.39535	0.282976	0.138739	0.315157	26.1181	22074	45022.6	50142.8	-63.8819	0.0000000E+000	0.0000000E+000	0.0000000E+000	63.8819	0.0000000E+000	0.0000000E+000	0.0000000E+000	-63.8819	0.0000000E+000	0.0000000E+000	0.0000000E+000	-26.1181	0.0000000E+000	0.0000000E+000	0.0000000E+000	26.1181	2.03962	63.8819	-1.02572e-07	3.72607e-05	1.30154e-09	3.72594e-05	3.78383	384276	13.423	384263
251.044	4.52306	2.29207	5.07067	-26.8737	16.697	3.78396	-0.0288064	276.593	56.5155	1	10	0.0048966	0.000965671	0	3.85739e-05	9.39943e-05	8.34265e-06	-91.9109	0.00863922	-0.000288072	0.00863442	-26.9621	5.07432	4.52277	2.30071	0.175915	0.0891451	0.197213	26.8737	56515.5	111525	125027	-63.1263	0.0000000E+000	0.0000000E+000	0.0000000E+000	63.1263	0.0000000E+000	0.0000000E+000	0.0000000E+000	-63.1263	0.0000000E+000	0.0000000E+000	0.0000000E+000	-26.8737	0.0000000E+000	0.0000000E+000	0.0000000E+000	26.8737	1.97335	63.1263	-3.30041e-06	-0.000109002	-2.70764e-09	-0.000109	3.78386	131358	3.26296	131355
63.0823	7.12354	2.04003	7.4099	-15.9806	19.417	3.78395	-0.0252506	1236.73	93.7399	1	10	0.00487399	0.000657767	0	1.8055e-05	-0.000154192	9.71025e-06	-19.5078	0.0147624	0.013915	0.00492969	-15.9876	7.42463	7.13746	2.04496	0.129739	0.0371545	0.134955	15.9806	93739.9	327329	340487	-74.0194	0.0000000E+000	0.0000000E+000	0.0000000E+000	74.0194	0.0000000E+000	0.0000000E+000	0.0000000E+000	-74.0194	0.0000000E+000	0.0000000E+000	0.0000000E+000	-15.9806	0.0000000E+000	0.0000000E+000	0.0000000E+000	15.9806	3.49188	74.0194	-2.96623e-06	-9.5547e-05	3.89343e-09	-9.55509e-05	3.78411	149856	6.10645	149862
15.8576	8.38255	0.917581	8.43262	-6.24691	22.074	3.78395	-0.0316362	10938	129.51	1	10	0.00487748	0.000578406	0	1.51189e-06	-3.96442e-05	6.43795e-06	-31.2905	0.0111305	0.00951152	0.00578094	-6.27888	8.44271	8.39206	0.923362	0.117883	0.0129038	0.118587	6.24691	129510	1.18313e+06	1.1902e+06	-83.7531	0.0000000E+000	0.0000000E+000	0.0000000E+000	83.7531	0.0000000E+000	0.0000000E+000	0.0000000E+000	-83.7531	0.0000000E+000	0.0000000E+000	0.0000000E+000	-6.24691	0.0000000E+000	0.0000000E+000	0.0000000E+000	6.24691	9.13549	83.7531	-1.99318e-06	-0.00011971	1.25419e-09	-0.000119711	3.78399	119608	1.25313	119609
3.97785	8.71214	0.449826	8.72374	-2.95568	25.2833	3.78399	-0.0129703	88946.2	236.489	1	11	0.00487673	0.000559019	0	-2.40414e-05	-1.46181e-06	9.49213e-06	-114.565	0.01698	-0.00705909	0.0154431	-3.05943	8.7175	8.70508	0.465269	0.114477	0.0059107	0.11463	2.95568	236488	4.58026e+06	4.58637e+06	-87.0443	0.0000000E+000	0.0000000E+000	0.0000000E+000	87.0443	0.0000000E+000	0.0000000E+000	0.0000000E+000	-87.0443	0.0000000E+000	0.0000000E+000	0.0000000E+000	-2.95568	0.0000000E+000	0.0000000E+000	0.0000000E+000	2.95568	19.3678	87.0443	-4.69799e-06	-4.90796e-05	1.89601e-11	-4.90796e-05	3.78399	291741	0.112704	291741
1.00469	9.03573	0.439537	9.04642	-2.78492	240.094	3.78397	-0.0133501	360405	850.803	1	11	0.00507488	0.000560982	0	-0.00297355	3.67206e-05	7.4713e-07	-0.00436791	0.00133182	0.00133182	1.01531e-07	-2.78451	9.04775	9.03706	0.439537	0.11041	0.00537085	0.110541	2.78492	850803	1.74903e+07	1.7511e+07	-87.2151	0.0000000E+000	0.0000000E+000	0.0000000E+000	87.2151	0.0000000E+000	0.0000000E+000	0.0000000E+000	-87.2151	0.0000000E+000	0.0000000E+000	0.0000000E+000	-2.78492	0.0000000E+000	0.0000000E+000	0.0000000E+000	2.78492	20.5574	87.2151	-0.00291596	-5.05165e-05	-4.90226e-10	-5.0516e-05	3.78393	283440	2.75058	283438
0.251173	9.38029	0.674211	9.40449	-4.11108	240.095	3.78397	-0.0133501	939833	4830.27	1	11	0.00510377	0.000542695	0	-0.00297355	3.67206e-05	8.30628e-07	0.928272	0.00153056	0.00153036	-2.47962e-05	-4.11026	9.40602	9.38182	0.674186	0.106059	0.00762299	0.106332	4.11108	4.83027e+06	6.72035e+07	6.73769e+07	-85.8889	0.0000000E+000	0.0000000E+000	0.0000000E+000	85.8889	0.0000000E+000	0.0000000E+000	0.0000000E+000	-85.8889	0.0000000E+000	0.0000000E+000	0.0000000E+000	-4.11108	0.0000000E+000	0.0000000E+000	0.0000000E+000	4.11108	13.913	85.8889	0.000000000000000E+000	-5.05165e-05	-4.90226e-10	-5.0516e-05	3.78393	283440	2.75058	283438
0.0602816	9.91167	1.46422	10.0192	-8.40336	240.096	3.78397	-0.0133501	1.80313e+06	38509.9	1	11	0.00509369	0.00050839	0	-0.00297355	3.67206e-05	4.45319e-07	-4.52073	0.000875939	0.000873213	6.90413e-05	-8.40302	10.0201	9.91255	1.46429	0.0987364	0.014586	0.099808	8.40336	3.85099e+07	2.60683e+08	2.63512e+08	-81.5966	0.0000000E+000	0.0000000E+000	0.0000000E+000	81.5966	0.0000000E+000	0.0000000E+000	0.0000000E+000	-81.5966	0.0000000E+000	0.0000000E+000	0.0000000E+000	-8.40336	0.0000000E+000	0.0000000E+000	0.0000000E+000	8.40336	6.76924	81.5966	0.000000000000000E+000	-5.05165e-05	-4.90226e-10	-5.0516e-05	3.78393	283440	2.75058	283438
0.00796479	13.9302	3.77883	14.4336	-15.1773	20329	3.78398	-0.0001285	5.28796e+06	362454	1	11	0.00508764	0.000352485	0	-0.0163136	0.000113085	2.19985e-07	-126.052	0.000624096	-0.000367295	0.00050457	-15.1797	14.4334	13.9298	3.77934	0.0668661	0.0181387	0.0692826	15.1773	3.62454e+08	1.33614e+09	1.38443e+09	-74.8227	0.0000000E+000	0.0000000E+000	0.0000000E+000	74.8227	0.0000000E+000	0.0000000E+000	0.0000000E+000	-74.8227	0.0000000E+000	0.0000000E+000	0.0000000E+000	-15.1773	0.0000000E+000	0.0000000E+000	0.0000000E+000	15.1773	3.68637	74.8227	-0.0133401	-4.86241e-07	-1.45315e-11	-4.86227e-07	3.78387	2.94473e+07	880.043	2.94464e+07
0.0019912	17.5323	5.17232	18.2794	-16.4369	20329	3.78398	-0.0001285	1.54533e+07	1.23728e+06	1	11	0.00510089	0.000279052	0	-0.0163136	0.000113085	5.61505e-07	-22.8976	0.00201219	0.00185363	0.000782914	-16.4376	18.2814	17.5342	5.1731	0.0524707	0.0154797	0.0547065	16.4369	1.23728e+09	4.19395e+09	4.37265e+09	-73.5631	0.0000000E+000	0.0000000E+000	0.0000000E+000	73.5631	0.0000000E+000	0.0000000E+000	0.0000000E+000	-73.5631	0.0000000E+000	0.0000000E+000	0.0000000E+000	-16.4369	0.0000000E+000	0.0000000E+000	0.0000000E+000	16.4369	3.38964	73.5631	0.000000000000000E+000	-4.86241e-07	-1.45315e-11	-4.86227e-07	3.78387	2.94473e+07	880.043	2.94464e+07
0.000497799	19.8282	8.41464	21.5398	-22.9953	20329	3.78398	-0.0001285	3.79954e+07	5.79854e+06	1	11	0.00510063	0.000236801	0	-0.0163136	0.000113085	3.01415e-07	-26.0441	0.00127287	0.00114361	0.000558868	-22.9955	21.541	19.8293	8.4152	0.0427366	0.0181365	0.0464257	22.9953	5.79854e+09	1.36636e+10	1.48431e+10	-67.0047	0.0000000E+000	0.0000000E+000	0.0000000E+000	67.0047	0.0000000E+000	0.0000000E+000	0.0000000E+000	-67.0047	0.0000000E+000	0.0000000E+000	0.0000000E+000	-22.9953	0.0000000E+000	0.0000000E+000	0.0000000E+000	22.9953	2.35639	67.0047	0.000000000000000E+000	-4.86241e-07	-1.45315e-11	-4.86227e-07	3.78387	2.94473e+07	880.043	2.94464e+07
9.95598e-05	23.3162	34.8843	41.959	-56.2417	20329	3.78398	-0.0001285	4.58254e+07	3.16749e+07	1	11	0.00509883	0.000121519	0	-0.0163136	0.000113085	2.29955e-07	147.744	0.00189233	-0.00160029	-0.00100995	-56.2428	41.9572	23.3146	34.8832	0.0132437	0.0198143	0.0238328	56.2417	3.16749e+10	2.11711e+10	3.80988e+10	-33.7583	0.0000000E+000	0.0000000E+000	0.0000000E+000	33.7583	0.0000000E+000	0.0000000E+000	0.0000000E+000	-33.7583	0.0000000E+000	0.0000000E+000	0.0000000E+000	-56.2417	0.0000000E+000	0.0000000E+000	0.0000000E+000	56.2417	0.668387	33.7583	0.000000000000000E+000	-4.86241e-07	-1.45315e-11	-4.86227e-07	3.78387	2.94473e+07	880.043	2.94464e+07