File: txt/17490_R279_UA654_SOC00_C08.mpt
EC-Lab ASCII FILE
Nb header lines : 63

Potentio Electrochemical Impedance Spectroscopy

Run on channel : 8 (SN 65398)
User :
CE vs. WE compliance from -10 V to 10 V
Electrode connection : standard
Potential control : Ewe
Ewe ctrl range : min = -10.00 V, max = 10.00 V
Safety Limits :
	Do not start on E overload
Acquisition started on : 09/15/2025 10:08:35.287
Loaded Setting File :  C:\Users\Celltest\OneDrive - store-dot.com\Documents\EC-Lab\Data\Charmaine\R279\17382.mps
Saved on :
	File : 17490_C08.mpr
	Directory : C:\Users\Celltest\OneDrive - store-dot.com\Documents\EC-Lab\Data\Charmaine\R279\
	Host : 169.254.61.224
Device : VMP-3e (SN .003165)
Address : USB
EC-LAB for windows v11.62 (software)
Internet server v27.00 (firmware)
Command interpretor v12.03 (firmware)
Electrode material :
Initial state :
Electrolyte :
Comments :
Electrode surface area : 0.001 cm²
Characteristic mass : 0.001 g
Equivalent Weight : 0.000 g/eq.
Density : 0.000 g/cm3
Volume (V) : 0.001 cm³
Cycle Definition : Charge/Discharge alternance
Mode                Single sine
E (V)               0.0000
vs.                 Eoc
tE (h:m:s)          0:00:0.0000
record              0
dI                  0.000
unit dI             mA
dt (s)              0.000
fi                  100.000
unit fi             kHz
ff                  10.000
unit ff             mHz
Nd                  6
Points              per decade
spacing             Logarithmic
Va (mV)             5.0
pw                  0.10
Na                  2
corr                0
E range min (V)     -10.000
E range max (V)     10.000
I Range             Auto
Bandwidth           5
nc cycles           0
goto Ns'            0
nr cycles           0
inc. cycle          0

freq/Hz	Re(Z)/Ohm	-Im(Z)/Ohm	|Z|/Ohm	Phase(Z)/deg	time/s	<Ewe>/V	<I>/mA	Cs/µF	Cp/µF	cycle number	I Range	|Ewe|/V	|I|/A	Ns	(Q-Qo)/mA.h	Re(Y)/Ohm-1	Im(Y)/Ohm-1	|Y|/Ohm-1	Phase(Y)/deg	Re(C)/nF	Im(C)/nF	|C|/nF	Phase(C)/deg	Re(M)	Im(M)	|M|	Phase(M)/deg	Re(Permittivity)	Im(Permittivity)	|Permittivity|	Phase(Permittivity)/deg	Re(Resistivity)/Ohm.cm	Im(Resistivity)/Ohm.cm	|Resistivity|/Ohm.cm	Phase(Resistivity)/deg	Re(Conductivity)/mS/cm	Im(Conductivity)/mS/cm	|Conductivity|/mS/cm	Phase(Conductivity)/deg	Tan(Delta)	Loss Angle(Delta)/deg	dq/mA.h	Pwe/W	Rwe/Ohm
100004	1.15319	0.231826	1.17626	-11.3667	1.86549	0.261806	0.0155902	6.86501	0.266661	1	9	0.00456157	0.00387802	0	-1.76102e-06	0.833476	0.167554	0.850151	11.3667	266.661	1326.47	1353.01	-78.6333	0.0000000E+000	0.0000000E+000	0.0000000E+000	78.6333	0.0000000E+000	0.0000000E+000	0.0000000E+000	-78.6333	0.0000000E+000	0.0000000E+000	0.0000000E+000	-11.3667	0.0000000E+000	0.0000000E+000	0.0000000E+000	11.3667	4.97437	78.6333	-1.76102e-06	4.08159e-06	16793
46420.4	1.276	0.301975	1.31125	-13.3145	2.88048	0.261819	0.0184175	11.3538	0.602161	1	9	0.00507257	0.0038685	0	-7.66467e-07	0.742133	0.175631	0.762632	13.3145	602.161	2544.45	2614.73	-76.6855	0.0000000E+000	0.0000000E+000	0.0000000E+000	76.6855	0.0000000E+000	0.0000000E+000	0.0000000E+000	-76.6855	0.0000000E+000	0.0000000E+000	0.0000000E+000	-13.3145	0.0000000E+000	0.0000000E+000	0.0000000E+000	13.3145	4.22553	76.6855	-1.11858e-06	4.82205e-06	14215.7
21544.7	1.42624	0.393294	1.47947	-15.4165	3.75448	0.261822	0.0157576	18.7829	1.32734	1	9	0.00540977	0.00365655	0	2.25233e-06	0.651597	0.179682	0.675917	15.4165	1327.34	4813.48	4993.13	-74.5835	0.0000000E+000	0.0000000E+000	0.0000000E+000	74.5835	0.0000000E+000	0.0000000E+000	0.0000000E+000	-74.5835	0.0000000E+000	0.0000000E+000	0.0000000E+000	-15.4165	0.0000000E+000	0.0000000E+000	0.0000000E+000	15.4165	3.6264	74.5835	3.46522e-07	4.12568e-06	16615.6
10002.2	1.61761	0.507464	1.69534	-17.4172	4.62849	0.261807	0.0138044	31.3558	2.8094	1	9	0.00508269	0.00299803	0	5.84858e-06	0.562807	0.176559	0.589851	17.4172	2809.4	8955.35	9385.68	-72.5827	0.0000000E+000	0.0000000E+000	0.0000000E+000	72.5827	0.0000000E+000	0.0000000E+000	0.0000000E+000	-72.5827	0.0000000E+000	0.0000000E+000	0.0000000E+000	-17.4172	0.0000000E+000	0.0000000E+000	0.0000000E+000	17.4172	3.18764	72.5827	-1.72261e-07	3.61409e-06	18965.4
4641.49	1.86055	0.671587	1.97805	-19.8476	5.47771	0.261795	0.0280529	51.0576	5.88559	1	9	0.00529441	0.00267658	0	8.5431e-06	0.475518	0.171643	0.505548	19.8476	5885.59	16305.3	17335.1	-70.1524	0.0000000E+000	0.0000000E+000	0.0000000E+000	70.1524	0.0000000E+000	0.0000000E+000	0.0000000E+000	-70.1524	0.0000000E+000	0.0000000E+000	0.0000000E+000	-19.8476	0.0000000E+000	0.0000000E+000	0.0000000E+000	19.8476	2.77038	70.1524	4.02784e-06	7.34412e-06	9332.2
2155.69	2.15193	0.90759	2.33549	-22.8679	6.41171	0.261787	0.0280529	81.3475	12.2847	1	9	0.00516897	0.00221322	0	1.50089e-05	0.394522	0.166392	0.428175	22.8679	12284.7	29127.6	31612.2	-67.1321	0.0000000E+000	0.0000000E+000	0.0000000E+000	67.1321	0.0000000E+000	0.0000000E+000	0.0000000E+000	-67.1321	0.0000000E+000	0.0000000E+000	0.0000000E+000	-22.8679	0.0000000E+000	0.0000000E+000	0.0000000E+000	22.8679	2.37104	67.1321	1.72716e-06	7.34388e-06	9331.91
1000.32	2.52028	1.31303	2.84181	-27.5189	7.3477	0.261795	0.0303408	121.173	25.8682	1	9	0.00508368	0.00178889	0	2.2769e-05	0.312075	0.162587	0.351888	27.5189	25868.2	49652.4	55986.9	-62.4811	0.0000000E+000	0.0000000E+000	0.0000000E+000	62.4811	0.0000000E+000	0.0000000E+000	0.0000000E+000	-62.4811	0.0000000E+000	0.0000000E+000	0.0000000E+000	-27.5189	0.0000000E+000	0.0000000E+000	0.0000000E+000	27.5189	1.91944	62.4811	3.3741e-06	7.94306e-06	8628.47
463.961	3.05018	2.05502	3.67787	-33.9697	8.53619	0.261811	-0.0114926	166.925	52.1151	1	10	0.00509244	0.00138462	0	2.15507e-05	0.225493	0.151923	0.271897	33.9697	52115.1	77352.1	93270.2	-56.0303	0.0000000E+000	0.0000000E+000	0.0000000E+000	56.0303	0.0000000E+000	0.0000000E+000	0.0000000E+000	-56.0303	0.0000000E+000	0.0000000E+000	0.0000000E+000	-33.9697	0.0000000E+000	0.0000000E+000	0.0000000E+000	33.9697	1.48426	56.0303	-2.05094e-06	-3.00888e-06	22780.9
215.345	4.0246	3.31537	5.21431	-39.4809	9.47044	0.261811	-0.0117641	222.923	90.1205	1	10	0.00503557	0.000965721	0	1.8615e-05	0.148023	0.121938	0.19178	39.4809	90120.5	109399	141739	-50.5191	0.0000000E+000	0.0000000E+000	0.0000000E+000	50.5191	0.0000000E+000	0.0000000E+000	0.0000000E+000	-50.5191	0.0000000E+000	0.0000000E+000	0.0000000E+000	-39.4809	0.0000000E+000	0.0000000E+000	0.0000000E+000	39.4809	1.21392	50.5191	-1.04067e-06	-3.07998e-06	22255
100.032	5.97549	5.04102	7.81782	-40.1515	10.4017	0.261817	-0.0113921	315.619	131.228	1	10	0.00501114	0.00064099	0	1.61517e-05	0.0977692	0.0824796	0.127913	40.1515	131228	155555	203515	-49.8485	0.0000000E+000	0.0000000E+000	0.0000000E+000	49.8485	0.0000000E+000	0.0000000E+000	0.0000000E+000	-49.8485	0.0000000E+000	0.0000000E+000	0.0000000E+000	-40.1515	0.0000000E+000	0.0000000E+000	0.0000000E+000	40.1515	1.18537	49.8485	-1.1584e-06	-2.98266e-06	22982.3
46.4415	9.40339	6.54792	11.4586	-34.8509	11.3356	0.261812	-0.0134046	523.372	170.905	1	10	0.00500098	0.00043644	0	1.39359e-05	0.0716181	0.0498703	0.0872709	34.8509	170905	245435	299077	-55.1491	0.0000000E+000	0.0000000E+000	0.0000000E+000	55.1491	0.0000000E+000	0.0000000E+000	0.0000000E+000	-55.1491	0.0000000E+000	0.0000000E+000	0.0000000E+000	-34.8509	0.0000000E+000	0.0000000E+000	0.0000000E+000	34.8509	1.43609	55.1491	-1.1678e-06	-3.5095e-06	19531.5
21.5517	13.7205	6.47263	15.1706	-25.2556	12.2213	0.261802	-0.0173515	1140.92	207.689	1	10	0.0049958	0.000329308	0	1.12827e-05	0.0596162	0.0281239	0.065917	25.2556	207689	440253	486783	-64.7444	0.0000000E+000	0.0000000E+000	0.0000000E+000	64.7444	0.0000000E+000	0.0000000E+000	0.0000000E+000	-64.7444	0.0000000E+000	0.0000000E+000	0.0000000E+000	-25.2556	0.0000000E+000	0.0000000E+000	0.0000000E+000	25.2556	2.11977	64.7444	-7.96109e-07	-4.54266e-06	15088.1
10.0032	17.0239	4.89596	17.7139	-16.0449	13.4267	0.261841	-0.00555355	3249.7	248.251	1	11	0.00499187	0.000281805	0	6.01087e-06	0.0542537	0.0156031	0.0564528	16.0449	248251	863199	898187	-73.9551	0.0000000E+000	0.0000000E+000	0.0000000E+000	73.9551	0.0000000E+000	0.0000000E+000	0.0000000E+000	-73.9551	0.0000000E+000	0.0000000E+000	0.0000000E+000	-16.0449	0.0000000E+000	0.0000000E+000	0.0000000E+000	16.0449	3.47712	73.9551	-2.77643e-06	-1.45415e-06	47148.3
4.63925	18.7857	3.3486	19.0819	-10.107	14.2873	0.261839	-0.00492857	10244.9	315.496	1	11	0.0049945	0.000261741	0	4.39918e-06	0.0515925	0.00919649	0.0524058	10.107	315496	1.76994e+06	1.79784e+06	-79.893	0.0000000E+000	0.0000000E+000	0.0000000E+000	79.893	0.0000000E+000	0.0000000E+000	0.0000000E+000	-79.893	0.0000000E+000	0.0000000E+000	0.0000000E+000	-10.107	0.0000000E+000	0.0000000E+000	0.0000000E+000	10.107	5.61002	79.893	-4.16684e-06	-1.29049e-06	53126.8
2.15577	19.7847	2.47749	19.9392	-7.13757	16.0128	0.26184	-0.00370991	29799.4	460.06	1	11	0.00500058	0.000250791	0	6.59002e-06	0.0497639	0.00623155	0.0501525	7.13757	460060	3.67394e+06	3.70263e+06	-82.8624	0.0000000E+000	0.0000000E+000	0.0000000E+000	82.8624	0.0000000E+000	0.0000000E+000	0.0000000E+000	-82.8624	0.0000000E+000	0.0000000E+000	0.0000000E+000	-7.13757	0.0000000E+000	0.0000000E+000	0.0000000E+000	7.13757	7.98579	82.8624	3.88618e-06	-9.71403e-07	70578.5
1.00006	20.6314	2.16341	20.7445	-5.98615	20.6762	0.261852	-0.00154506	73562.1	800.062	1	12	0.00500012	0.000241033	0	6.47865e-06	0.0479426	0.00502726	0.0482055	5.98615	800062	7.62982e+06	7.67165e+06	-84.0138	0.0000000E+000	0.0000000E+000	0.0000000E+000	84.0138	0.0000000E+000	0.0000000E+000	0.0000000E+000	-84.0138	0.0000000E+000	0.0000000E+000	0.0000000E+000	-5.98615	0.0000000E+000	0.0000000E+000	0.0000000E+000	5.98615	9.53653	84.0138	-3.73908e-06	-4.04578e-07	169476
0.464091	21.5386	2.11915	21.6426	-5.61915	28.361	0.261849	-0.000612978	161829	1551.53	1	12	0.00499905	0.000230982	0	-2.00224e-05	0.0459832	0.0045242	0.0462052	5.61915	1.55153e+06	1.57694e+07	1.58456e+07	-84.3809	0.0000000E+000	0.0000000E+000	0.0000000E+000	84.3809	0.0000000E+000	0.0000000E+000	0.0000000E+000	-84.3809	0.0000000E+000	0.0000000E+000	0.0000000E+000	-5.61915	0.0000000E+000	0.0000000E+000	0.0000000E+000	5.61915	10.1638	84.3809	-1.49702e-05	-1.60508e-07	427175
0.215268	22.4829	2.26639	22.5968	-5.75626	44.841	0.261847	-0.00116043	326217	3281.56	1	12	0.00499654	0.000221117	0	-2.05013e-05	0.0440308	0.00443853	0.044254	5.75626	3.28156e+06	3.25535e+07	3.27185e+07	-84.2437	0.0000000E+000	0.0000000E+000	0.0000000E+000	84.2437	0.0000000E+000	0.0000000E+000	0.0000000E+000	-84.2437	0.0000000E+000	0.0000000E+000	0.0000000E+000	-5.75626	0.0000000E+000	0.0000000E+000	0.0000000E+000	5.75626	9.92013	84.2437	7.79432e-06	-3.03854e-07	225647
0.0999041	23.2972	2.55808	23.4372	-6.26608	80.2466	0.261852	-0.000670348	622764	7418.88	1	12	0.00500397	0.000213506	0	6.85045e-05	0.0424123	0.00465695	0.0426672	6.26608	7.41888e+06	6.75661e+07	6.79722e+07	-83.7339	0.0000000E+000	0.0000000E+000	0.0000000E+000	83.7339	0.0000000E+000	0.0000000E+000	0.0000000E+000	-83.7339	0.0000000E+000	0.0000000E+000	0.0000000E+000	-6.26608	0.0000000E+000	0.0000000E+000	0.0000000E+000	6.26608	9.10731	83.7339	5.55746e-05	-1.75532e-07	390622
0.0464052	24.191	3.51881	24.4456	-8.27618	156.483	0.26184	-0.000145243	974669	20195.2	1	12	0.00499819	0.000204462	0	0.000150189	0.0404812	0.00588838	0.0409072	8.27618	2.01952e+07	1.38837e+08	1.40299e+08	-81.7238	0.0000000E+000	0.0000000E+000	0.0000000E+000	81.7238	0.0000000E+000	0.0000000E+000	0.0000000E+000	-81.7238	0.0000000E+000	0.0000000E+000	0.0000000E+000	-8.27618	0.0000000E+000	0.0000000E+000	0.0000000E+000	8.27618	6.87476	81.7238	2.2182e-05	-3.80303e-08	1.80278e+06
0.0215268	25.0866	5.6832	25.7223	-12.7645	320.713	0.261841	-0.00209036	1.30091e+06	63506	1	12	0.00500091	0.00019442	0	-0.000225959	0.037916	0.00858962	0.0388768	12.7645	6.3506e+07	2.80326e+08	2.8743e+08	-77.2355	0.0000000E+000	0.0000000E+000	0.0000000E+000	77.2355	0.0000000E+000	0.0000000E+000	0.0000000E+000	-77.2355	0.0000000E+000	0.0000000E+000	0.0000000E+000	-12.7645	0.0000000E+000	0.0000000E+000	0.0000000E+000	12.7645	4.41417	77.2355	-0.000283836	-5.47343e-07	125261
0.0100092	27.0198	9.68815	28.7042	-19.7257	673.931	0.261837	-0.00502805	1.64128e+06	186970	1	12	0.00500126	0.000174235	0	-0.00128503	0.0327938	0.0117585	0.0348381	19.7257	1.8697e+08	5.21451e+08	5.53958e+08	-70.2743	0.0000000E+000	0.0000000E+000	0.0000000E+000	70.2743	0.0000000E+000	0.0000000E+000	0.0000000E+000	-70.2743	0.0000000E+000	0.0000000E+000	0.0000000E+000	-19.7257	0.0000000E+000	0.0000000E+000	0.0000000E+000	19.7257	2.78896	70.2743	-0.000566838	-1.31653e-06	52075.3