File: txt/17500_R280_UC81_SOC50_C08.mpt
EC-Lab ASCII FILE
Nb header lines : 64

Potentio Electrochemical Impedance Spectroscopy

Run on channel : 8 (SN 65398)
User :
CE vs. WE compliance from -10 V to 10 V
Electrode connection : standard
Potential control : Ewe
Ewe ctrl range : min = -10.00 V, max = 10.00 V
Safety Limits :
	Do not start on E overload
Acquisition started on : 09/15/2025 12:23:49.298
Loaded Setting File :  C:\Users\Celltest\OneDrive - store-dot.com\Documents\EC-Lab\Data\John\17499_R280-G002, UC81 half-cell_C06.mps
Saved on :
	File : 17500_R280-G002, UC81 half-cell_C06_C07_C08.mpr
	Directory : C:\Users\Celltest\OneDrive - store-dot.com\Documents\EC-Lab\Data\John\
	Host : 169.254.61.224
Device : VMP-3e (SN .003165)
Address : USB
EC-LAB for windows v11.62 (software)
Internet server v27.00 (firmware)
Command interpretor v12.03 (firmware)
Electrode material :
Initial state :
Electrolyte :
Comments :
Electrode surface area : 0.001 cm²
Characteristic mass : 0.001 g
Equivalent Weight : 0.000 g/eq.
Density : 0.000 g/cm3
Volume (V) : 0.001 cm³
Record Ece
Cycle Definition : Charge/Discharge alternance
Mode                Multi sine
E (V)               0.0000
vs.                 Eoc
tE (h:m:s)          0:00:0.0000
record              0
dI                  0.000
unit dI             mA
dt (s)              0.000
fi                  1.000
unit fi             MHz
ff                  0.100
unit ff             mHz
Nd                  10
Points              per decade
spacing             Logarithmic
Va (mV)             5.0
pw                  0.10
Na                  2
corr                0
E range min (V)     -10.000
E range max (V)     10.000
I Range             Auto
Bandwidth           5
nc cycles           0
goto Ns'            0
nr cycles           0
inc. cycle          0

freq/Hz	Re(Z)/Ohm	-Im(Z)/Ohm	|Z|/Ohm	Phase(Z)/deg	time/s	<Ewe>/V	<I>/mA	Cs/µF	Cp/µF	cycle number	I Range	|Ewe|/V	|I|/A	Ns	(Q-Qo)/mA.h	<Ece>/V	|Ece|/V	Phase(Zce)/deg	|Zce|/Ohm	Re(Zce)/Ohm	-Im(Zce)/Ohm	Phase(Zwe-ce)/deg	|Zwe-ce|/Ohm	Re(Zwe-ce)/Ohm	-Im(Zwe-ce)/Ohm	Re(Y)/Ohm-1	Im(Y)/Ohm-1	|Y|/Ohm-1	Phase(Y)/deg	Re(C)/nF	Im(C)/nF	|C|/nF	Phase(C)/deg	Re(M)	Im(M)	|M|	Phase(M)/deg	Re(Permittivity)	Im(Permittivity)	|Permittivity|	Phase(Permittivity)/deg	Re(Resistivity)/Ohm.cm	Im(Resistivity)/Ohm.cm	|Resistivity|/Ohm.cm	Phase(Resistivity)/deg	Re(Conductivity)/mS/cm	Im(Conductivity)/mS/cm	|Conductivity|/mS/cm	Phase(Conductivity)/deg	Tan(Delta)	Loss Angle(Delta)/deg	dq/mA.h	Pwe/W	Pce/W	Pwe-ce/W	<Ewe-Ece>/V	Rwe/Ohm	Rce/Ohm	Rwe-ce/Ohm		Ewe-Ece/V
1.00002e+06	3.78649	2.36126	4.46241	-31.9477	2.23356	3.77894	-0.030444	0.0674012	0.018872	1	10	0.00019897	4.45881e-05	0	-3.05639e-05	-8.91312e-05	0.000201105	-69.904	4.51029	1.54971	4.2357	-51.031	8.48498	5.3362	6.59696	0.190151	0.118579	0.224094	31.9477	18.872	30.2629	35.6651	-58.0523	0.0000000E+000	0.0000000E+000	0.0000000E+000	58.0523	0.0000000E+000	0.0000000E+000	0.0000000E+000	-58.0523	0.0000000E+000	0.0000000E+000	0.0000000E+000	-31.9477	0.0000000E+000	0.0000000E+000	0.0000000E+000	31.9477	1.60359	58.0523	-3.05639e-05	-0.000115046	2.71351e-09	-0.000115049	3.77903	124128	2.92771	124131
251206	1.35364	-0.112335	1.35829	4.74397	4.93452	3.77852	-0.0222074	-5.63992	-0.0385762	1	9	0.00179534	0.00132176	0	-4.99253e-05	6.3091e-06	7.47952e-05	90.5882	0.0565876	-0.000580924	-0.0565846	7.11616	1.36356	1.35306	-0.16892	0.733696	-0.0608878	0.736218	-4.74397	-38.5762	464.843	466.441	-94.744	0.0000000E+000	0.0000000E+000	0.0000000E+000	94.744	0.0000000E+000	0.0000000E+000	0.0000000E+000	-94.744	0.0000000E+000	0.0000000E+000	0.0000000E+000	4.74397	0.0000000E+000	0.0000000E+000	0.0000000E+000	-4.74397	12.05	85.256	-2.07219e-06	-8.3911e-05	-1.40108e-10	-8.39108e-05	3.77852	170147	0.2841	170147
63093.8	1.35738	0.233177	1.37727	-9.74738	7.35655	3.77848	-0.0182639	10.818	0.310087	1	9	0.00537057	0.00389944	0	-5.42448e-05	6.3091e-06	2.51869e-05	50.3242	0.0064591	0.00412376	-0.00497137	-9.51505	1.3805	1.36151	0.228206	0.715594	0.122928	0.726076	9.74738	310.087	1805.09	1831.54	-80.2526	0.0000000E+000	0.0000000E+000	0.0000000E+000	80.2526	0.0000000E+000	0.0000000E+000	0.0000000E+000	-80.2526	0.0000000E+000	0.0000000E+000	0.0000000E+000	-9.74738	0.0000000E+000	0.0000000E+000	0.0000000E+000	9.74738	5.82125	80.2526	4.32701e-06	-6.90096e-05	-1.15229e-10	-6.90095e-05	3.77847	206883	0.345442	206882
15847.7	1.60449	0.447669	1.66577	-15.5897	9.65653	3.77847	-0.0159573	22.4335	1.62025	1	9	0.00476124	0.00285828	0	-7.26679e-05	-8.91312e-05	8.76713e-06	-74.0104	0.00306727	0.000844922	0.00294861	-15.6795	1.66738	1.60533	0.450618	0.578238	0.161335	0.600324	15.5897	1620.25	5807.12	6028.92	-74.4103	0.0000000E+000	0.0000000E+000	0.0000000E+000	74.4103	0.0000000E+000	0.0000000E+000	0.0000000E+000	-74.4103	0.0000000E+000	0.0000000E+000	0.0000000E+000	-15.5897	0.0000000E+000	0.0000000E+000	0.0000000E+000	15.5897	3.58409	74.4103	-1.69929e-06	-6.02943e-05	1.4223e-09	-6.02958e-05	3.77856	236786	5.58559	236791
3983.6	2.06819	0.804224	2.21905	-21.2488	12.0011	3.77847	-0.0125719	49.6784	6.5251	1	9	0.00548113	0.00247003	0	-8.17254e-05	0.000349894	7.48122e-06	-29.5183	0.00302879	0.00263565	0.00149229	-21.26	2.22205	2.07083	0.805716	0.420007	0.163321	0.450643	21.2488	6525.1	16780.3	18004.3	-68.7512	0.0000000E+000	0.0000000E+000	0.0000000E+000	68.7512	0.0000000E+000	0.0000000E+000	0.0000000E+000	-68.7512	0.0000000E+000	0.0000000E+000	0.0000000E+000	-21.2488	0.0000000E+000	0.0000000E+000	0.0000000E+000	21.2488	2.57166	68.7512	8.06423e-07	-4.75028e-05	-4.39885e-09	-4.74984e-05	3.77813	300548	27.8313	300520
1000.32	2.90038	1.39964	3.22044	-25.7607	14.8068	3.77847	-0.0186731	113.675	21.4719	1	9	0.00491742	0.00152694	0	-0.000103387	-5.09551e-05	1.36515e-05	-63.5639	0.00894041	0.00398026	0.00800553	-25.858	3.2275	2.90436	1.40765	0.279657	0.134955	0.310517	25.7607	21471.9	44494.5	49404.5	-64.2393	0.0000000E+000	0.0000000E+000	0.0000000E+000	64.2393	0.0000000E+000	0.0000000E+000	0.0000000E+000	-64.2393	0.0000000E+000	0.0000000E+000	0.0000000E+000	-25.7607	0.0000000E+000	0.0000000E+000	0.0000000E+000	25.7607	2.07223	64.2393	-2.82371e-06	-7.0556e-05	9.51491e-10	-7.05569e-05	3.77853	202348	2.72879	202351
251.044	4.61525	2.27618	5.14603	-26.2519	17.753	3.77848	-0.0533701	278.524	54.492	1	10	0.00479147	0.0009311	0	-0.000144993	2.53972e-05	7.79468e-06	-114.715	0.00837147	-0.0035001	0.00760466	-26.3451	5.14626	4.61175	2.28379	0.174282	0.0859535	0.194325	26.2519	54492.1	110490	123196	-63.7481	0.0000000E+000	0.0000000E+000	0.0000000E+000	63.7481	0.0000000E+000	0.0000000E+000	0.0000000E+000	-63.7481	0.0000000E+000	0.0000000E+000	0.0000000E+000	-26.2519	0.0000000E+000	0.0000000E+000	0.0000000E+000	26.2519	2.02763	63.7481	-6.76112e-06	-0.000201658	-1.35545e-09	-0.000201657	3.77846	70797.8	0.475869	70797.3
63.0823	7.19649	1.94423	7.4545	-15.1183	20.474	3.77848	-0.0502193	1297.67	88.2721	1	10	0.00475202	0.00063747	0	-0.000186264	2.53972e-05	2.63755e-06	-121.163	0.00413753	-0.00214105	0.00354048	-15.1489	7.45335	7.19435	1.94777	0.129504	0.0349873	0.134147	15.1183	88272.1	326736	338450	-74.8817	0.0000000E+000	0.0000000E+000	0.0000000E+000	74.8817	0.0000000E+000	0.0000000E+000	0.0000000E+000	-74.8817	0.0000000E+000	0.0000000E+000	0.0000000E+000	-15.1183	0.0000000E+000	0.0000000E+000	0.0000000E+000	15.1183	3.70146	74.8817	-6.20438e-06	-0.000189753	-1.27543e-09	-0.000189751	3.77846	75239.7	0.505725	75239.2
15.8576	8.28725	0.865917	8.33237	-5.96507	23.132	3.77849	-0.0478087	11590.6	125.176	1	10	0.00473795	0.00056862	0	-0.000218144	0.000139925	1.43728e-05	61.4727	0.0252765	0.0120715	-0.0222077	-5.80475	8.3421	8.29932	0.843709	0.119364	0.0124721	0.120014	5.96507	125176	1.198e+06	1.20452e+06	-84.0349	0.0000000E+000	0.0000000E+000	0.0000000E+000	84.0349	0.0000000E+000	0.0000000E+000	0.0000000E+000	-84.0349	0.0000000E+000	0.0000000E+000	0.0000000E+000	-5.96507	0.0000000E+000	0.0000000E+000	0.0000000E+000	5.96507	9.57049	84.0349	-4.29701e-06	-0.000180645	-6.68966e-09	-0.000180638	3.77835	79033.4	2.92678	79030.5
3.97785	8.5954	0.42458	8.60587	-2.8279	26.3423	3.77851	-0.0454285	94234.9	229.372	1	11	0.00474022	0.000550812	0	-0.000263126	-0.000108219	9.00851e-06	-82.1987	0.016355	0.00221999	0.0162036	-2.93488	8.60891	8.59762	0.440784	0.116058	0.00573284	0.1162	2.8279	229372	4.64352e+06	4.64918e+06	-87.1721	0.0000000E+000	0.0000000E+000	0.0000000E+000	87.1721	0.0000000E+000	0.0000000E+000	0.0000000E+000	-87.1721	0.0000000E+000	0.0000000E+000	0.0000000E+000	-2.8279	0.0000000E+000	0.0000000E+000	0.0000000E+000	2.8279	20.2445	87.1721	-1.20972e-05	-0.000171652	4.91623e-09	-0.000171657	3.77861	83174.9	2.38219	83177.3
1.00469	8.85018	0.43137	8.86069	-2.79047	241.155	3.77848	-0.0393311	367229	870.365	1	11	0.00519732	0.00058656	0	-0.00510649	-7.00431e-05	1.12562e-06	-8.34838	0.00191902	0.00189869	0.000278626	-2.79167	8.8626	8.85208	0.431649	0.112724	0.00549433	0.112858	2.79047	870365	1.78568e+07	1.7878e+07	-87.2095	0.0000000E+000	0.0000000E+000	0.0000000E+000	87.2095	0.0000000E+000	0.0000000E+000	0.0000000E+000	-87.2095	0.0000000E+000	0.0000000E+000	0.0000000E+000	-2.79047	0.0000000E+000	0.0000000E+000	0.0000000E+000	2.79047	20.5164	87.2095	-0.00475913	-0.000148612	2.75487e-09	-0.000148614	3.77855	96068.7	1.78086	96070.5
0.251173	9.19654	0.693307	9.22264	-4.31125	241.158	3.77848	-0.0393311	913947	5164.9	1	11	0.00522453	0.00056649	0	-0.00510649	-7.00431e-05	1.3483e-06	-8.01835	0.0023801	0.00235683	0.000332001	-4.3122	9.22501	9.1989	0.693639	0.108122	0.00815108	0.108429	4.31125	5.1649e+06	6.85111e+07	6.87055e+07	-85.6888	0.0000000E+000	0.0000000E+000	0.0000000E+000	85.6888	0.0000000E+000	0.0000000E+000	0.0000000E+000	-85.6888	0.0000000E+000	0.0000000E+000	0.0000000E+000	-4.31125	0.0000000E+000	0.0000000E+000	0.0000000E+000	4.31125	13.2648	85.6888	0.000000000000000E+000	-0.000148612	2.75487e-09	-0.000148614	3.77855	96068.7	1.78086	96070.5
0.0602816	9.76303	1.43778	9.86833	-8.37759	241.162	3.77848	-0.0393311	1.8363e+06	38979.8	1	11	0.00521818	0.00052878	0	-0.00510649	-7.00431e-05	8.3533e-07	-18.3218	0.00157973	0.00149965	0.000496594	-8.37918	9.86989	9.76453	1.43827	0.100253	0.014764	0.101334	8.37759	3.89798e+07	2.64687e+08	2.67542e+08	-81.6224	0.0000000E+000	0.0000000E+000	0.0000000E+000	81.6224	0.0000000E+000	0.0000000E+000	0.0000000E+000	-81.6224	0.0000000E+000	0.0000000E+000	0.0000000E+000	-8.37759	0.0000000E+000	0.0000000E+000	0.0000000E+000	8.37759	6.79036	81.6224	0.000000000000000E+000	-0.000148612	2.75487e-09	-0.000148614	3.77855	96068.7	1.78086	96070.5
0.00796479	13.3687	4.05051	13.9688	-16.856	20330.1	3.7785	0.00526568	4.93329e+06	414796	1	11	0.00521288	0.000373179	0	-0.003237	-0.000260924	4.63219e-07	-52.3882	0.00124128	0.000757563	0.000983296	-16.859	13.9698	13.3694	4.05149	0.0685123	0.0207582	0.0715879	16.856	4.14796e+08	1.36903e+09	1.43049e+09	-73.144	0.0000000E+000	0.0000000E+000	0.0000000E+000	73.144	0.0000000E+000	0.0000000E+000	0.0000000E+000	-73.144	0.0000000E+000	0.0000000E+000	0.0000000E+000	-16.856	0.0000000E+000	0.0000000E+000	0.0000000E+000	16.856	3.3005	73.144	0.00186949	1.98964e-05	-1.37394e-09	1.98977e-05	3.77876	717572	49.5518	717622
0.0019912	17.5466	5.77594	18.4728	-18.2204	20330.1	3.7785	0.00526568	1.38383e+07	1.35289e+06	1	11	0.00522675	0.000282943	0	-0.003237	-0.000260924	8.63105e-07	-56.4066	0.00305046	0.0016878	0.00254099	-18.2262	18.4752	17.5483	5.77849	0.0514194	0.0169261	0.0541336	18.2204	1.35289e+09	4.10991e+09	4.32686e+09	-71.7796	0.0000000E+000	0.0000000E+000	0.0000000E+000	71.7796	0.0000000E+000	0.0000000E+000	0.0000000E+000	-71.7796	0.0000000E+000	0.0000000E+000	0.0000000E+000	-18.2204	0.0000000E+000	0.0000000E+000	0.0000000E+000	18.2204	3.03788	71.7796	0.000000000000000E+000	1.98964e-05	-1.37394e-09	1.98977e-05	3.77876	717572	49.5518	717622
0.000497799	20.5894	8.49126	22.2716	-22.4117	20330.1	3.7785	0.00526568	3.76525e+07	5.47313e+06	1	11	0.00522777	0.000234728	0	-0.003237	-0.000260924	1.84891e-06	94.969	0.00787679	-0.000682257	-0.00784719	-22.3938	22.268	20.5887	8.48342	0.0415088	0.0171187	0.0449003	22.4117	5.47313e+09	1.32711e+10	1.43554e+10	-67.5882	0.0000000E+000	0.0000000E+000	0.0000000E+000	67.5882	0.0000000E+000	0.0000000E+000	0.0000000E+000	-67.5882	0.0000000E+000	0.0000000E+000	0.0000000E+000	-22.4117	0.0000000E+000	0.0000000E+000	0.0000000E+000	22.4117	2.42477	67.5882	0.000000000000000E+000	1.98964e-05	-1.37394e-09	1.98977e-05	3.77876	717572	49.5518	717622
9.95598e-05	24.9975	34.7676	42.8213	-54.2843	20330.1	3.7785	0.00526568	4.59792e+07	3.03104e+07	1	11	0.00523362	0.00012222	0	-0.003237	-0.000260924	2.53509e-06	74.577	0.020742	0.00551622	-0.0199951	-54.2627	42.8083	25.003	34.7476	0.0136326	0.0189608	0.0233529	54.2843	3.03104e+10	2.17928e+10	3.73316e+10	-35.7157	0.0000000E+000	0.0000000E+000	0.0000000E+000	35.7157	0.0000000E+000	0.0000000E+000	0.0000000E+000	-35.7157	0.0000000E+000	0.0000000E+000	0.0000000E+000	-54.2843	0.0000000E+000	0.0000000E+000	0.0000000E+000	54.2843	0.718989	35.7157	0.000000000000000E+000	1.98964e-05	-1.37394e-09	1.98977e-05	3.77876	717572	49.5518	717622