File: txt/17548_R290_UC82_50SOC_C04.mpt
EC-Lab ASCII FILE
Nb header lines : 64

Potentio Electrochemical Impedance Spectroscopy

Run on channel : 4 (SN 66756)
User :
CE vs. WE compliance from -10 V to 10 V
Electrode connection : standard
Potential control : Ewe
Ewe ctrl range : min = -10.00 V, max = 10.00 V
Safety Limits :
	Do not start on E overload
Acquisition started on : 09/16/2025 16:52:27.804
Loaded Setting File :  C:\Users\Celltest\OneDrive - store-dot.com\Documents\EC-Lab\Data\Michael\UC74_NCMA_16706_EIS_50_SOC.mps
Saved on :
	File : 17548_R290_UC82_50SOC_C04.mpr
	Directory : C:\Users\Celltest\OneDrive - store-dot.com\Documents\EC-Lab\Data\Michael\R290\
	Host : 169.254.61.224
Device : VMP-3e (SN .003165)
Address : USB
EC-LAB for windows v11.62 (software)
Internet server v27.00 (firmware)
Command interpretor v12.03 (firmware)
Electrode material :
Initial state :
Electrolyte :
Comments :
Electrode surface area : 0.001 cm²
Characteristic mass : 0.001 g
Equivalent Weight : 0.000 g/eq.
Density : 0.000 g/cm3
Volume (V) : 0.001 cm³
Record Ece
Cycle Definition : Charge/Discharge alternance
Mode                Multi sine
E (V)               0.0000
vs.                 Eoc
tE (h:m:s)          0:00:0.0000
record              0
dI                  0.000
unit dI             mA
dt (s)              0.000
fi                  1.000
unit fi             MHz
ff                  0.100
unit ff             mHz
Nd                  10
Points              per decade
spacing             Logarithmic
Va (mV)             5.0
pw                  0.10
Na                  2
corr                0
E range min (V)     -10.000
E range max (V)     10.000
I Range             Auto
Bandwidth           5
nc cycles           0
goto Ns'            0
nr cycles           0
inc. cycle          0

freq/Hz	Re(Z)/Ohm	-Im(Z)/Ohm	|Z|/Ohm	Phase(Z)/deg	time/s	<Ewe>/V	<I>/mA	Cs/µF	Cp/µF	cycle number	I Range	|Ewe|/V	|I|/A	Ns	(Q-Qo)/mA.h	<Ece>/V	|Ece|/V	Phase(Zce)/deg	|Zce|/Ohm	Re(Zce)/Ohm	-Im(Zce)/Ohm	Phase(Zwe-ce)/deg	|Zwe-ce|/Ohm	Re(Zwe-ce)/Ohm	-Im(Zwe-ce)/Ohm	Re(Y)/Ohm-1	Im(Y)/Ohm-1	|Y|/Ohm-1	Phase(Y)/deg	Re(C)/nF	Im(C)/nF	|C|/nF	Phase(C)/deg	Re(M)	Im(M)	|M|	Phase(M)/deg	Re(Permittivity)	Im(Permittivity)	|Permittivity|	Phase(Permittivity)/deg	Re(Resistivity)/Ohm.cm	Im(Resistivity)/Ohm.cm	|Resistivity|/Ohm.cm	Phase(Resistivity)/deg	Re(Conductivity)/mS/cm	Im(Conductivity)/mS/cm	|Conductivity|/mS/cm	Phase(Conductivity)/deg	Tan(Delta)	Loss Angle(Delta)/deg	dq/mA.h	Pwe/W	Pce/W	Pwe-ce/W	<Ewe-Ece>/V	Rwe/Ohm	Rce/Ohm	Rwe-ce/Ohm		Ewe-Ece/V
1.00002e+06	0.931631	-0.14818	0.943342	9.03746	2.23456	3.78908	0.110601	-1.07404	-0.0265011	1	9	0.000195757	0.000207514	0	-1.11171e-05	4.12549e-05	0.00018038	3.91064	0.869245	0.867221	-0.0592831	6.57891	1.81078	1.79885	-0.207463	1.0469	-0.166515	1.06006	-9.03746	-26.5011	166.616	168.711	-99.0375	0.0000000E+000	0.0000000E+000	0.0000000E+000	99.0375	0.0000000E+000	0.0000000E+000	0.0000000E+000	-99.0375	0.0000000E+000	0.0000000E+000	0.0000000E+000	9.03746	0.0000000E+000	0.0000000E+000	0.0000000E+000	-9.03746	6.28714	80.9625	-1.11171e-05	0.000419076	4.56284e-09	0.000419072	3.78904	34258.9	0.373006	34258.6
251206	0.711477	0.310477	0.77627	-23.5757	4.53652	3.78767	-0.114227	2.04061	0.326433	1	9	0.0019466	0.00250763	0	-6.67698e-05	-0.000111625	4.07553e-05	82.8665	0.0162525	0.00201827	-0.0161267	-22.4185	0.771827	0.713495	0.294351	1.18069	0.515233	1.28821	23.5757	326.433	748.04	816.163	-66.4243	0.0000000E+000	0.0000000E+000	0.0000000E+000	66.4243	0.0000000E+000	0.0000000E+000	0.0000000E+000	-66.4243	0.0000000E+000	0.0000000E+000	0.0000000E+000	-23.5757	0.0000000E+000	0.0000000E+000	0.0000000E+000	23.5757	2.29156	66.4243	-1.27308e-05	-0.000432655	1.27505e-08	-0.000432667	3.78779	33159.2	0.977219	33160.2
63093.8	1.26512	0.729141	1.46019	-29.9567	6.83652	3.78756	-0.114003	3.45957	0.862627	1	9	0.00540784	0.00370351	0	-0.000127687	-7.34048e-05	3.09359e-05	54.6245	0.00835315	0.00483591	-0.00681095	-29.6306	1.46101	1.26995	0.72233	0.593348	0.341972	0.68484	29.9567	862.627	1496.73	1727.52	-60.0433	0.0000000E+000	0.0000000E+000	0.0000000E+000	60.0433	0.0000000E+000	0.0000000E+000	0.0000000E+000	-60.0433	0.0000000E+000	0.0000000E+000	0.0000000E+000	-29.9567	0.0000000E+000	0.0000000E+000	0.0000000E+000	29.9567	1.73508	60.0433	-1.30862e-05	-0.000431794	8.36838e-09	-0.000431802	3.78763	33223.3	0.643884	33223.9
15847.7	2.04154	0.694261	2.15636	-18.7815	9.01054	3.78758	-0.10535	14.4654	1.49946	1	9	0.00537733	0.00249371	0	-0.000197314	-0.000264504	1.686e-05	-123.614	0.006761	-0.00374282	0.00563049	-18.9553	2.15463	2.03779	0.699891	0.439052	0.149308	0.463745	18.7815	1499.46	4409.31	4657.3	-71.2185	0.0000000E+000	0.0000000E+000	0.0000000E+000	71.2185	0.0000000E+000	0.0000000E+000	0.0000000E+000	-71.2185	0.0000000E+000	0.0000000E+000	0.0000000E+000	-18.7815	0.0000000E+000	0.0000000E+000	0.0000000E+000	18.7815	2.94059	71.2185	-7.90291e-06	-0.000399022	2.78656e-08	-0.00039905	3.78784	35952.3	2.51072	35954.8
3983.6	2.52226	0.673683	2.61068	-14.9543	10.6111	3.78743	-0.161445	59.3046	3.94906	1	9	0.00527123	0.0020191	0	-0.00024274	-5.42949e-05	1.34836e-05	-108.147	0.00667802	-0.00207988	0.00634587	-15.1007	2.61031	2.52018	0.680029	0.370069	0.0988439	0.383042	14.9543	3949.06	14785.2	15303.5	-75.0457	0.0000000E+000	0.0000000E+000	0.0000000E+000	75.0457	0.0000000E+000	0.0000000E+000	0.0000000E+000	-75.0457	0.0000000E+000	0.0000000E+000	0.0000000E+000	-14.9543	0.0000000E+000	0.0000000E+000	0.0000000E+000	14.9543	3.74398	75.0457	-1.0765e-05	-0.000611463	8.76565e-09	-0.000611471	3.78748	23459.5	0.336305	23459.9
1000.32	3.15525	0.99561	3.3086	-17.5126	13.4848	3.78748	-0.096114	159.805	14.4704	1	10	0.00521934	0.00157751	0	-0.000325401	-0.000168955	1.06981e-05	-85.5502	0.00678167	0.000526161	0.00676122	-17.6214	3.31115	3.15578	1.00237	0.288234	0.0909494	0.302242	17.5126	14470.4	45859.1	48088	-72.4874	0.0000000E+000	0.0000000E+000	0.0000000E+000	72.4874	0.0000000E+000	0.0000000E+000	0.0000000E+000	-72.4874	0.0000000E+000	0.0000000E+000	0.0000000E+000	-17.5126	0.0000000E+000	0.0000000E+000	0.0000000E+000	17.5126	3.16916	72.4874	-2.12979e-05	-0.00036403	1.62389e-08	-0.000364046	3.78765	39406.2	1.75786	39407.9
251.044	4.38367	1.27398	4.56504	-16.205	16.1861	3.78748	-0.0979641	497.629	38.7566	1	10	0.00513285	0.00112438	0	-0.00040371	-7.34048e-05	4.94302e-06	70.6627	0.00439621	0.00145571	-0.0041482	-16.1499	4.56528	4.38512	1.26984	0.210353	0.061133	0.219056	16.205	38756.6	133358	138875	-73.795	0.0000000E+000	0.0000000E+000	0.0000000E+000	73.795	0.0000000E+000	0.0000000E+000	0.0000000E+000	-73.795	0.0000000E+000	0.0000000E+000	0.0000000E+000	-16.205	0.0000000E+000	0.0000000E+000	0.0000000E+000	16.205	3.44091	73.795	-1.21958e-05	-0.000371037	7.19104e-09	-0.000371044	3.78755	38661.9	0.749303	38662.6
63.0823	5.46495	0.795013	5.52248	-8.27703	18.905	3.78748	-0.0918354	3173.5	65.7687	1	10	0.00511956	0.00092704	0	-0.000478355	-0.000398274	1.15666e-05	60.6033	0.0124769	0.00612433	-0.0108704	-8.15637	5.52698	5.47108	0.784142	0.179192	0.0260679	0.181078	8.27703	65768.7	452097	456855	-81.723	0.0000000E+000	0.0000000E+000	0.0000000E+000	81.723	0.0000000E+000	0.0000000E+000	0.0000000E+000	-81.723	0.0000000E+000	0.0000000E+000	0.0000000E+000	-8.27703	0.0000000E+000	0.0000000E+000	0.0000000E+000	8.27703	6.87404	81.723	-1.09968e-05	-0.000347825	3.65757e-08	-0.000347861	3.78788	41242	4.33682	41246.4
15.8576	5.91546	0.356801	5.92622	-3.45171	21.563	3.78747	-0.104723	28129.2	101.966	1	10	0.00511963	0.000863896	0	-0.000554448	-0.000321834	1.27255e-05	98.8799	0.0147304	-0.00227384	-0.0145538	-3.3125	5.92309	5.91319	0.342247	0.168436	0.0101595	0.168742	3.45171	101966	1.69051e+06	1.69358e+06	-86.5483	0.0000000E+000	0.0000000E+000	0.0000000E+000	86.5483	0.0000000E+000	0.0000000E+000	0.0000000E+000	-86.5483	0.0000000E+000	0.0000000E+000	0.0000000E+000	-3.45171	0.0000000E+000	0.0000000E+000	0.0000000E+000	3.45171	16.5792	86.5483	-1.50844e-05	-0.000396636	3.37035e-08	-0.00039667	3.78779	36166.5	3.07319	36169.5
3.97785	5.96016	0.210351	5.96387	-2.0213	24.4764	3.78751	-0.0800593	190207	236.625	1	10	0.00511042	0.000856897	0	-0.000625985	-7.34048e-05	2.09428e-05	105.876	0.0244403	-0.00668578	-0.0235081	-1.79758	5.9564	5.95347	0.186843	0.167572	0.00591411	0.167676	2.0213	236625	6.70461e+06	6.70878e+06	-87.9787	0.0000000E+000	0.0000000E+000	0.0000000E+000	87.9787	0.0000000E+000	0.0000000E+000	0.0000000E+000	-87.9787	0.0000000E+000	0.0000000E+000	0.0000000E+000	-2.0213	0.0000000E+000	0.0000000E+000	0.0000000E+000	2.0213	28.3343	87.9787	-2.05053e-05	-0.000303226	5.87674e-09	-0.000303232	3.78759	47308.9	0.916881	47309.8
1.00469	6.11669	0.26529	6.12244	-2.48345	239.73	3.7875	-0.0490608	597124	1121.14	1	11	0.00506294	0.000826947	0	-0.00714675	-0.000264504	6.34238e-07	-4.19335	0.000766963	0.00076491	5.60822e-05	-2.48366	6.12321	6.11746	0.265347	0.16318	0.00707737	0.163333	2.48345	1.12114e+06	2.58496e+07	2.58739e+07	-87.5165	0.0000000E+000	0.0000000E+000	0.0000000E+000	87.5165	0.0000000E+000	0.0000000E+000	0.0000000E+000	-87.5165	0.0000000E+000	0.0000000E+000	0.0000000E+000	-2.48345	0.0000000E+000	0.0000000E+000	0.0000000E+000	2.48345	23.0566	87.5165	-0.00638645	-0.000185818	1.29768e-08	-0.000185831	3.78776	77200.1	5.39136	77205.5
0.251173	6.35345	0.541446	6.37648	-4.87102	239.731	3.7875	-0.0490608	1.17028e+06	8438	1	11	0.0050902	0.000798278	0	-0.00714675	-0.000264504	7.26476e-07	26.1402	0.000910054	0.000816973	-0.000400941	-4.86681	6.37726	6.35427	0.541045	0.15626	0.0133166	0.156826	4.87102	8.43799e+06	9.90134e+07	9.93723e+07	-85.129	0.0000000E+000	0.0000000E+000	0.0000000E+000	85.129	0.0000000E+000	0.0000000E+000	0.0000000E+000	-85.129	0.0000000E+000	0.0000000E+000	0.0000000E+000	-4.87102	0.0000000E+000	0.0000000E+000	0.0000000E+000	4.87102	11.7342	85.129	0.000000000000000E+000	-0.000185818	1.29768e-08	-0.000185831	3.78776	77200.1	5.39136	77205.5
0.0602816	6.93596	1.03457	7.0127	-8.48368	239.733	3.7875	-0.0490608	2.55198e+06	55542.2	1	11	0.00508272	0.000724788	0	-0.00714675	-0.000264504	8.83257e-07	-29.0645	0.00121864	0.00106518	0.000592009	-8.48718	7.01384	6.93703	1.03516	0.141038	0.0210372	0.142598	8.48368	5.55422e+07	3.72367e+08	3.76487e+08	-81.5163	0.0000000E+000	0.0000000E+000	0.0000000E+000	81.5163	0.0000000E+000	0.0000000E+000	0.0000000E+000	-81.5163	0.0000000E+000	0.0000000E+000	0.0000000E+000	-8.48368	0.0000000E+000	0.0000000E+000	0.0000000E+000	8.48368	6.70422	81.5163	0.000000000000000E+000	-0.000185818	1.29768e-08	-0.000185831	3.78776	77200.1	5.39136	77205.5
0.00796479	9.47755	2.00344	9.68698	-11.9359	20328.6	3.78749	0.00105621	9.974e+06	426624	1	11	0.00507442	0.000523839	0	-0.0450579	-0.000188065	5.29382e-07	-63.7885	0.00101058	0.000446359	0.000906662	-11.9406	9.68761	9.47799	2.00435	0.100999	0.0213501	0.103231	11.9359	4.26624e+08	2.0182e+09	2.0628e+09	-78.0641	0.0000000E+000	0.0000000E+000	0.0000000E+000	78.0641	0.0000000E+000	0.0000000E+000	0.0000000E+000	-78.0641	0.0000000E+000	0.0000000E+000	0.0000000E+000	-11.9359	0.0000000E+000	0.0000000E+000	0.0000000E+000	11.9359	4.73063	78.0641	-0.0379112	4.00037e-06	-1.98635e-10	4.00057e-06	3.78768	3.58594e+06	178.057	3.58612e+06
0.0019912	11.097	3.10547	11.5234	-15.6341	20328.6	3.78749	0.00105621	2.57382e+07	1.86928e+06	1	11	0.00508773	0.000441514	0	-0.0450579	-0.000188065	6.44156e-07	81.567	0.00145897	0.000213962	-0.00144319	-15.6269	11.5232	11.0972	3.10403	0.0835696	0.0233867	0.0867802	15.6341	1.86928e+09	6.67966e+09	6.93628e+09	-74.3659	0.0000000E+000	0.0000000E+000	0.0000000E+000	74.3659	0.0000000E+000	0.0000000E+000	0.0000000E+000	-74.3659	0.0000000E+000	0.0000000E+000	0.0000000E+000	-15.6341	0.0000000E+000	0.0000000E+000	0.0000000E+000	15.6341	3.57338	74.3659	0.000000000000000E+000	4.00037e-06	-1.98635e-10	4.00057e-06	3.78768	3.58594e+06	178.057	3.58612e+06
0.000497799	11.6906	7.54831	13.9157	-32.8492	20328.7	3.78749	0.00105621	4.23561e+07	1.24625e+07	1	11	0.00508861	0.000365673	0	-0.0450579	-0.000188065	1.37188e-06	-50.8549	0.00375166	0.00236837	0.0029096	-32.854	13.9193	11.693	7.55122	0.0603706	0.0389796	0.0718611	32.8492	1.24625e+10	1.93015e+10	2.29752e+10	-57.1508	0.0000000E+000	0.0000000E+000	0.0000000E+000	57.1508	0.0000000E+000	0.0000000E+000	0.0000000E+000	-57.1508	0.0000000E+000	0.0000000E+000	0.0000000E+000	-32.8492	0.0000000E+000	0.0000000E+000	0.0000000E+000	32.8492	1.54877	57.1508	0.000000000000000E+000	4.00037e-06	-1.98635e-10	4.00057e-06	3.78768	3.58594e+06	178.057	3.58612e+06
9.95598e-05	13.4704	39.3877	41.6274	-71.1195	20328.7	3.78749	0.00105621	4.0586e+07	3.63361e+07	1	11	0.00509071	0.000122292	0	-0.0450579	-0.000188065	7.0911e-07	23.9621	0.00579849	0.00529874	-0.00235495	-71.1115	41.6269	13.4757	39.3853	0.00777362	0.0227301	0.0240226	71.1195	3.6336e+10	1.24268e+10	3.84023e+10	-18.8805	0.0000000E+000	0.0000000E+000	0.0000000E+000	18.8805	0.0000000E+000	0.0000000E+000	0.0000000E+000	-18.8805	0.0000000E+000	0.0000000E+000	0.0000000E+000	-71.1195	0.0000000E+000	0.0000000E+000	0.0000000E+000	71.1195	0.341996	18.8805	0.000000000000000E+000	4.00037e-06	-1.98635e-10	4.00057e-06	3.78768	3.58594e+06	178.057	3.58612e+06