File: txt/17546_R290_UC82_50SOC_C03.mpt
EC-Lab ASCII FILE
Nb header lines : 64

Potentio Electrochemical Impedance Spectroscopy

Run on channel : 3 (SN 65921)
User :
CE vs. WE compliance from -10 V to 10 V
Electrode connection : standard
Potential control : Ewe
Ewe ctrl range : min = -10.00 V, max = 10.00 V
Safety Limits :
	Do not start on E overload
Acquisition started on : 09/16/2025 16:52:04.007
Loaded Setting File :  C:\Users\Celltest\OneDrive - store-dot.com\Documents\EC-Lab\Data\Michael\UC74_NCMA_16706_EIS_50_SOC.mps
Saved on :
	File : 17546_R290_UC82_50SOC_C03.mpr
	Directory : C:\Users\Celltest\OneDrive - store-dot.com\Documents\EC-Lab\Data\Michael\R290\
	Host : 169.254.61.224
Device : VMP-3e (SN .003165)
Address : USB
EC-LAB for windows v11.62 (software)
Internet server v27.00 (firmware)
Command interpretor v12.03 (firmware)
Electrode material :
Initial state :
Electrolyte :
Comments :
Electrode surface area : 0.001 cm²
Characteristic mass : 0.001 g
Equivalent Weight : 0.000 g/eq.
Density : 0.000 g/cm3
Volume (V) : 0.001 cm³
Record Ece
Cycle Definition : Charge/Discharge alternance
Mode                Multi sine
E (V)               0.0000
vs.                 Eoc
tE (h:m:s)          0:00:0.0000
record              0
dI                  0.000
unit dI             mA
dt (s)              0.000
fi                  1.000
unit fi             MHz
ff                  0.100
unit ff             mHz
Nd                  10
Points              per decade
spacing             Logarithmic
Va (mV)             5.0
pw                  0.10
Na                  2
corr                0
E range min (V)     -10.000
E range max (V)     10.000
I Range             Auto
Bandwidth           5
nc cycles           0
goto Ns'            0
nr cycles           0
inc. cycle          0

freq/Hz	Re(Z)/Ohm	-Im(Z)/Ohm	|Z|/Ohm	Phase(Z)/deg	time/s	<Ewe>/V	<I>/mA	Cs/µF	Cp/µF	cycle number	I Range	|Ewe|/V	|I|/A	Ns	(Q-Qo)/mA.h	<Ece>/V	|Ece|/V	Phase(Zce)/deg	|Zce|/Ohm	Re(Zce)/Ohm	-Im(Zce)/Ohm	Phase(Zwe-ce)/deg	|Zwe-ce|/Ohm	Re(Zwe-ce)/Ohm	-Im(Zwe-ce)/Ohm	Re(Y)/Ohm-1	Im(Y)/Ohm-1	|Y|/Ohm-1	Phase(Y)/deg	Re(C)/nF	Im(C)/nF	|C|/nF	Phase(C)/deg	Re(M)	Im(M)	|M|	Phase(M)/deg	Re(Permittivity)	Im(Permittivity)	|Permittivity|	Phase(Permittivity)/deg	Re(Resistivity)/Ohm.cm	Im(Resistivity)/Ohm.cm	|Resistivity|/Ohm.cm	Phase(Resistivity)/deg	Re(Conductivity)/mS/cm	Im(Conductivity)/mS/cm	|Conductivity|/mS/cm	Phase(Conductivity)/deg	Tan(Delta)	Loss Angle(Delta)/deg	dq/mA.h	Pwe/W	Pce/W	Pwe-ce/W	<Ewe-Ece>/V	Rwe/Ohm	Rce/Ohm	Rwe-ce/Ohm		Ewe-Ece/V
1.00002e+06	0.9042	-0.542759	1.05459	30.9749	2.23452	3.78879	-0.0169005	-0.293228	-0.0776694	1	9	0.00023067	0.000218729	0	-3.58149e-05	2.10652e-05	0.000199498	0.134348	0.912077	0.912075	-0.00213865	16.6997	1.89625	1.81627	-0.544898	0.813009	-0.48802	0.948234	-30.9749	-77.6694	129.392	150.913	-120.975	0.0000000E+000	0.0000000E+000	0.0000000E+000	120.975	0.0000000E+000	0.0000000E+000	0.0000000E+000	-120.975	0.0000000E+000	0.0000000E+000	0.0000000E+000	30.9749	0.0000000E+000	0.0000000E+000	0.0000000E+000	-30.9749	1.66593	59.0251	-3.58149e-05	-6.40323e-05	-3.56011e-10	-6.4032e-05	3.78877	224183	1.24643	224182
251206	0.674839	0.312958	0.743875	-24.8796	4.53554	3.78842	-0.0660533	2.02443	0.358324	1	9	0.00193186	0.00259703	0	-6.88003e-05	4.01593e-05	4.54592e-05	98.1304	0.0175043	-0.00247557	-0.0173284	-23.7345	0.734486	0.672363	0.29563	1.21955	0.56557	1.34431	24.8796	358.324	772.662	851.706	-65.1204	0.0000000E+000	0.0000000E+000	0.0000000E+000	65.1204	0.0000000E+000	0.0000000E+000	0.0000000E+000	-65.1204	0.0000000E+000	0.0000000E+000	0.0000000E+000	-24.8796	0.0000000E+000	0.0000000E+000	0.0000000E+000	24.8796	2.15632	65.1204	-5.76167e-06	-0.000250237	-2.65265e-09	-0.000250235	3.78838	57353.9	0.607982	57353.3
63093.8	1.21196	0.912081	1.51682	-36.9639	6.83752	3.78834	-0.0474438	2.76567	0.999999	1	9	0.00545062	0.00359346	0	-6.18701e-05	-5.53111e-05	2.99517e-05	113.979	0.00833505	-0.00338733	-0.00761571	-36.8103	1.50954	1.20857	0.904465	0.52677	0.39643	0.659275	36.9639	999.999	1328.78	1663.03	-53.0361	0.0000000E+000	0.0000000E+000	0.0000000E+000	53.0361	0.0000000E+000	0.0000000E+000	0.0000000E+000	-53.0361	0.0000000E+000	0.0000000E+000	0.0000000E+000	-36.9639	0.0000000E+000	0.0000000E+000	0.0000000E+000	36.9639	1.32879	53.0361	-7.67759e-06	-0.000179733	2.62417e-09	-0.000179736	3.7884	79849.1	1.16582	79850.2
15847.7	2.39541	1.02352	2.60491	-23.1363	9.26353	3.78831	-0.0554993	9.81198	1.51484	1	9	0.00454729	0.00174566	0	-8.69468e-05	-9.34992e-05	1.06606e-05	-58.7645	0.00610692	0.00316679	0.00522168	-23.2144	2.60988	2.39857	1.02875	0.353015	0.150838	0.38389	23.1363	1514.84	3545.25	3855.33	-66.8637	0.0000000E+000	0.0000000E+000	0.0000000E+000	66.8637	0.0000000E+000	0.0000000E+000	0.0000000E+000	-66.8637	0.0000000E+000	0.0000000E+000	0.0000000E+000	-23.1363	0.0000000E+000	0.0000000E+000	0.0000000E+000	23.1363	2.34035	66.8637	-4.27667e-06	-0.000210248	5.18914e-09	-0.000210254	3.7884	68258.7	1.68469	68260.4
3983.6	3.09308	0.812932	3.19812	-14.7256	11.131	3.7881	-0.141163	49.1462	3.17547	1	9	0.00484623	0.00151534	0	-0.000121715	0.000154724	6.30765e-06	-27.697	0.00416254	0.00368559	0.00193473	-14.7423	3.20218	3.09676	0.814866	0.302413	0.079481	0.312683	14.7256	3175.47	12082.2	12492.5	-75.2744	0.0000000E+000	0.0000000E+000	0.0000000E+000	75.2744	0.0000000E+000	0.0000000E+000	0.0000000E+000	-75.2744	0.0000000E+000	0.0000000E+000	0.0000000E+000	-14.7256	0.0000000E+000	0.0000000E+000	0.0000000E+000	14.7256	3.80485	75.2744	-1.47208e-05	-0.000534737	-2.18412e-08	-0.000534716	3.78794	26835	1.09607	26833.9
1000.32	3.73462	1.04913	3.87918	-15.6911	14.0058	3.78825	-0.0782214	151.653	11.0925	1	10	0.00479278	0.00123551	0	-0.000151361	-0.00028444	2.91787e-06	-53.4907	0.00236166	0.00140508	0.00189821	-15.7125	3.88104	3.73602	1.05103	0.24818	0.0697187	0.257787	15.6911	11092.5	39486.4	41014.9	-74.3089	0.0000000E+000	0.0000000E+000	0.0000000E+000	74.3089	0.0000000E+000	0.0000000E+000	0.0000000E+000	-74.3089	0.0000000E+000	0.0000000E+000	0.0000000E+000	-15.6911	0.0000000E+000	0.0000000E+000	0.0000000E+000	15.6911	3.55973	74.3089	-9.30265e-06	-0.000296322	2.22493e-08	-0.000296345	3.78854	48429.9	3.63634	48433.5
251.044	5.00442	1.34656	5.18242	-15.0601	16.7081	3.78825	-0.0772109	470.809	31.7856	1	10	0.00473055	0.000912807	0	-0.000210096	2.10652e-05	5.46071e-06	-14.6751	0.00598233	0.00578717	0.00151555	-15.0596	5.1884	5.01021	1.34807	0.186333	0.0501372	0.19296	15.0601	31785.6	118130	122331	-74.9399	0.0000000E+000	0.0000000E+000	0.0000000E+000	74.9399	0.0000000E+000	0.0000000E+000	0.0000000E+000	-74.9399	0.0000000E+000	0.0000000E+000	0.0000000E+000	-15.0601	0.0000000E+000	0.0000000E+000	0.0000000E+000	15.0601	3.71645	74.9399	-9.60187e-06	-0.000292494	-1.62646e-09	-0.000292492	3.78823	49063.7	0.272827	49063.4
63.0823	6.21024	0.834803	6.26609	-7.65602	19.43	3.78826	-0.0711365	3022.24	53.6418	1	10	0.00472857	0.000754629	0	-0.000266459	1.97113e-06	4.20454e-06	68.8895	0.00557166	0.00200673	-0.00519774	-7.60648	6.26739	6.21224	0.829606	0.158166	0.0212613	0.159589	7.65602	53641.8	399050	402639	-82.344	0.0000000E+000	0.0000000E+000	0.0000000E+000	82.344	0.0000000E+000	0.0000000E+000	0.0000000E+000	-82.344	0.0000000E+000	0.0000000E+000	0.0000000E+000	-7.65602	0.0000000E+000	0.0000000E+000	0.0000000E+000	7.65602	7.43916	82.344	-9.12546e-06	-0.000269483	-1.40219e-10	-0.000269483	3.78825	53253.3	0.0277091	53253.3
15.8576	6.55696	0.357224	6.56669	-3.1184	22.088	3.78823	-0.0800858	28095.9	83.1441	1	10	0.00472554	0.000719624	0	-0.000315317	9.74414e-05	2.49489e-05	79.5245	0.0346693	0.0063034	-0.0340915	-2.8186	6.57122	6.56327	0.323133	0.152058	0.00828416	0.152284	3.1184	83144.2	1.52614e+06	1.5284e+06	-86.8816	0.0000000E+000	0.0000000E+000	0.0000000E+000	86.8816	0.0000000E+000	0.0000000E+000	0.0000000E+000	-86.8816	0.0000000E+000	0.0000000E+000	0.0000000E+000	-3.1184	0.0000000E+000	0.0000000E+000	0.0000000E+000	3.1184	18.3553	86.8816	-6.11444e-06	-0.000303384	-7.80368e-09	-0.000303376	3.78813	47302.1	1.21671	47300.9
3.97785	6.69618	0.209293	6.69945	-1.79023	25.0013	3.78827	-0.0765975	191168	186.573	1	10	0.00470215	0.000701871	0	-0.00037799	1.97113e-06	2.19133e-05	-0.415002	0.0312213	0.0312205	0.000226139	-1.78386	6.73066	6.7274	0.209519	0.149193	0.00466313	0.149266	1.79023	186573	5.96926e+06	5.97218e+06	-88.2098	0.0000000E+000	0.0000000E+000	0.0000000E+000	88.2098	0.0000000E+000	0.0000000E+000	0.0000000E+000	-88.2098	0.0000000E+000	0.0000000E+000	0.0000000E+000	-1.79023	0.0000000E+000	0.0000000E+000	0.0000000E+000	1.79023	31.9942	88.2098	-7.10451e-06	-0.000290172	-1.50983e-10	-0.000290172	3.78827	49456.9	0.0257336	49456.9
1.00469	6.85338	0.268929	6.85865	-2.24715	240.177	3.78828	-0.0401621	589046	905.619	1	11	0.0050397	0.000734794	0	-0.00602398	-0.000322628	6.98262e-07	-5.18148	0.000950282	0.000946399	8.58206e-05	-2.24756	6.8596	6.85433	0.269014	0.145689	0.00571688	0.145801	2.24715	905618	2.30788e+07	2.30966e+07	-87.7529	0.0000000E+000	0.0000000E+000	0.0000000E+000	87.7529	0.0000000E+000	0.0000000E+000	0.0000000E+000	-87.7529	0.0000000E+000	0.0000000E+000	0.0000000E+000	-2.24715	0.0000000E+000	0.0000000E+000	0.0000000E+000	2.24715	25.484	87.7529	-0.00553135	-0.000152145	1.29574e-08	-0.000152158	3.7886	94324.7	8.03314	94332.7
0.251173	7.0903	0.538541	7.11072	-4.34354	240.18	3.78828	-0.0401621	1.1766e+06	6748.98	1	11	0.00506555	0.000712382	0	-0.00602398	-0.000322628	5.91435e-07	-5.13476	0.000830221	0.000826889	7.43036e-05	-4.34363	7.11155	7.09112	0.538615	0.140229	0.010651	0.140633	4.34354	6.74899e+06	8.88554e+07	8.91113e+07	-85.6565	0.0000000E+000	0.0000000E+000	0.0000000E+000	85.6565	0.0000000E+000	0.0000000E+000	0.0000000E+000	-85.6565	0.0000000E+000	0.0000000E+000	0.0000000E+000	-4.34354	0.0000000E+000	0.0000000E+000	0.0000000E+000	4.34354	13.1657	85.6565	0.000000000000000E+000	-0.000152145	1.29574e-08	-0.000152158	3.7886	94324.7	8.03314	94332.7
0.0602816	7.68192	1.03486	7.75131	-7.67236	240.183	3.78828	-0.0401621	2.55124e+06	45474.5	1	11	0.0050592	0.000652689	0	-0.00602398	-0.000322628	9.56651e-07	-32.8091	0.00146571	0.0012319	0.00079418	-7.67697	7.75264	7.68315	1.03566	0.127855	0.0172239	0.12901	7.67236	4.54745e+07	3.37563e+08	3.40612e+08	-82.3276	0.0000000E+000	0.0000000E+000	0.0000000E+000	82.3276	0.0000000E+000	0.0000000E+000	0.0000000E+000	-82.3276	0.0000000E+000	0.0000000E+000	0.0000000E+000	-7.67236	0.0000000E+000	0.0000000E+000	0.0000000E+000	7.67236	7.42312	82.3276	0.000000000000000E+000	-0.000152145	1.29574e-08	-0.000152158	3.7886	94324.7	8.03314	94332.7
0.00796479	10.317	1.91931	10.494	-10.5385	20329	3.78833	0.00152525	1.04112e+07	348265	1	11	0.00505369	0.000481579	0	-0.0349158	0.0002311	5.56699e-07	-160.078	0.00115599	-0.00108681	0.000393895	-10.5417	10.493	10.3159	1.91971	0.0936851	0.0174286	0.0952925	10.5385	3.48265e+08	1.87205e+09	1.90417e+09	-79.4615	0.0000000E+000	0.0000000E+000	0.0000000E+000	79.4615	0.0000000E+000	0.0000000E+000	0.0000000E+000	-79.4615	0.0000000E+000	0.0000000E+000	0.0000000E+000	-10.5385	0.0000000E+000	0.0000000E+000	0.0000000E+000	10.5385	5.37535	79.4615	-0.0288918	5.77813e-06	3.52484e-10	5.77778e-06	3.7881	2.48375e+06	151.517	2.4836e+06
0.0019912	11.7947	2.97697	12.1646	-14.1656	20329	3.78833	0.00152525	2.68492e+07	1.60801e+06	1	11	0.00506522	0.000416392	0	-0.0349158	0.0002311	4.36455e-07	76.7365	0.00104818	0.000240484	-0.00102022	-14.1606	12.1645	11.7949	2.97595	0.0797064	0.0201179	0.0822061	14.1656	1.60801e+09	6.37088e+09	6.57067e+09	-75.8344	0.0000000E+000	0.0000000E+000	0.0000000E+000	75.8344	0.0000000E+000	0.0000000E+000	0.0000000E+000	-75.8344	0.0000000E+000	0.0000000E+000	0.0000000E+000	-14.1656	0.0000000E+000	0.0000000E+000	0.0000000E+000	14.1656	3.96197	75.8344	0.000000000000000E+000	5.77813e-06	3.52484e-10	5.77778e-06	3.7881	2.48375e+06	151.517	2.4836e+06
0.000497799	12.2824	7.59502	14.441	-31.7312	20329	3.78833	0.00152525	4.20956e+07	1.16439e+07	1	11	0.00506579	0.000350792	0	-0.0349158	0.0002311	5.59671e-07	118.066	0.00159545	-0.000750642	-0.00140783	-31.728	14.4396	12.2817	7.59361	0.0588965	0.0364195	0.0692473	31.7312	1.16439e+10	1.88302e+10	2.21395e+10	-58.2688	0.0000000E+000	0.0000000E+000	0.0000000E+000	58.2688	0.0000000E+000	0.0000000E+000	0.0000000E+000	-58.2688	0.0000000E+000	0.0000000E+000	0.0000000E+000	-31.7312	0.0000000E+000	0.0000000E+000	0.0000000E+000	31.7312	1.61717	58.2688	0.000000000000000E+000	5.77813e-06	3.52484e-10	5.77778e-06	3.7881	2.48375e+06	151.517	2.4836e+06
9.95598e-05	14.0113	39.2953	41.7186	-70.3755	20329	3.78833	0.00152525	4.06814e+07	3.60926e+07	1	11	0.00506256	0.00012135	0	-0.0349158	0.0002311	5.80632e-06	-103.215	0.0478476	-0.0109385	0.0465805	-70.4111	41.7588	14.0004	39.3419	0.00805047	0.0225778	0.0239702	70.3755	3.60926e+10	1.28694e+10	3.83183e+10	-19.6245	0.0000000E+000	0.0000000E+000	0.0000000E+000	19.6245	0.0000000E+000	0.0000000E+000	0.0000000E+000	-19.6245	0.0000000E+000	0.0000000E+000	0.0000000E+000	-70.3755	0.0000000E+000	0.0000000E+000	0.0000000E+000	70.3755	0.356566	19.6245	0.000000000000000E+000	5.77813e-06	3.52484e-10	5.77778e-06	3.7881	2.48375e+06	151.517	2.4836e+06