File: txt/17544_R290_UC82_50SOC_C01.mpt
EC-Lab ASCII FILE
Nb header lines : 64

Potentio Electrochemical Impedance Spectroscopy

Run on channel : 1 (SN 66354)
User :
CE vs. WE compliance from -10 V to 10 V
Electrode connection : standard
Potential control : Ewe
Ewe ctrl range : min = -10.00 V, max = 10.00 V
Safety Limits :
	Do not start on E overload
Acquisition started on : 09/16/2025 16:51:03.280
Loaded Setting File :  C:\Users\Celltest\OneDrive - store-dot.com\Documents\EC-Lab\Data\Michael\UC74_NCMA_16706_EIS_50_SOC.mps
Saved on :
	File : 17544_R290_UC82_50SOC_C01.mpr
	Directory : C:\Users\Celltest\OneDrive - store-dot.com\Documents\EC-Lab\Data\Michael\R290\
	Host : 169.254.61.224
Device : VMP-3e (SN .003165)
Address : USB
EC-LAB for windows v11.62 (software)
Internet server v27.00 (firmware)
Command interpretor v12.03 (firmware)
Electrode material :
Initial state :
Electrolyte :
Comments :
Electrode surface area : 0.001 cm²
Characteristic mass : 0.001 g
Equivalent Weight : 0.000 g/eq.
Density : 0.000 g/cm3
Volume (V) : 0.001 cm³
Record Ece
Cycle Definition : Charge/Discharge alternance
Mode                Multi sine
E (V)               0.0000
vs.                 Eoc
tE (h:m:s)          0:00:0.0000
record              0
dI                  0.000
unit dI             mA
dt (s)              0.000
fi                  1.000
unit fi             MHz
ff                  0.100
unit ff             mHz
Nd                  10
Points              per decade
spacing             Logarithmic
Va (mV)             5.0
pw                  0.10
Na                  2
corr                0
E range min (V)     -10.000
E range max (V)     10.000
I Range             Auto
Bandwidth           5
nc cycles           0
goto Ns'            0
nr cycles           0
inc. cycle          0

freq/Hz	Re(Z)/Ohm	-Im(Z)/Ohm	|Z|/Ohm	Phase(Z)/deg	time/s	<Ewe>/V	<I>/mA	Cs/µF	Cp/µF	cycle number	I Range	|Ewe|/V	|I|/A	Ns	(Q-Qo)/mA.h	<Ece>/V	|Ece|/V	Phase(Zce)/deg	|Zce|/Ohm	Re(Zce)/Ohm	-Im(Zce)/Ohm	Phase(Zwe-ce)/deg	|Zwe-ce|/Ohm	Re(Zwe-ce)/Ohm	-Im(Zwe-ce)/Ohm	Re(Y)/Ohm-1	Im(Y)/Ohm-1	|Y|/Ohm-1	Phase(Y)/deg	Re(C)/nF	Im(C)/nF	|C|/nF	Phase(C)/deg	Re(M)	Im(M)	|M|	Phase(M)/deg	Re(Permittivity)	Im(Permittivity)	|Permittivity|	Phase(Permittivity)/deg	Re(Resistivity)/Ohm.cm	Im(Resistivity)/Ohm.cm	|Resistivity|/Ohm.cm	Phase(Resistivity)/deg	Re(Conductivity)/mS/cm	Im(Conductivity)/mS/cm	|Conductivity|/mS/cm	Phase(Conductivity)/deg	Tan(Delta)	Loss Angle(Delta)/deg	dq/mA.h	Pwe/W	Pce/W	Pwe-ce/W	<Ewe-Ece>/V	Rwe/Ohm	Rce/Ohm	Rwe-ce/Ohm		Ewe-Ece/V
1.00002e+06	1.07913	-0.144495	1.08877	7.6265	2.69353	3.78985	0.116452	-1.10143	-0.0193998	1	9	0.000217611	0.00019987	0	1.46084e-05	0.000161492	0.000199121	-5.03624	0.996257	0.992411	0.0874572	1.57719	2.07233	2.07155	-0.0570381	0.910347	-0.121895	0.918472	-7.6265	-19.3998	144.884	146.177	-97.6265	0.0000000E+000	0.0000000E+000	0.0000000E+000	97.6265	0.0000000E+000	0.0000000E+000	0.0000000E+000	-97.6265	0.0000000E+000	0.0000000E+000	0.0000000E+000	7.6265	0.0000000E+000	0.0000000E+000	0.0000000E+000	-7.6265	7.4683	82.3735	1.46084e-05	0.000441338	1.88061e-08	0.000441319	3.78969	32544.2	1.38676	32542.8
251206	0.64238	0.374806	0.743728	-30.262	4.99151	3.78955	0.0942117	1.69038	0.429306	1	9	0.00191121	0.00256977	0	7.79697e-05	0.000142415	6.14278e-05	120.343	0.023904	-0.0120758	-0.0206295	-29.3322	0.722997	0.630305	0.354176	1.16135	0.677606	1.34458	30.262	429.306	735.789	851.874	-59.738	0.0000000E+000	0.0000000E+000	0.0000000E+000	59.738	0.0000000E+000	0.0000000E+000	0.0000000E+000	-59.738	0.0000000E+000	0.0000000E+000	0.0000000E+000	-30.262	0.0000000E+000	0.0000000E+000	0.0000000E+000	30.262	1.7139	59.738	1.19621e-05	0.00035702	1.34171e-08	0.000357006	3.7894	40223.8	1.51165	40222.2
63093.8	1.06445	1.10365	1.53333	-46.0357	7.28956	3.78945	0.0886608	2.28561	1.18411	1	9	0.00541406	0.00353091	0	0.000129106	0.000161492	3.33898e-05	74.3954	0.00945643	0.00254376	-0.00910787	-45.73	1.52856	1.067	1.09454	0.452747	0.469417	0.652175	46.0357	1184.11	1142.06	1645.12	-43.9643	0.0000000E+000	0.0000000E+000	0.0000000E+000	43.9643	0.0000000E+000	0.0000000E+000	0.0000000E+000	-43.9643	0.0000000E+000	0.0000000E+000	0.0000000E+000	-46.0357	0.0000000E+000	0.0000000E+000	0.0000000E+000	46.0357	0.964487	43.9643	2.16199e-05	0.000335975	1.4318e-08	0.000335961	3.78929	42741	1.82146	42739.2
15847.7	2.82091	2.00848	3.46287	-35.4508	9.95952	3.78943	0.0876176	5.0002	1.68209	1	9	0.00486028	0.00140354	0	0.000194002	0.000123337	1.45332e-05	-100.355	0.0103547	-0.00186114	0.0101861	-35.6057	3.46728	2.81904	2.01866	0.235242	0.167492	0.288777	35.4508	1682.09	2362.49	2900.13	-54.5492	0.0000000E+000	0.0000000E+000	0.0000000E+000	54.5492	0.0000000E+000	0.0000000E+000	0.0000000E+000	-54.5492	0.0000000E+000	0.0000000E+000	0.0000000E+000	-35.4508	0.0000000E+000	0.0000000E+000	0.0000000E+000	35.4508	1.4045	54.5492	9.62752e-06	0.000332021	1.08065e-08	0.00033201	3.78931	43249.7	1.40768	43248.3
3983.6	4.66002	1.56446	4.91562	-18.5579	11.8401	3.78924	-0.0468108	25.5376	2.58673	1	10	0.00473577	0.000963411	0	0.000203691	8.87343e-06	1.3012e-05	-52.7301	0.0135061	0.00817892	0.0107481	-18.6461	4.9268	4.6682	1.57521	0.192855	0.0647451	0.203433	18.5579	2586.73	7705.05	8127.66	-71.4421	0.0000000E+000	0.0000000E+000	0.0000000E+000	71.4421	0.0000000E+000	0.0000000E+000	0.0000000E+000	-71.4421	0.0000000E+000	0.0000000E+000	0.0000000E+000	-18.5579	0.0000000E+000	0.0000000E+000	0.0000000E+000	18.5579	2.97868	71.4421	-3.49236e-06	-0.000177377	-4.15373e-10	-0.000177377	3.78923	80948	0.18956	80947.9
1000.32	5.73885	1.4353	5.91561	-14.0418	14.4688	3.78921	-0.0172264	110.85	6.52568	1	10	0.00460472	0.000778402	0	0.000191062	-0.000162822	1.05864e-05	71.5008	0.0136002	0.00431523	-0.0128974	-13.9105	5.91668	5.74316	1.42241	0.163993	0.0410152	0.169044	14.0418	6525.68	26091.9	26895.6	-75.9582	0.0000000E+000	0.0000000E+000	0.0000000E+000	75.9582	0.0000000E+000	0.0000000E+000	0.0000000E+000	-75.9582	0.0000000E+000	0.0000000E+000	0.0000000E+000	-14.0418	0.0000000E+000	0.0000000E+000	0.0000000E+000	14.0418	3.99835	75.9582	-1.91674e-06	-6.52743e-05	2.80484e-09	-6.52771e-05	3.78937	219966	9.45193	219975
251.044	7.19645	1.4565	7.34237	-11.4417	17.1701	3.7892	-0.0176885	435.269	17.1281	1	10	0.00457529	0.000623136	0	0.000177285	0.000218724	5.19206e-06	-27.0569	0.00833215	0.00742024	0.00379008	-11.4591	7.35039	7.20387	1.46029	0.133489	0.0270172	0.136196	11.4417	17128.1	84628.4	86344.3	-78.5583	0.0000000E+000	0.0000000E+000	0.0000000E+000	78.5583	0.0000000E+000	0.0000000E+000	0.0000000E+000	-78.5583	0.0000000E+000	0.0000000E+000	0.0000000E+000	-11.4417	0.0000000E+000	0.0000000E+000	0.0000000E+000	11.4417	4.94091	78.5583	-2.24247e-06	-6.70253e-05	-3.8689e-09	-6.70215e-05	3.78899	214218	12.3653	214206
63.0823	8.36866	0.891679	8.41603	-6.0819	19.892	3.78922	-0.012318	2829.46	31.7619	1	10	0.00457654	0.000543788	0	0.000164804	0.000123337	8.09727e-06	-128.389	0.0148905	-0.00924699	0.0116713	-6.16766	8.40808	8.35942	0.90335	0.118152	0.0125891	0.118821	6.0819	31761.9	298094	299782	-83.9181	0.0000000E+000	0.0000000E+000	0.0000000E+000	83.9181	0.0000000E+000	0.0000000E+000	0.0000000E+000	-83.9181	0.0000000E+000	0.0000000E+000	0.0000000E+000	-6.0819	0.0000000E+000	0.0000000E+000	0.0000000E+000	6.0819	9.38529	83.9181	-1.7191e-06	-4.66755e-05	-1.51927e-09	-4.6674e-05	3.7891	307617	10.0128	307607
15.8576	8.82639	0.394191	8.83519	-2.55716	22.5501	3.78919	-0.024356	25461.1	50.6826	1	10	0.0045837	0.000518801	0	0.000155476	2.79507e-05	1.91157e-05	17.7875	0.0368459	0.0350845	-0.011256	-2.47441	8.86974	8.86147	0.382935	0.113071	0.00504981	0.113184	2.55716	50682.6	1.13484e+06	1.13597e+06	-87.4428	0.0000000E+000	0.0000000E+000	0.0000000E+000	87.4428	0.0000000E+000	0.0000000E+000	0.0000000E+000	-87.4428	0.0000000E+000	0.0000000E+000	0.0000000E+000	-2.55716	0.0000000E+000	0.0000000E+000	0.0000000E+000	2.55716	22.3911	87.4428	-5.49684e-07	-9.22896e-05	-6.80768e-10	-9.22889e-05	3.78916	155575	1.14759	155574
3.97785	8.98647	0.241387	8.98971	-1.53866	25.7094	3.78932	-0.0124608	165751	119.507	1	11	0.00456647	0.000507966	0	0.000142975	0.000199647	3.94371e-05	49.9872	0.0776372	0.0499175	-0.0594624	-1.15335	9.03821	9.03638	0.181925	0.111198	0.00298692	0.111238	1.53866	119508	4.44907e+06	4.45068e+06	-88.4613	0.0000000E+000	0.0000000E+000	0.0000000E+000	88.4613	0.0000000E+000	0.0000000E+000	0.0000000E+000	-88.4613	0.0000000E+000	0.0000000E+000	0.0000000E+000	-1.53866	0.0000000E+000	0.0000000E+000	0.0000000E+000	1.53866	37.2284	88.4613	3.46505e-06	-4.7218e-05	-2.48776e-09	-4.72155e-05	3.78912	304099	16.022	304083
1.00469	9.15712	0.285235	9.16156	-1.78413	240.524	3.78927	-0.0050547	555372	538.332	1	11	0.00500837	0.000546672	0	-0.0024384	-6.74358e-05	4.80649e-07	12.7699	0.000879227	0.00085748	-0.000194341	-1.78275	9.16242	9.15798	0.285041	0.109099	0.00339831	0.109152	1.78413	538331	1.72825e+07	1.72909e+07	-88.2159	0.0000000E+000	0.0000000E+000	0.0000000E+000	88.2159	0.0000000E+000	0.0000000E+000	0.0000000E+000	-88.2159	0.0000000E+000	0.0000000E+000	0.0000000E+000	-1.78413	0.0000000E+000	0.0000000E+000	0.0000000E+000	1.78413	32.1038	88.2159	-0.00256422	-1.91536e-05	3.40867e-10	-1.91539e-05	3.78933	749653	13.3412	749666
0.251173	9.39066	0.532358	9.40574	-3.24464	240.524	3.78927	-0.0050547	1.19026e+06	3812.98	1	11	0.00503522	0.000535335	0	-0.0024384	-6.74358e-05	2.65321e-07	-38.1031	0.000495618	0.000390002	0.000305835	-3.24636	9.40614	9.39105	0.532664	0.106148	0.00601753	0.106318	3.24464	3.81298e+06	6.726e+07	6.7368e+07	-86.7554	0.0000000E+000	0.0000000E+000	0.0000000E+000	86.7554	0.0000000E+000	0.0000000E+000	0.0000000E+000	-86.7554	0.0000000E+000	0.0000000E+000	0.0000000E+000	-3.24464	0.0000000E+000	0.0000000E+000	0.0000000E+000	3.24464	17.6397	86.7554	0.000000000000000E+000	-1.91536e-05	3.40867e-10	-1.91539e-05	3.78933	749653	13.3412	749666
0.0602816	9.97729	1.05735	10.0332	-6.04936	240.525	3.78927	-0.0050547	2.497e+06	27731.7	1	11	0.00502883	0.000501221	0	-0.0024384	-6.74358e-05	3.21647e-07	79.446	0.000641728	0.00011754	-0.000630872	-6.0457	10.0332	9.97741	1.05672	0.0991145	0.0105037	0.0996695	6.04936	2.77317e+07	2.61681e+08	2.63146e+08	-83.9506	0.0000000E+000	0.0000000E+000	0.0000000E+000	83.9506	0.0000000E+000	0.0000000E+000	0.0000000E+000	-83.9506	0.0000000E+000	0.0000000E+000	0.0000000E+000	-6.04936	0.0000000E+000	0.0000000E+000	0.0000000E+000	6.04936	9.43616	83.9506	0.000000000000000E+000	-1.91536e-05	3.40867e-10	-1.91539e-05	3.78933	749653	13.3412	749666
0.00796479	12.6579	1.95765	12.8084	-8.79161	20329.4	3.78926	0.00185438	1.02073e+07	238447	1	11	0.00502191	0.000392079	0	-0.0124051	0.000142415	5.97435e-07	-8.21395	0.00152376	0.00150813	0.0002177	-8.79154	12.8099	12.6594	1.95787	0.0771565	0.0119329	0.0780738	8.79161	2.38447e+08	1.54177e+09	1.5601e+09	-81.2084	0.0000000E+000	0.0000000E+000	0.0000000E+000	81.2084	0.0000000E+000	0.0000000E+000	0.0000000E+000	-81.2084	0.0000000E+000	0.0000000E+000	0.0000000E+000	-8.79161	0.0000000E+000	0.0000000E+000	0.0000000E+000	8.79161	6.46587	81.2084	-0.00996667	7.02673e-06	2.64091e-10	7.02647e-06	3.78912	2.04341e+06	76.799	2.04334e+06
0.0019912	14.0881	3.02072	14.4083	-12.1019	20329.4	3.78926	0.00185438	2.64604e+07	1.16302e+06	1	11	0.00503443	0.000349411	0	-0.0124051	0.000142415	7.86767e-07	-8.59519	0.0022517	0.00222641	0.000336521	-12.1013	14.4106	14.0904	3.02105	0.0678619	0.0145506	0.0694043	12.1019	1.16302e+09	5.42415e+09	5.54743e+09	-77.8981	0.0000000E+000	0.0000000E+000	0.0000000E+000	77.8981	0.0000000E+000	0.0000000E+000	0.0000000E+000	-77.8981	0.0000000E+000	0.0000000E+000	0.0000000E+000	-12.1019	0.0000000E+000	0.0000000E+000	0.0000000E+000	12.1019	4.66384	77.8981	0.000000000000000E+000	7.02673e-06	2.64091e-10	7.02647e-06	3.78912	2.04341e+06	76.799	2.04334e+06
0.000497799	14.6483	7.89593	16.6408	-28.3262	20329.4	3.78926	0.00185438	4.04914e+07	9.11631e+06	1	11	0.00503432	0.000302528	0	-0.0124051	0.000142415	3.68951e-07	24.3928	0.00121956	0.0011107	-0.000503668	-28.3229	16.6416	14.6494	7.89542	0.0528976	0.0285137	0.0600931	28.3262	9.11631e+09	1.69123e+10	1.92128e+10	-61.6738	0.0000000E+000	0.0000000E+000	0.0000000E+000	61.6738	0.0000000E+000	0.0000000E+000	0.0000000E+000	-61.6738	0.0000000E+000	0.0000000E+000	0.0000000E+000	-28.3262	0.0000000E+000	0.0000000E+000	0.0000000E+000	28.3262	1.85517	61.6738	0.000000000000000E+000	7.02673e-06	2.64091e-10	7.02647e-06	3.78912	2.04341e+06	76.799	2.04334e+06
9.95598e-05	16.6182	38.7542	42.1669	-66.7899	20329.4	3.78926	0.00185438	4.12494e+07	3.48426e+07	1	11	0.00503602	0.000119431	0	-0.0124051	0.000142415	1.60002e-06	-27.1909	0.0133971	0.0119166	0.00612188	-66.7783	42.1773	16.6301	38.7603	0.0093463	0.0217959	0.0237153	66.7899	3.48426e+10	1.49409e+10	3.79109e+10	-23.2101	0.0000000E+000	0.0000000E+000	0.0000000E+000	23.2101	0.0000000E+000	0.0000000E+000	0.0000000E+000	-23.2101	0.0000000E+000	0.0000000E+000	0.0000000E+000	-66.7899	0.0000000E+000	0.0000000E+000	0.0000000E+000	66.7899	0.42881	23.2101	0.000000000000000E+000	7.02673e-06	2.64091e-10	7.02647e-06	3.78912	2.04341e+06	76.799	2.04334e+06