File: txt/17545_R290_UC82_50SOC_C02.mpt
EC-Lab ASCII FILE
Nb header lines : 64

Potentio Electrochemical Impedance Spectroscopy

Run on channel : 2 (SN 66139)
User :
CE vs. WE compliance from -10 V to 10 V
Electrode connection : standard
Potential control : Ewe
Ewe ctrl range : min = -10.00 V, max = 10.00 V
Safety Limits :
	Do not start on E overload
Acquisition started on : 09/16/2025 16:51:35.302
Loaded Setting File :  C:\Users\Celltest\OneDrive - store-dot.com\Documents\EC-Lab\Data\Michael\UC74_NCMA_16706_EIS_50_SOC.mps
Saved on :
	File : 17545_R290_UC82_50SOC_C02.mpr
	Directory : C:\Users\Celltest\OneDrive - store-dot.com\Documents\EC-Lab\Data\Michael\R290\
	Host : 169.254.61.224
Device : VMP-3e (SN .003165)
Address : USB
EC-LAB for windows v11.62 (software)
Internet server v27.00 (firmware)
Command interpretor v12.03 (firmware)
Electrode material :
Initial state :
Electrolyte :
Comments :
Electrode surface area : 0.001 cm²
Characteristic mass : 0.001 g
Equivalent Weight : 0.000 g/eq.
Density : 0.000 g/cm3
Volume (V) : 0.001 cm³
Record Ece
Cycle Definition : Charge/Discharge alternance
Mode                Multi sine
E (V)               0.0000
vs.                 Eoc
tE (h:m:s)          0:00:0.0000
record              0
dI                  0.000
unit dI             mA
dt (s)              0.000
fi                  1.000
unit fi             MHz
ff                  0.100
unit ff             mHz
Nd                  10
Points              per decade
spacing             Logarithmic
Va (mV)             5.0
pw                  0.10
Na                  2
corr                0
E range min (V)     -10.000
E range max (V)     10.000
I Range             Auto
Bandwidth           5
nc cycles           0
goto Ns'            0
nr cycles           0
inc. cycle          0

freq/Hz	Re(Z)/Ohm	-Im(Z)/Ohm	|Z|/Ohm	Phase(Z)/deg	time/s	<Ewe>/V	<I>/mA	Cs/µF	Cp/µF	cycle number	I Range	|Ewe|/V	|I|/A	Ns	(Q-Qo)/mA.h	<Ece>/V	|Ece|/V	Phase(Zce)/deg	|Zce|/Ohm	Re(Zce)/Ohm	-Im(Zce)/Ohm	Phase(Zwe-ce)/deg	|Zwe-ce|/Ohm	Re(Zwe-ce)/Ohm	-Im(Zwe-ce)/Ohm	Re(Y)/Ohm-1	Im(Y)/Ohm-1	|Y|/Ohm-1	Phase(Y)/deg	Re(C)/nF	Im(C)/nF	|C|/nF	Phase(C)/deg	Re(M)	Im(M)	|M|	Phase(M)/deg	Re(Permittivity)	Im(Permittivity)	|Permittivity|	Phase(Permittivity)/deg	Re(Resistivity)/Ohm.cm	Im(Resistivity)/Ohm.cm	|Resistivity|/Ohm.cm	Phase(Resistivity)/deg	Re(Conductivity)/mS/cm	Im(Conductivity)/mS/cm	|Conductivity|/mS/cm	Phase(Conductivity)/deg	Tan(Delta)	Loss Angle(Delta)/deg	dq/mA.h	Pwe/W	Pce/W	Pwe-ce/W	<Ewe-Ece>/V	Rwe/Ohm	Rce/Ohm	Rwe-ce/Ohm		Ewe-Ece/V
1.00002e+06	2.31001	2.30496	3.26328	-44.9373	1.77454	3.78777	-0.102373	0.0690476	0.0344482	1	10	0.000193148	5.91882e-05	0	-4.30708e-05	0.000293435	0.000179089	-66.7626	3.02576	1.19379	2.7803	-55.4328	6.17548	3.5038	5.08527	0.216923	0.216449	0.30644	44.9373	34.4482	34.5237	48.7706	-45.0627	0.0000000E+000	0.0000000E+000	0.0000000E+000	45.0627	0.0000000E+000	0.0000000E+000	0.0000000E+000	-45.0627	0.0000000E+000	0.0000000E+000	0.0000000E+000	-44.9373	0.0000000E+000	0.0000000E+000	0.0000000E+000	44.9373	1.00219	45.0627	-4.30708e-05	-0.000387763	-3.00396e-08	-0.000387733	3.78747	36999.8	2.86634	36997
251206	0.734729	0.29212	0.790671	-21.6822	4.47757	3.78781	-0.0632413	2.16884	0.296046	1	9	0.00176573	0.00223321	0	-0.000100937	0.000159799	3.63869e-05	82.5939	0.0162936	0.00210025	-0.0161576	-20.5323	0.786811	0.736829	0.275962	1.17526	0.467272	1.26475	21.6822	296.046	744.604	801.298	-68.3178	0.0000000E+000	0.0000000E+000	0.0000000E+000	68.3178	0.0000000E+000	0.0000000E+000	0.0000000E+000	-68.3178	0.0000000E+000	0.0000000E+000	0.0000000E+000	-21.6822	0.0000000E+000	0.0000000E+000	0.0000000E+000	21.6822	2.51516	68.3178	-8.71642e-06	-0.000239546	-1.01059e-08	-0.000239536	3.78765	59894.6	2.52681	59892
63093.8	1.22322	0.900591	1.51899	-36.3622	6.77752	3.78771	-0.0720313	2.80095	0.984578	1	9	0.00533124	0.00350973	0	-0.000152029	0.000121617	2.32054e-05	-87.6757	0.00661175	0.000268149	0.00660631	-36.5563	1.52313	1.22349	0.907197	0.530145	0.390317	0.658332	36.3622	984.579	1337.3	1660.65	-53.6378	0.0000000E+000	0.0000000E+000	0.0000000E+000	53.6378	0.0000000E+000	0.0000000E+000	0.0000000E+000	-53.6378	0.0000000E+000	0.0000000E+000	0.0000000E+000	-36.3622	0.0000000E+000	0.0000000E+000	0.0000000E+000	36.3622	1.35824	53.6378	2.62313e-06	-0.000272834	-8.76023e-09	-0.000272825	3.78759	52584.2	1.68839	52582.5
15847.7	2.41566	1.12454	2.66459	-24.963	9.07955	3.78769	-0.0609693	8.93055	1.59064	1	9	0.00518398	0.00194551	0	-0.000201497	0.000236162	1.09761e-05	-72.0768	0.00564174	0.0017362	0.00536794	-25.0518	2.66843	2.4174	1.12991	0.340233	0.158386	0.375293	24.963	1590.64	3416.89	3768.99	-65.037	0.0000000E+000	0.0000000E+000	0.0000000E+000	65.037	0.0000000E+000	0.0000000E+000	0.0000000E+000	-65.037	0.0000000E+000	0.0000000E+000	0.0000000E+000	-24.963	0.0000000E+000	0.0000000E+000	0.0000000E+000	24.963	2.14813	65.037	-6.54198e-06	-0.000230933	-1.43986e-08	-0.000230918	3.78745	62124.5	3.87346	62120.6
3983.6	3.26698	0.953328	3.40323	-16.2676	11.176	3.78765	-0.0450653	41.9085	3.28854	1	9	0.0051313	0.00150777	0	-0.000237175	0.000140708	9.96742e-06	-56.2318	0.00661069	0.00367445	0.00549542	-16.339	3.4083	3.27065	0.958823	0.282074	0.0823112	0.293838	16.2676	3288.54	11269.6	11739.6	-73.7324	0.0000000E+000	0.0000000E+000	0.0000000E+000	73.7324	0.0000000E+000	0.0000000E+000	0.0000000E+000	-73.7324	0.0000000E+000	0.0000000E+000	0.0000000E+000	-16.2676	0.0000000E+000	0.0000000E+000	0.0000000E+000	16.2676	3.42692	73.7324	-3.08813e-06	-0.000170692	-6.34104e-09	-0.000170685	3.78751	84048	3.12231	84044.9
1000.32	4.03611	1.14377	4.19505	-15.8219	14.0498	3.78765	-0.0850465	139.105	10.3406	1	10	0.0051567	0.00122924	0	-0.000299701	0.00017889	1.0559e-05	-115.043	0.00858989	-0.00363612	0.00778235	-15.9377	4.19368	4.03248	1.15155	0.229345	0.0649929	0.238376	15.8219	10340.6	36489.7	37926.6	-74.1781	0.0000000E+000	0.0000000E+000	0.0000000E+000	74.1781	0.0000000E+000	0.0000000E+000	0.0000000E+000	-74.1781	0.0000000E+000	0.0000000E+000	0.0000000E+000	-15.8219	0.0000000E+000	0.0000000E+000	0.0000000E+000	15.8219	3.52877	74.1781	-1.14775e-05	-0.000322126	-1.52139e-08	-0.000322111	3.78747	44536.2	2.10343	44534.1
251.044	5.36774	1.35113	5.53517	-14.1286	16.751	3.78764	-0.0842456	469.217	27.9578	1	10	0.00505712	0.000913633	0	-0.000360738	0.000274344	1.19717e-05	-4.10058	0.0131034	0.0130698	0.00093699	-14.105	5.54808	5.38081	1.35206	0.175198	0.0440995	0.180663	14.1286	27957.8	111070	114535	-75.8714	0.0000000E+000	0.0000000E+000	0.0000000E+000	75.8714	0.0000000E+000	0.0000000E+000	0.0000000E+000	-75.8714	0.0000000E+000	0.0000000E+000	0.0000000E+000	-14.1286	0.0000000E+000	0.0000000E+000	0.0000000E+000	14.1286	3.97279	75.8714	-1.07008e-05	-0.000319092	-2.31122e-08	-0.000319069	3.78737	44959.5	3.25648	44956.3
63.0823	6.5092	0.801644	6.55837	-7.02094	19.472	3.78764	-0.0797082	3147.25	47.0221	1	10	0.00503268	0.000767367	0	-0.000421561	0.000350707	5.43708e-06	47.4381	0.00708537	0.00479245	-0.00521871	-6.97061	6.5625	6.51399	0.796425	0.151333	0.0186376	0.152477	7.02094	47022.1	381810	384695	-82.9791	0.0000000E+000	0.0000000E+000	0.0000000E+000	82.9791	0.0000000E+000	0.0000000E+000	0.0000000E+000	-82.9791	0.0000000E+000	0.0000000E+000	0.0000000E+000	-7.02094	0.0000000E+000	0.0000000E+000	0.0000000E+000	7.02094	8.11981	82.9791	-9.83937e-06	-0.000301907	-2.79543e-08	-0.000301879	3.78729	47518.9	4.39989	47514.5
15.8576	6.8641	0.346396	6.87283	-2.88897	22.13	3.78765	-0.0804272	28974.1	73.6011	1	10	0.00503536	0.000732647	0	-0.000486011	0.000102526	5.38644e-06	-47.3047	0.00735203	0.00498541	0.00540352	-2.93184	6.87809	6.86908	0.351799	0.145315	0.00733333	0.1455	2.88897	73601.2	1.45846e+06	1.46032e+06	-87.111	0.0000000E+000	0.0000000E+000	0.0000000E+000	87.111	0.0000000E+000	0.0000000E+000	0.0000000E+000	-87.111	0.0000000E+000	0.0000000E+000	0.0000000E+000	-2.88897	0.0000000E+000	0.0000000E+000	0.0000000E+000	2.88897	19.8158	87.111	-1.2579e-05	-0.00030463	-8.2459e-09	-0.000304622	3.78754	47094.1	1.27477	47092.8
3.97785	6.99701	0.22112	7.00051	-1.81007	25.0424	3.78765	-0.0728073	180943	180.527	1	10	0.00502671	0.000718049	0	-0.000545539	0.000427071	8.6906e-06	-14.7738	0.0121031	0.0117029	0.00308634	-1.83225	7.0123	7.00872	0.224207	0.142776	0.00451201	0.142847	1.81007	180527	5.71249e+06	5.71534e+06	-88.1899	0.0000000E+000	0.0000000E+000	0.0000000E+000	88.1899	0.0000000E+000	0.0000000E+000	0.0000000E+000	-88.1899	0.0000000E+000	0.0000000E+000	0.0000000E+000	-1.81007	0.0000000E+000	0.0000000E+000	0.0000000E+000	1.81007	31.6435	88.1899	-1.63243e-05	-0.000275769	-3.10939e-08	-0.000275738	3.78723	52023	5.86577	52017.1
1.00469	7.16273	0.275414	7.16802	-2.20199	240.216	3.78764	-0.0468074	575176	849.13	1	11	0.00497933	0.000694659	0	-0.00648446	0.00017889	1.54965e-07	12.4053	0.000223081	0.000217873	-4.79235e-05	-2.20155	7.16824	7.16294	0.275366	0.139406	0.00536028	0.139509	2.20199	849130	2.20834e+07	2.20997e+07	-87.798	0.0000000E+000	0.0000000E+000	0.0000000E+000	87.798	0.0000000E+000	0.0000000E+000	0.0000000E+000	-87.798	0.0000000E+000	0.0000000E+000	0.0000000E+000	-2.20199	0.0000000E+000	0.0000000E+000	0.0000000E+000	2.20199	26.0071	87.798	-0.00582326	-0.00017729	-8.37335e-09	-0.000177281	3.78747	80919.9	3.82183	80916
0.251173	7.40386	0.541829	7.42366	-4.18555	240.22	3.78764	-0.0468074	1.16946e+06	6229.77	1	11	0.00500652	0.000674401	0	-0.00648446	0.00017889	8.71404e-08	19.8745	0.000129212	0.000121516	-4.39269e-05	-4.18515	7.42378	7.40399	0.541785	0.134345	0.00983163	0.134704	4.18555	6.22977e+06	8.51272e+07	8.53548e+07	-85.8144	0.0000000E+000	0.0000000E+000	0.0000000E+000	85.8144	0.0000000E+000	0.0000000E+000	0.0000000E+000	-85.8144	0.0000000E+000	0.0000000E+000	0.0000000E+000	-4.18555	0.0000000E+000	0.0000000E+000	0.0000000E+000	4.18555	13.6646	85.8144	0.000000000000000E+000	-0.00017729	-8.37335e-09	-0.000177281	3.78747	80919.9	3.82183	80916
0.0602816	7.97339	1.03248	8.03996	-7.37818	240.224	3.78764	-0.0468074	2.55714e+06	42170.3	1	11	0.00500017	0.000621915	0	-0.00648446	0.00017889	4.64238e-07	26.3804	0.000746465	0.000668731	-0.000331676	-7.37523	8.04058	7.97406	1.03214	0.123349	0.0159725	0.124379	7.37818	4.21703e+07	3.25664e+08	3.28383e+08	-82.6218	0.0000000E+000	0.0000000E+000	0.0000000E+000	82.6218	0.0000000E+000	0.0000000E+000	0.0000000E+000	-82.6218	0.0000000E+000	0.0000000E+000	0.0000000E+000	-7.37818	0.0000000E+000	0.0000000E+000	0.0000000E+000	7.37818	7.7226	82.6218	0.000000000000000E+000	-0.00017729	-8.37335e-09	-0.000177281	3.78747	80919.9	3.82183	80916
0.00796479	10.709	2.04351	10.9022	-10.8034	20329.2	3.78762	0.00106627	9.77842e+06	343554	1	11	0.00499468	0.000458135	0	-0.0343867	0.000236162	2.1682e-07	-127.872	0.000473267	-0.000290541	0.000373588	-10.8057	10.902	10.7087	2.04389	0.0900989	0.0171929	0.0917246	10.8034	3.43554e+08	1.80038e+09	1.83287e+09	-79.1965	0.0000000E+000	0.0000000E+000	0.0000000E+000	79.1965	0.0000000E+000	0.0000000E+000	0.0000000E+000	-79.1965	0.0000000E+000	0.0000000E+000	0.0000000E+000	-10.8034	0.0000000E+000	0.0000000E+000	0.0000000E+000	10.8034	5.24047	79.1965	-0.0279022	4.03862e-06	2.51812e-10	4.03837e-06	3.78738	3.55222e+06	221.485	3.552e+06
0.0019912	12.3186	3.10314	12.7035	-14.139	20329.2	3.78762	0.00106627	2.57576e+07	1.53696e+06	1	11	0.00500594	0.000394061	0	-0.0343867	0.000236162	1.23699e-06	-85.5283	0.00313909	0.000244747	0.00312953	-14.1524	12.7045	12.3189	3.10627	0.0763339	0.019229	0.0787186	14.139	1.53696e+09	6.10132e+09	6.29192e+09	-75.861	0.0000000E+000	0.0000000E+000	0.0000000E+000	75.861	0.0000000E+000	0.0000000E+000	0.0000000E+000	-75.861	0.0000000E+000	0.0000000E+000	0.0000000E+000	-14.139	0.0000000E+000	0.0000000E+000	0.0000000E+000	14.139	3.96973	75.861	0.000000000000000E+000	4.03862e-06	2.51812e-10	4.03837e-06	3.78738	3.55222e+06	221.485	3.552e+06
0.000497799	12.9298	7.43215	14.9136	-29.8907	20329.2	3.78762	0.00106627	4.30181e+07	1.06835e+07	1	11	0.00500232	0.00033542	0	-0.0343867	0.000236162	1.41967e-06	-64.6306	0.0042325	0.00181343	0.00382434	-29.8999	14.9171	12.9316	7.43597	0.0581333	0.0334156	0.0670528	29.8907	1.06835e+10	1.85862e+10	2.14379e+10	-60.1093	0.0000000E+000	0.0000000E+000	0.0000000E+000	60.1093	0.0000000E+000	0.0000000E+000	0.0000000E+000	-60.1093	0.0000000E+000	0.0000000E+000	0.0000000E+000	-29.8907	0.0000000E+000	0.0000000E+000	0.0000000E+000	29.8907	1.73971	60.1093	0.000000000000000E+000	4.03862e-06	2.51812e-10	4.03837e-06	3.78738	3.55222e+06	221.485	3.552e+06
9.95598e-05	14.883	38.0976	40.9014	-68.6617	20329.2	3.78762	0.00106627	4.19603e+07	3.64046e+07	1	11	0.00501242	0.000122549	0	-0.0343867	0.000236162	1.60334e-06	10.2532	0.0130833	0.0128744	-0.00232881	-68.6437	40.904	14.8959	38.0952	0.00889638	0.022773	0.024449	68.6617	3.64046e+10	1.42216e+10	3.90839e+10	-21.3383	0.0000000E+000	0.0000000E+000	0.0000000E+000	21.3383	0.0000000E+000	0.0000000E+000	0.0000000E+000	-21.3383	0.0000000E+000	0.0000000E+000	0.0000000E+000	-68.6617	0.0000000E+000	0.0000000E+000	0.0000000E+000	68.6617	0.390655	21.3383	0.000000000000000E+000	4.03862e-06	2.51812e-10	4.03837e-06	3.78738	3.55222e+06	221.485	3.552e+06