File: txt/17549_R290_UC83_50SOC_C05.mpt
EC-Lab ASCII FILE
Nb header lines : 64

Potentio Electrochemical Impedance Spectroscopy

Run on channel : 5 (SN 65912)
User :
CE vs. WE compliance from -10 V to 10 V
Electrode connection : standard
Potential control : Ewe
Ewe ctrl range : min = -10.00 V, max = 10.00 V
Safety Limits :
	Do not start on E overload
Acquisition started on : 09/16/2025 16:58:01.491
Loaded Setting File :  C:\Users\Celltest\OneDrive - store-dot.com\Documents\EC-Lab\Data\Michael\R290\17544_R290_UC82_50SOC.mps
Saved on :
	File : 17549_R290_UC83_50SOC_C05.mpr
	Directory : C:\Users\Celltest\OneDrive - store-dot.com\Documents\EC-Lab\Data\Michael\R290\
	Host : 169.254.61.224
Device : VMP-3e (SN .003165)
Address : USB
EC-LAB for windows v11.62 (software)
Internet server v27.00 (firmware)
Command interpretor v12.03 (firmware)
Electrode material :
Initial state :
Electrolyte :
Comments :
Electrode surface area : 0.001 cm²
Characteristic mass : 0.001 g
Equivalent Weight : 0.000 g/eq.
Density : 0.000 g/cm3
Volume (V) : 0.001 cm³
Record Ece
Cycle Definition : Charge/Discharge alternance
Mode                Multi sine
E (V)               0.0000
vs.                 Eoc
tE (h:m:s)          0:00:0.0000
record              0
dI                  0.000
unit dI             mA
dt (s)              0.000
fi                  1.000
unit fi             MHz
ff                  0.100
unit ff             mHz
Nd                  10
Points              per decade
spacing             Logarithmic
Va (mV)             5.0
pw                  0.10
Na                  2
corr                0
E range min (V)     -10.000
E range max (V)     10.000
I Range             Auto
Bandwidth           5
nc cycles           0
goto Ns'            0
nr cycles           0
inc. cycle          0

freq/Hz	Re(Z)/Ohm	-Im(Z)/Ohm	|Z|/Ohm	Phase(Z)/deg	time/s	<Ewe>/V	<I>/mA	Cs/µF	Cp/µF	cycle number	I Range	|Ewe|/V	|I|/A	Ns	(Q-Qo)/mA.h	<Ece>/V	|Ece|/V	Phase(Zce)/deg	|Zce|/Ohm	Re(Zce)/Ohm	-Im(Zce)/Ohm	Phase(Zwe-ce)/deg	|Zwe-ce|/Ohm	Re(Zwe-ce)/Ohm	-Im(Zwe-ce)/Ohm	Re(Y)/Ohm-1	Im(Y)/Ohm-1	|Y|/Ohm-1	Phase(Y)/deg	Re(C)/nF	Im(C)/nF	|C|/nF	Phase(C)/deg	Re(M)	Im(M)	|M|	Phase(M)/deg	Re(Permittivity)	Im(Permittivity)	|Permittivity|	Phase(Permittivity)/deg	Re(Resistivity)/Ohm.cm	Im(Resistivity)/Ohm.cm	|Resistivity|/Ohm.cm	Phase(Resistivity)/deg	Re(Conductivity)/mS/cm	Im(Conductivity)/mS/cm	|Conductivity|/mS/cm	Phase(Conductivity)/deg	Tan(Delta)	Loss Angle(Delta)/deg	dq/mA.h	Pwe/W	Pce/W	Pwe-ce/W	<Ewe-Ece>/V	Rwe/Ohm	Rce/Ohm	Rwe-ce/Ohm		Ewe-Ece/V
1.00002e+06	0.964441	-0.0945288	0.969062	5.59791	2.69354	3.79366	0.0813474	-1.68364	-0.0160204	1	9	0.000212825	0.00021962	0	1.28158e-05	0.000208542	0.000195737	-0.448434	0.891254	0.891227	0.00697547	2.7013	1.85773	1.85567	-0.0875533	1.027	-0.100661	1.03193	-5.59791	-16.0204	163.45	164.233	-95.5979	0.0000000E+000	0.0000000E+000	0.0000000E+000	95.5979	0.0000000E+000	0.0000000E+000	0.0000000E+000	-95.5979	0.0000000E+000	0.0000000E+000	0.0000000E+000	5.59791	0.0000000E+000	0.0000000E+000	0.0000000E+000	-5.59791	10.2026	84.4021	1.28158e-05	0.000308604	1.69643e-08	0.000308587	3.79345	46635.3	2.56359	46632.8
251206	0.666686	0.346476	0.751343	-27.4609	4.99156	3.79206	-0.08504	1.82859	0.388854	1	9	0.00202326	0.00269286	0	-1.4372e-05	-0.000326012	5.24775e-05	97.26	0.0194876	-0.0024627	-0.0193314	-26.2213	0.740416	0.664223	0.327145	1.18099	0.613758	1.33095	27.4609	388.854	748.23	843.241	-62.5391	0.0000000E+000	0.0000000E+000	0.0000000E+000	62.5391	0.0000000E+000	0.0000000E+000	0.0000000E+000	-62.5391	0.0000000E+000	0.0000000E+000	0.0000000E+000	-27.4609	0.0000000E+000	0.0000000E+000	0.0000000E+000	27.4609	1.92419	62.5391	-8.22119e-06	-0.000322477	2.77241e-08	-0.000322505	3.79239	44591.5	3.83364	44595.3
63093.8	1.09893	1.1201	1.56916	-45.5467	7.29352	3.79178	-0.0785975	2.25204	1.1475	1	9	0.00545926	0.00347909	0	-2.24401e-05	-0.000116009	2.56695e-05	63.1707	0.00737823	0.00333004	-0.006584	-45.2911	1.56681	1.10226	1.11352	0.446307	0.454905	0.637282	45.5467	1147.5	1125.81	1607.55	-44.4533	0.0000000E+000	0.0000000E+000	0.0000000E+000	44.4533	0.0000000E+000	0.0000000E+000	0.0000000E+000	-44.4533	0.0000000E+000	0.0000000E+000	0.0000000E+000	-45.5467	0.0000000E+000	0.0000000E+000	0.0000000E+000	45.5467	0.981098	44.4533	-1.60542e-06	-0.000298024	9.11803e-09	-0.000298034	3.7919	48243	1.47599	48244.5
15847.7	2.8582	2.15795	3.58134	-37.0529	9.59555	3.79179	-0.0689524	4.65387	1.68967	1	9	0.00494883	0.00138184	0	-6.64631e-05	-0.0001351	1.58125e-05	-95.8275	0.0114431	-0.00116185	0.011384	-37.2092	3.58729	2.85704	2.16933	0.222844	0.168247	0.279225	37.0529	1689.67	2237.97	2804.2	-52.9471	0.0000000E+000	0.0000000E+000	0.0000000E+000	52.9471	0.0000000E+000	0.0000000E+000	0.0000000E+000	-52.9471	0.0000000E+000	0.0000000E+000	0.0000000E+000	-37.0529	0.0000000E+000	0.0000000E+000	0.0000000E+000	37.0529	1.3245	52.9471	-6.77622e-06	-0.000261453	9.3155e-09	-0.000261462	3.79192	54991.3	1.95933	54993.3
3983.6	4.92746	1.72389	5.22031	-19.2825	11.4751	3.79169	-0.0704193	23.1759	2.52732	1	10	0.00455522	0.000872595	0	-9.89801e-05	-0.0001351	5.3602e-06	-4.56551	0.00614283	0.00612334	0.000488963	-19.2654	5.22625	4.93358	1.72437	0.180813	0.063258	0.191559	19.2825	2527.32	7223.95	7653.29	-70.7175	0.0000000E+000	0.0000000E+000	0.0000000E+000	70.7175	0.0000000E+000	0.0000000E+000	0.0000000E+000	-70.7175	0.0000000E+000	0.0000000E+000	0.0000000E+000	-19.2825	0.0000000E+000	0.0000000E+000	0.0000000E+000	19.2825	2.85835	70.7175	-6.38012e-06	-0.000267008	9.51367e-09	-0.000267018	3.79183	53844.5	1.91851	53846.4
1000.32	6.10945	1.49437	6.28956	-13.7446	14.3179	3.79166	-0.0460645	106.469	6.01033	1	10	0.00492211	0.000782585	0	-0.000139216	-7.78267e-05	9.4659e-06	34.9595	0.0120957	0.0099131	-0.0069308	-13.662	6.29755	6.11937	1.48744	0.154441	0.0377761	0.158994	13.7446	6010.33	24572.1	25296.5	-76.2554	0.0000000E+000	0.0000000E+000	0.0000000E+000	76.2554	0.0000000E+000	0.0000000E+000	0.0000000E+000	-76.2554	0.0000000E+000	0.0000000E+000	0.0000000E+000	-13.7446	0.0000000E+000	0.0000000E+000	0.0000000E+000	13.7446	4.08832	76.2554	-5.99811e-06	-0.000174661	3.58504e-09	-0.000174664	3.79173	82312	1.68952	82313.6
251.044	7.55641	1.49619	7.70311	-11.1998	17.019	3.79165	-0.0450145	423.725	15.9854	1	10	0.00488239	0.00063382	0	-0.000170702	0.00018945	7.99759e-06	151.04	0.0126181	-0.0110403	-0.00610969	-11.1712	7.6911	7.54537	1.49008	0.127345	0.0252147	0.129818	11.1998	15985.4	80733.3	82300.7	-78.8002	0.0000000E+000	0.0000000E+000	0.0000000E+000	78.8002	0.0000000E+000	0.0000000E+000	0.0000000E+000	-78.8002	0.0000000E+000	0.0000000E+000	0.0000000E+000	-11.1998	0.0000000E+000	0.0000000E+000	0.0000000E+000	11.1998	5.05044	78.8002	-5.54646e-06	-0.000170679	-8.52801e-09	-0.000170671	3.79146	84231.9	4.20865	84227.7
63.0823	8.77716	0.94496	8.82788	-6.14486	19.741	3.79166	-0.04109	2669.93	30.5923	1	10	0.00488337	0.000553176	0	-0.000201852	0.000227633	8.06159e-06	-66.0097	0.0145733	0.00592525	0.0133144	-6.2266	8.83521	8.78309	0.958274	0.112627	0.0121255	0.113277	6.14486	30592.3	284154	285796	-83.8551	0.0000000E+000	0.0000000E+000	0.0000000E+000	83.8551	0.0000000E+000	0.0000000E+000	0.0000000E+000	-83.8551	0.0000000E+000	0.0000000E+000	0.0000000E+000	-6.14486	0.0000000E+000	0.0000000E+000	0.0000000E+000	6.14486	9.2884	83.8551	-4.79002e-06	-0.000155799	-9.35343e-09	-0.00015579	3.79143	92276.9	5.53986	92271.4
15.8576	9.2629	0.427467	9.27276	-2.64223	22.398	3.79164	-0.0484251	23479	49.8962	1	10	0.00488728	0.000527057	0	-0.000237038	5.58118e-05	2.25991e-05	44.4178	0.0428779	0.0306257	-0.0300096	-2.44888	9.30202	9.29353	0.397458	0.107728	0.00497147	0.107843	2.64223	49896.2	1.08122e+06	1.08237e+06	-87.3578	0.0000000E+000	0.0000000E+000	0.0000000E+000	87.3578	0.0000000E+000	0.0000000E+000	0.0000000E+000	-87.3578	0.0000000E+000	0.0000000E+000	0.0000000E+000	-2.64223	0.0000000E+000	0.0000000E+000	0.0000000E+000	2.64223	21.6693	87.3578	-7.48203e-06	-0.000183611	-2.70269e-09	-0.000183608	3.79159	78299.1	1.15254	78298
3.97785	9.47717	0.263721	9.48084	-1.59396	25.5574	3.79172	-0.0381805	151714	117.388	1	11	0.00488757	0.000515521	0	-0.000279887	0.000208542	1.44057e-05	49.17	0.0279439	0.0182702	-0.0211438	-1.4634	9.49854	9.49544	0.242578	0.105435	0.00293395	0.105476	1.59396	117388	4.21849e+06	4.22012e+06	-88.406	0.0000000E+000	0.0000000E+000	0.0000000E+000	88.406	0.0000000E+000	0.0000000E+000	0.0000000E+000	-88.406	0.0000000E+000	0.0000000E+000	0.0000000E+000	-1.59396	0.0000000E+000	0.0000000E+000	0.0000000E+000	1.59396	35.9363	88.406	-9.80751e-06	-0.00014477	-7.96222e-09	-0.000144762	3.79152	99310.5	5.46199	99305
1.00469	9.67293	0.329323	9.67854	-1.94993	240.369	3.79171	-0.0234054	481022	556.915	1	11	0.00507408	0.000524262	0	-0.00399137	7.49031e-05	8.58241e-07	-5.39697	0.00163705	0.00162979	0.000153973	-1.95051	9.68017	9.67456	0.329477	0.103262	0.00351562	0.103321	1.94993	556915	1.63578e+07	1.63673e+07	-88.0501	0.0000000E+000	0.0000000E+000	0.0000000E+000	88.0501	0.0000000E+000	0.0000000E+000	0.0000000E+000	-88.0501	0.0000000E+000	0.0000000E+000	0.0000000E+000	-1.94993	0.0000000E+000	0.0000000E+000	0.0000000E+000	1.94993	29.3722	88.0501	-0.00364727	-8.87466e-05	-1.75314e-09	-8.87448e-05	3.79164	162001	3.20024	161998
0.251173	9.96391	0.619004	9.98312	-3.55491	240.37	3.79171	-0.0234054	1.02365e+06	3935.57	1	11	0.00510476	0.000511339	0	-0.00399137	7.49031e-05	8.26405e-07	-22.7272	0.00161616	0.00149067	0.000624394	-3.55795	9.98465	9.9654	0.619629	0.0999763	0.00621099	0.100169	3.55491	3.93557e+06	6.33496e+07	6.34717e+07	-86.4451	0.0000000E+000	0.0000000E+000	0.0000000E+000	86.4451	0.0000000E+000	0.0000000E+000	0.0000000E+000	-86.4451	0.0000000E+000	0.0000000E+000	0.0000000E+000	-3.55491	0.0000000E+000	0.0000000E+000	0.0000000E+000	3.55491	16.0967	86.4451	0.000000000000000E+000	-8.87466e-05	-1.75314e-09	-8.87448e-05	3.79164	162001	3.20024	161998
0.0602816	10.6119	1.15914	10.675	-6.23372	240.371	3.79171	-0.0234054	2.27771e+06	26855.6	1	11	0.00509361	0.000477153	0	-0.00399137	7.49031e-05	7.247e-07	5.00309	0.0015188	0.00151301	-0.000132454	-6.23214	10.6765	10.6134	1.15901	0.0931229	0.0101718	0.0936768	6.23372	2.68556e+07	2.45862e+08	2.47324e+08	-83.7663	0.0000000E+000	0.0000000E+000	0.0000000E+000	83.7663	0.0000000E+000	0.0000000E+000	0.0000000E+000	-83.7663	0.0000000E+000	0.0000000E+000	0.0000000E+000	-6.23372	0.0000000E+000	0.0000000E+000	0.0000000E+000	6.23372	9.15497	83.7663	0.000000000000000E+000	-8.87466e-05	-1.75314e-09	-8.87448e-05	3.79164	162001	3.20024	161998
0.00796479	13.6232	2.36013	13.8261	-9.82857	20329.3	3.7917	0.000212348	8.4666e+06	246706	1	11	0.0050886	0.000368042	0	-0.0240525	-0.000211465	6.62227e-07	-5.40719	0.00179933	0.00179132	0.000169556	-9.82799	13.8279	13.625	2.3603	0.0712652	0.0123462	0.0723267	9.82857	2.46706e+08	1.42404e+09	1.44526e+09	-80.1714	0.0000000E+000	0.0000000E+000	0.0000000E+000	80.1714	0.0000000E+000	0.0000000E+000	0.0000000E+000	-80.1714	0.0000000E+000	0.0000000E+000	0.0000000E+000	-9.82857	0.0000000E+000	0.0000000E+000	0.0000000E+000	9.82857	5.77222	80.1714	-0.0200611	8.0516e-07	-4.49042e-11	8.05205e-07	3.79192	1.78561e+07	995.843	1.78571e+07
0.0019912	15.5578	3.56856	15.9619	-12.9187	20329.3	3.7917	0.000212348	2.23982e+07	1.11952e+06	1	11	0.00509983	0.000319501	0	-0.0240525	-0.000211465	3.45886e-07	3.91338	0.00108258	0.00108006	-7.38844e-05	-12.9176	15.9629	15.5589	3.56849	0.0610636	0.0140064	0.0626494	12.9187	1.11952e+09	4.88077e+09	5.00752e+09	-77.0813	0.0000000E+000	0.0000000E+000	0.0000000E+000	77.0813	0.0000000E+000	0.0000000E+000	0.0000000E+000	-77.0813	0.0000000E+000	0.0000000E+000	0.0000000E+000	-12.9187	0.0000000E+000	0.0000000E+000	0.0000000E+000	12.9187	4.35969	77.0813	0.000000000000000E+000	8.0516e-07	-4.49042e-11	8.05205e-07	3.79192	1.78561e+07	995.843	1.78571e+07
0.000497799	16.5356	8.52942	18.6058	-27.2857	20329.3	3.7917	0.000212348	3.7484e+07	7.8775e+06	1	11	0.00510004	0.00027411	0	-0.0240525	-0.000211465	1.00565e-06	-106.343	0.00366879	-0.00103236	0.00352055	-27.2968	18.6065	16.5345	8.53294	0.0477663	0.024639	0.0537467	27.2857	7.8775e+09	1.52717e+10	1.71837e+10	-62.7143	0.0000000E+000	0.0000000E+000	0.0000000E+000	62.7143	0.0000000E+000	0.0000000E+000	0.0000000E+000	-62.7143	0.0000000E+000	0.0000000E+000	0.0000000E+000	-27.2857	0.0000000E+000	0.0000000E+000	0.0000000E+000	27.2857	1.93865	62.7143	0.000000000000000E+000	8.0516e-07	-4.49042e-11	8.05205e-07	3.79192	1.78561e+07	995.843	1.78571e+07
9.95598e-05	18.8572	41.3322	45.4306	-65.4759	20329.3	3.7917	0.000212348	3.86766e+07	3.2013e+07	1	11	0.00510084	0.000112278	0	-0.0240525	-0.000211465	2.55705e-06	98.7618	0.0227744	-0.00346917	-0.0225086	-65.4681	45.4087	18.8537	41.3097	0.00913648	0.0200259	0.0220116	65.4759	3.2013e+10	1.46055e+10	3.51874e+10	-24.5241	0.0000000E+000	0.0000000E+000	0.0000000E+000	24.5241	0.0000000E+000	0.0000000E+000	0.0000000E+000	-24.5241	0.0000000E+000	0.0000000E+000	0.0000000E+000	-65.4759	0.0000000E+000	0.0000000E+000	0.0000000E+000	65.4759	0.456234	24.5241	0.000000000000000E+000	8.0516e-07	-4.49042e-11	8.05205e-07	3.79192	1.78561e+07	995.843	1.78571e+07