File: txt/17552_R290_UC83_50SOC_C08.mpt
EC-Lab ASCII FILE
Nb header lines : 64

Potentio Electrochemical Impedance Spectroscopy

Run on channel : 8 (SN 65398)
User :
CE vs. WE compliance from -10 V to 10 V
Electrode connection : standard
Potential control : Ewe
Ewe ctrl range : min = -10.00 V, max = 10.00 V
Safety Limits :
	Do not start on E overload
Acquisition started on : 09/16/2025 16:59:08.715
Loaded Setting File :  C:\Users\Celltest\OneDrive - store-dot.com\Documents\EC-Lab\Data\Michael\R290\17544_R290_UC82_50SOC.mps
Saved on :
	File : 17552_R290_UC83_50SOC_C08.mpr
	Directory : C:\Users\Celltest\OneDrive - store-dot.com\Documents\EC-Lab\Data\Michael\R290\
	Host : 169.254.61.224
Device : VMP-3e (SN .003165)
Address : USB
EC-LAB for windows v11.62 (software)
Internet server v27.00 (firmware)
Command interpretor v12.03 (firmware)
Electrode material :
Initial state :
Electrolyte :
Comments :
Electrode surface area : 0.001 cm²
Characteristic mass : 0.001 g
Equivalent Weight : 0.000 g/eq.
Density : 0.000 g/cm3
Volume (V) : 0.001 cm³
Record Ece
Cycle Definition : Charge/Discharge alternance
Mode                Multi sine
E (V)               0.0000
vs.                 Eoc
tE (h:m:s)          0:00:0.0000
record              0
dI                  0.000
unit dI             mA
dt (s)              0.000
fi                  1.000
unit fi             MHz
ff                  0.100
unit ff             mHz
Nd                  10
Points              per decade
spacing             Logarithmic
Va (mV)             5.0
pw                  0.10
Na                  2
corr                0
E range min (V)     -10.000
E range max (V)     10.000
I Range             Auto
Bandwidth           5
nc cycles           0
goto Ns'            0
nr cycles           0
inc. cycle          0

freq/Hz	Re(Z)/Ohm	-Im(Z)/Ohm	|Z|/Ohm	Phase(Z)/deg	time/s	<Ewe>/V	<I>/mA	Cs/µF	Cp/µF	cycle number	I Range	|Ewe|/V	|I|/A	Ns	(Q-Qo)/mA.h	<Ece>/V	|Ece|/V	Phase(Zce)/deg	|Zce|/Ohm	Re(Zce)/Ohm	-Im(Zce)/Ohm	Phase(Zwe-ce)/deg	|Zwe-ce|/Ohm	Re(Zwe-ce)/Ohm	-Im(Zwe-ce)/Ohm	Re(Y)/Ohm-1	Im(Y)/Ohm-1	|Y|/Ohm-1	Phase(Y)/deg	Re(C)/nF	Im(C)/nF	|C|/nF	Phase(C)/deg	Re(M)	Im(M)	|M|	Phase(M)/deg	Re(Permittivity)	Im(Permittivity)	|Permittivity|	Phase(Permittivity)/deg	Re(Resistivity)/Ohm.cm	Im(Resistivity)/Ohm.cm	|Resistivity|/Ohm.cm	Phase(Resistivity)/deg	Re(Conductivity)/mS/cm	Im(Conductivity)/mS/cm	|Conductivity|/mS/cm	Phase(Conductivity)/deg	Tan(Delta)	Loss Angle(Delta)/deg	dq/mA.h	Pwe/W	Pce/W	Pwe-ce/W	<Ewe-Ece>/V	Rwe/Ohm	Rce/Ohm	Rwe-ce/Ohm		Ewe-Ece/V
1.00002e+06	2.11878	3.19971	3.83763	-56.4884	2.23456	3.79201	-0.0308978	0.0497395	0.0345778	1	10	0.000231199	6.02453e-05	0	-2.40586e-05	0.000273542	0.000204863	-67.7514	3.40048	1.28751	3.14732	-61.7787	7.2033	3.40629	6.34703	0.143866	0.217263	0.260578	56.4884	34.5778	22.8966	41.4715	-33.5116	0.0000000E+000	0.0000000E+000	0.0000000E+000	33.5116	0.0000000E+000	0.0000000E+000	0.0000000E+000	-33.5116	0.0000000E+000	0.0000000E+000	0.0000000E+000	-56.4884	0.0000000E+000	0.0000000E+000	0.0000000E+000	56.4884	0.662177	33.5116	-2.40586e-05	-0.000117165	-8.45184e-09	-0.000117156	3.79174	122728	8.85312	122719
251206	0.844048	0.317256	0.901703	-20.6	4.93952	3.79161	-0.0353025	1.99701	0.247214	1	9	0.00216596	0.00240208	0	-4.95179e-05	4.44852e-05	9.03946e-05	97.8086	0.0376319	-0.00511283	-0.0372829	-18.4551	0.884419	0.838935	0.279973	1.0381	0.390196	1.10901	20.6	247.214	657.703	702.629	-69.4	0.0000000E+000	0.0000000E+000	0.0000000E+000	69.4	0.0000000E+000	0.0000000E+000	0.0000000E+000	-69.4	0.0000000E+000	0.0000000E+000	0.0000000E+000	-20.6	0.0000000E+000	0.0000000E+000	0.0000000E+000	20.6	2.66046	69.4	-3.92968e-06	-0.000133854	-1.57044e-09	-0.000133852	3.79157	107403	1.26011	107402
63093.8	1.21241	1.1022	1.63853	-42.274	7.24356	3.79153	-0.0264112	2.28861	1.03558	1	9	0.00535624	0.00326893	0	-6.57267e-05	0.000139925	3.19242e-05	57.6365	0.00976597	0.00522762	-0.00824901	-41.9373	1.63688	1.21764	1.09395	0.451585	0.410536	0.610302	42.274	1035.58	1139.13	1539.49	-47.726	0.0000000E+000	0.0000000E+000	0.0000000E+000	47.726	0.0000000E+000	0.0000000E+000	0.0000000E+000	-47.726	0.0000000E+000	0.0000000E+000	0.0000000E+000	-42.274	0.0000000E+000	0.0000000E+000	0.0000000E+000	42.274	1.09999	47.726	-1.15885e-05	-0.000100139	-3.6956e-09	-0.000100135	3.79139	143558	5.29797	143553
15847.7	2.87334	2.39459	3.74034	-39.8073	9.54355	3.79152	-0.0270436	4.19394	1.71895	1	9	0.00521409	0.00139401	0	-7.0186e-05	8.26613e-05	1.22226e-05	-130.142	0.00876793	-0.00565256	0.00670262	-39.9416	3.7403	2.86769	2.4013	0.205383	0.171163	0.267355	39.8073	1718.95	2062.62	2684.99	-50.1927	0.0000000E+000	0.0000000E+000	0.0000000E+000	50.1927	0.0000000E+000	0.0000000E+000	0.0000000E+000	-50.1927	0.0000000E+000	0.0000000E+000	0.0000000E+000	-39.8073	0.0000000E+000	0.0000000E+000	0.0000000E+000	39.8073	1.19993	50.1927	-3.42381e-06	-0.000102537	-2.23546e-09	-0.000102534	3.79144	140200	3.05659	140197
3983.6	5.51474	2.32131	5.98338	-22.8276	11.5481	3.79146	-0.0596159	17.2112	2.5905	1	10	0.00515224	0.000861091	0	-9.70697e-05	0.000178102	8.54493e-06	-134.397	0.00992338	-0.00694264	0.00709036	-22.916	5.97974	5.5078	2.3284	0.154039	0.0648395	0.16713	22.8276	2590.5	6154.26	6677.25	-67.1724	0.0000000E+000	0.0000000E+000	0.0000000E+000	67.1724	0.0000000E+000	0.0000000E+000	0.0000000E+000	-67.1724	0.0000000E+000	0.0000000E+000	0.0000000E+000	-22.8276	0.0000000E+000	0.0000000E+000	0.0000000E+000	22.8276	2.3757	67.1724	-5.30503e-06	-0.000226031	-1.06177e-08	-0.000226021	3.79128	63598.1	2.98749	63595.2
1000.32	7.29748	1.985	7.56263	-15.2169	14.1768	3.7914	-0.0510079	80.1533	5.52198	1	10	0.00493759	0.000652893	0	-0.000135815	0.00019719	1.25512e-05	142.259	0.019224	-0.015202	-0.011767	-15.161	7.54488	7.28227	1.97323	0.127593	0.0347068	0.132229	15.2169	5521.98	20300.6	21038.2	-74.7831	0.0000000E+000	0.0000000E+000	0.0000000E+000	74.7831	0.0000000E+000	0.0000000E+000	0.0000000E+000	-74.7831	0.0000000E+000	0.0000000E+000	0.0000000E+000	-15.2169	0.0000000E+000	0.0000000E+000	0.0000000E+000	15.2169	3.67632	74.7831	-5.79293e-06	-0.000193391	-1.00582e-08	-0.000193381	3.7912	74329.6	3.86586	74325.7
251.044	9.05945	1.78158	9.23296	-11.1255	16.878	3.79139	-0.0507289	355.847	13.2493	1	10	0.00486731	0.000527167	0	-0.000173346	0.000330806	5.66251e-06	-52.8013	0.0107414	0.00649404	0.008556	-11.1698	9.24099	9.06594	1.79014	0.106272	0.0208989	0.108308	11.1255	13249.3	67373.5	68663.9	-78.8745	0.0000000E+000	0.0000000E+000	0.0000000E+000	78.8745	0.0000000E+000	0.0000000E+000	0.0000000E+000	-78.8745	0.0000000E+000	0.0000000E+000	0.0000000E+000	-11.1255	0.0000000E+000	0.0000000E+000	0.0000000E+000	11.1255	5.08506	78.8745	-5.84349e-06	-0.000192333	-1.67814e-08	-0.000192316	3.79106	74738.3	6.52106	74731.8
63.0823	10.4186	1.12257	10.4789	-6.14973	19.6	3.7914	-0.0456512	2247.49	25.7927	1	10	0.00486583	0.000464345	0	-0.000208422	0.000101749	7.39467e-06	-33.7724	0.0159249	0.0132376	0.00885258	-6.19005	10.493	10.4318	1.13143	0.0948807	0.0102231	0.0954299	6.14973	25792.7	239382	240767	-83.8503	0.0000000E+000	0.0000000E+000	0.0000000E+000	83.8503	0.0000000E+000	0.0000000E+000	0.0000000E+000	-83.8503	0.0000000E+000	0.0000000E+000	0.0000000E+000	-6.14973	0.0000000E+000	0.0000000E+000	0.0000000E+000	6.14973	9.28099	83.8503	-5.93208e-06	-0.000173082	-4.64498e-09	-0.000173077	3.7913	83051.6	2.22885	83049.4
15.8576	11.0928	0.572349	11.1076	-2.95363	22.258	3.79141	-0.0511865	17535.7	46.559	1	10	0.00488078	0.000439409	0	-0.000240343	0.00019719	1.52732e-05	-38.8917	0.0347585	0.0270538	0.0218232	-3.05859	11.1358	11.1199	0.594172	0.0899088	0.00463896	0.0900284	2.95363	46559	902372	903572	-87.0464	0.0000000E+000	0.0000000E+000	0.0000000E+000	87.0464	0.0000000E+000	0.0000000E+000	0.0000000E+000	-87.0464	0.0000000E+000	0.0000000E+000	0.0000000E+000	-2.95363	0.0000000E+000	0.0000000E+000	0.0000000E+000	2.95363	19.3813	87.0464	-4.22182e-06	-0.000194069	-1.00934e-08	-0.000194059	3.79121	74070.6	3.85238	74066.7
3.97785	11.322	0.324717	11.3267	-1.6428	25.4683	3.79147	-0.0425637	123216	101.267	1	11	0.00486723	0.000429713	0	-0.000276757	-8.91312e-05	6.9283e-06	-22.1565	0.0161231	0.0149325	0.00608062	-1.67134	11.3418	11.337	0.330798	0.0882507	0.00253104	0.088287	1.6428	101268	3.53094e+06	3.53239e+06	-88.3572	0.0000000E+000	0.0000000E+000	0.0000000E+000	88.3572	0.0000000E+000	0.0000000E+000	0.0000000E+000	-88.3572	0.0000000E+000	0.0000000E+000	0.0000000E+000	-1.6428	0.0000000E+000	0.0000000E+000	0.0000000E+000	1.6428	34.8674	88.3572	-6.10326e-06	-0.000161379	3.79376e-09	-0.000161383	3.79156	89077.5	2.09406	89079.6
1.00469	11.5607	0.376078	11.5668	-1.86321	240.281	3.79145	-0.0252249	421220	445.283	1	11	0.00519774	0.000449367	0	-0.00386666	0.000254454	9.77823e-07	-2.54637	0.002176	0.00217385	9.66751e-05	-1.86334	11.569	11.5629	0.376174	0.0864085	0.00281093	0.0864542	1.86321	445283	1.36881e+07	1.36953e+07	-88.1368	0.0000000E+000	0.0000000E+000	0.0000000E+000	88.1368	0.0000000E+000	0.0000000E+000	0.0000000E+000	-88.1368	0.0000000E+000	0.0000000E+000	0.0000000E+000	-1.86321	0.0000000E+000	0.0000000E+000	0.0000000E+000	1.86321	30.7402	88.1368	-0.00353572	-9.5639e-05	-6.41857e-09	-9.56325e-05	3.7912	150306	10.0874	150296
0.251173	11.8752	0.671435	11.8941	-3.23612	240.284	3.79145	-0.0252249	943719	3007.35	1	11	0.0052253	0.000439317	0	-0.00386666	0.000254454	1.20614e-06	-13.3275	0.00274549	0.00267155	0.000632882	-3.23843	11.8968	11.8779	0.672068	0.0839409	0.00474611	0.084075	3.23612	3.00735e+06	5.31888e+07	5.32737e+07	-86.7639	0.0000000E+000	0.0000000E+000	0.0000000E+000	86.7639	0.0000000E+000	0.0000000E+000	0.0000000E+000	-86.7639	0.0000000E+000	0.0000000E+000	0.0000000E+000	-3.23612	0.0000000E+000	0.0000000E+000	0.0000000E+000	3.23612	17.6863	86.7639	0.000000000000000E+000	-9.5639e-05	-6.41857e-09	-9.56325e-05	3.7912	150306	10.0874	150296
0.0602816	12.5293	1.28452	12.595	-5.85357	240.288	3.79145	-0.0252249	2.05539e+06	21378.6	1	11	0.0052185	0.000414331	0	-0.00386666	0.000254454	9.07212e-07	-13.1479	0.00218959	0.00213219	0.000498054	-5.85484	12.5972	12.5315	1.28502	0.0789825	0.00809737	0.0793965	5.85357	2.13786e+07	2.08529e+08	2.09622e+08	-84.1464	0.0000000E+000	0.0000000E+000	0.0000000E+000	84.1464	0.0000000E+000	0.0000000E+000	0.0000000E+000	-84.1464	0.0000000E+000	0.0000000E+000	0.0000000E+000	-5.85357	0.0000000E+000	0.0000000E+000	0.0000000E+000	5.85357	9.75409	84.1464	0.000000000000000E+000	-9.5639e-05	-6.41857e-09	-9.56325e-05	3.7912	150306	10.0874	150296
0.00796479	16.2457	2.77129	16.4804	-9.68067	20329.2	3.79143	0.00120177	7.21049e+06	203889	1	11	0.00521203	0.000316257	0	-0.00980932	-0.00020366	3.2517e-07	-5.37209	0.00102818	0.00102367	9.62618e-05	-9.68041	16.4814	16.2467	2.77138	0.0598143	0.0102035	0.0606783	9.68067	2.03889e+08	1.19523e+09	1.21249e+09	-80.3193	0.0000000E+000	0.0000000E+000	0.0000000E+000	80.3193	0.0000000E+000	0.0000000E+000	0.0000000E+000	-80.3193	0.0000000E+000	0.0000000E+000	0.0000000E+000	-9.68067	0.0000000E+000	0.0000000E+000	0.0000000E+000	9.68067	5.86215	80.3193	-0.00594266	4.55644e-06	-2.44752e-10	4.55668e-06	3.79164	3.15487e+06	169.466	3.15504e+06
0.0019912	18.3793	3.76619	18.7612	-11.5804	20329.2	3.79143	0.00120177	2.12229e+07	855235	1	11	0.00522632	0.00027857	0	-0.00980932	-0.00020366	1.44492e-06	-99.3871	0.00518693	-0.000846007	0.00511747	-11.5963	18.7614	18.3785	3.77131	0.0522164	0.0106999	0.0533014	11.5804	8.55235e+08	4.17362e+09	4.26035e+09	-78.4196	0.0000000E+000	0.0000000E+000	0.0000000E+000	78.4196	0.0000000E+000	0.0000000E+000	0.0000000E+000	-78.4196	0.0000000E+000	0.0000000E+000	0.0000000E+000	-11.5804	0.0000000E+000	0.0000000E+000	0.0000000E+000	11.5804	4.88009	78.4196	0.000000000000000E+000	4.55644e-06	-2.44752e-10	4.55668e-06	3.79164	3.15487e+06	169.466	3.15504e+06
0.000497799	19.3866	8.62806	21.2199	-23.9916	20329.2	3.79143	0.00120177	3.70555e+07	6.12621e+06	1	11	0.00522545	0.000246252	0	-0.00980932	-0.00020366	2.7266e-06	31.3727	0.0110724	0.00945359	-0.00576432	-23.967	21.2262	19.3961	8.6223	0.0430542	0.0191613	0.0471255	23.9916	6.12621e+09	1.37652e+10	1.50668e+10	-66.0084	0.0000000E+000	0.0000000E+000	0.0000000E+000	66.0084	0.0000000E+000	0.0000000E+000	0.0000000E+000	-66.0084	0.0000000E+000	0.0000000E+000	0.0000000E+000	-23.9916	0.0000000E+000	0.0000000E+000	0.0000000E+000	23.9916	2.24693	66.0084	0.000000000000000E+000	4.55644e-06	-2.44752e-10	4.55668e-06	3.79164	3.15487e+06	169.466	3.15504e+06
9.95598e-05	22.4191	41.0158	46.743	-61.3391	20329.2	3.79143	0.00120177	3.89749e+07	3.00092e+07	1	11	0.00523004	0.000111889	0	-0.00980932	-0.00020366	2.77011e-06	6.12549	0.0247576	0.0246162	-0.00264179	-61.3111	46.7525	22.4437	41.0131	0.0102609	0.0187723	0.0213936	61.3391	3.00092e+10	1.64029e+10	3.41995e+10	-28.6609	0.0000000E+000	0.0000000E+000	0.0000000E+000	28.6609	0.0000000E+000	0.0000000E+000	0.0000000E+000	-28.6609	0.0000000E+000	0.0000000E+000	0.0000000E+000	-61.3391	0.0000000E+000	0.0000000E+000	0.0000000E+000	61.3391	0.546597	28.6609	0.000000000000000E+000	4.55644e-06	-2.44752e-10	4.55668e-06	3.79164	3.15487e+06	169.466	3.15504e+06