File: txt/17551_R290_UC83_50SOC_C07.mpt
EC-Lab ASCII FILE
Nb header lines : 64

Potentio Electrochemical Impedance Spectroscopy

Run on channel : 7 (SN 66126)
User :
CE vs. WE compliance from -10 V to 10 V
Electrode connection : standard
Potential control : Ewe
Ewe ctrl range : min = -10.00 V, max = 10.00 V
Safety Limits :
	Do not start on E overload
Acquisition started on : 09/16/2025 16:58:42.665
Loaded Setting File :  C:\Users\Celltest\OneDrive - store-dot.com\Documents\EC-Lab\Data\Michael\R290\17544_R290_UC82_50SOC.mps
Saved on :
	File : 17551_R290_UC83_50SOC_C07.mpr
	Directory : C:\Users\Celltest\OneDrive - store-dot.com\Documents\EC-Lab\Data\Michael\R290\
	Host : 169.254.61.224
Device : VMP-3e (SN .003165)
Address : USB
EC-LAB for windows v11.62 (software)
Internet server v27.00 (firmware)
Command interpretor v12.03 (firmware)
Electrode material :
Initial state :
Electrolyte :
Comments :
Electrode surface area : 0.001 cm²
Characteristic mass : 0.001 g
Equivalent Weight : 0.000 g/eq.
Density : 0.000 g/cm3
Volume (V) : 0.001 cm³
Record Ece
Cycle Definition : Charge/Discharge alternance
Mode                Multi sine
E (V)               0.0000
vs.                 Eoc
tE (h:m:s)          0:00:0.0000
record              0
dI                  0.000
unit dI             mA
dt (s)              0.000
fi                  1.000
unit fi             MHz
ff                  0.100
unit ff             mHz
Nd                  10
Points              per decade
spacing             Logarithmic
Va (mV)             5.0
pw                  0.10
Na                  2
corr                0
E range min (V)     -10.000
E range max (V)     10.000
I Range             Auto
Bandwidth           5
nc cycles           0
goto Ns'            0
nr cycles           0
inc. cycle          0

freq/Hz	Re(Z)/Ohm	-Im(Z)/Ohm	|Z|/Ohm	Phase(Z)/deg	time/s	<Ewe>/V	<I>/mA	Cs/µF	Cp/µF	cycle number	I Range	|Ewe|/V	|I|/A	Ns	(Q-Qo)/mA.h	<Ece>/V	|Ece|/V	Phase(Zce)/deg	|Zce|/Ohm	Re(Zce)/Ohm	-Im(Zce)/Ohm	Phase(Zwe-ce)/deg	|Zwe-ce|/Ohm	Re(Zwe-ce)/Ohm	-Im(Zwe-ce)/Ohm	Re(Y)/Ohm-1	Im(Y)/Ohm-1	|Y|/Ohm-1	Phase(Y)/deg	Re(C)/nF	Im(C)/nF	|C|/nF	Phase(C)/deg	Re(M)	Im(M)	|M|	Phase(M)/deg	Re(Permittivity)	Im(Permittivity)	|Permittivity|	Phase(Permittivity)/deg	Re(Resistivity)/Ohm.cm	Im(Resistivity)/Ohm.cm	|Resistivity|/Ohm.cm	Phase(Resistivity)/deg	Re(Conductivity)/mS/cm	Im(Conductivity)/mS/cm	|Conductivity|/mS/cm	Phase(Conductivity)/deg	Tan(Delta)	Loss Angle(Delta)/deg	dq/mA.h	Pwe/W	Pce/W	Pwe-ce/W	<Ewe-Ece>/V	Rwe/Ohm	Rce/Ohm	Rwe-ce/Ohm		Ewe-Ece/V
1.00002e+06	3.29283	2.86483	4.36463	-41.0239	2.23353	3.7925	-0.0518052	0.0555538	0.0239341	1	10	0.000218959	5.01668e-05	0	-2.46071e-05	-0.000288445	0.000201037	-65.7588	4.00737	1.64535	3.65402	-52.8552	8.17808	4.93818	6.51885	0.172852	0.150385	0.229115	41.0239	23.9341	27.5098	36.4641	-48.9761	0.0000000E+000	0.0000000E+000	0.0000000E+000	48.9761	0.0000000E+000	0.0000000E+000	0.0000000E+000	-48.9761	0.0000000E+000	0.0000000E+000	0.0000000E+000	-41.0239	0.0000000E+000	0.0000000E+000	0.0000000E+000	41.0239	1.1494	48.9761	-2.46071e-05	-0.000196471	1.4943e-08	-0.000196486	3.79278	73206.9	5.56789	73212.5
251206	0.693164	0.322578	0.764547	-24.9559	4.93854	3.79267	0.0259981	1.96406	0.349635	1	9	0.00158852	0.00207773	0	-1.1408e-05	-0.000173993	4.99933e-05	85.3246	0.0240615	0.00196129	-0.0239814	-23.2463	0.756544	0.695125	0.298596	1.18584	0.551856	1.30796	24.9559	349.635	751.306	828.677	-65.0442	0.0000000E+000	0.0000000E+000	0.0000000E+000	65.0442	0.0000000E+000	0.0000000E+000	0.0000000E+000	-65.0442	0.0000000E+000	0.0000000E+000	0.0000000E+000	-24.9559	0.0000000E+000	0.0000000E+000	0.0000000E+000	24.9559	2.14883	65.0442	1.12477e-06	9.86022e-05	-4.52348e-09	9.86068e-05	3.79285	145883	6.69253	145890
63093.8	0.977727	1.18736	1.53811	-50.5305	7.11255	3.7927	0.0353444	2.12446	1.26603	1	9	0.00535942	0.00348442	0	1.93458e-05	-0.000154917	2.31254e-05	55.9845	0.00663679	0.00371274	-0.00550114	-50.2932	1.53624	0.981439	1.18186	0.413278	0.501891	0.650148	50.5305	1266.03	1042.5	1640.01	-39.4695	0.0000000E+000	0.0000000E+000	0.0000000E+000	39.4695	0.0000000E+000	0.0000000E+000	0.0000000E+000	-39.4695	0.0000000E+000	0.0000000E+000	0.0000000E+000	-50.5305	0.0000000E+000	0.0000000E+000	0.0000000E+000	50.5305	0.823443	39.4695	1.23176e-05	0.000134051	-5.47546e-09	0.000134056	3.79286	107307	4.38309	107312
15847.7	2.40811	3.33486	4.11342	-54.1669	9.41453	3.7927	0.0287908	3.01146	1.97936	1	9	0.00523418	0.00127246	0	3.58205e-05	-2.13895e-05	8.44582e-06	-84.5217	0.00663738	0.000633662	0.00660706	-54.2135	4.11915	2.40874	3.34146	0.142321	0.197093	0.243107	54.1669	1979.36	1429.3	2441.47	-35.8331	0.0000000E+000	0.0000000E+000	0.0000000E+000	35.8331	0.0000000E+000	0.0000000E+000	0.0000000E+000	-35.8331	0.0000000E+000	0.0000000E+000	0.0000000E+000	-54.1669	0.0000000E+000	0.0000000E+000	0.0000000E+000	54.1669	0.722102	35.8331	2.1821e-06	0.000109195	-6.15819e-10	0.000109195	3.79273	131733	0.742929	131734
3983.6	7.44936	5.18476	9.07605	-34.838	11.668	3.79266	-0.036754	7.70576	2.51466	1	10	0.00479993	0.000528856	0	1.91458e-05	-4.04649e-05	6.17931e-06	-126.681	0.0116843	-0.00697976	0.00937046	-34.9117	9.07568	7.44238	5.19413	0.0904326	0.0629412	0.11018	34.838	2514.66	3613.01	4401.97	-55.162	0.0000000E+000	0.0000000E+000	0.0000000E+000	55.162	0.0000000E+000	0.0000000E+000	0.0000000E+000	-55.162	0.0000000E+000	0.0000000E+000	0.0000000E+000	-34.838	0.0000000E+000	0.0000000E+000	0.0000000E+000	34.838	1.43678	55.162	-3.32778e-06	-0.000139395	1.48725e-09	-0.000139397	3.7927	103190	1.10096	103191
1000.32	11.8876	3.64802	12.4348	-17.0599	14.5109	3.79257	-0.0371375	43.6138	3.75371	1	10	0.00475663	0.000382525	0	-1.13115e-05	-0.000593652	9.40218e-06	-19.8862	0.0245792	0.0231136	0.00836072	-17.0655	12.4593	11.9108	3.65638	0.0768809	0.0235928	0.0804195	17.0599	3753.71	12232.1	12795.1	-72.9401	0.0000000E+000	0.0000000E+000	0.0000000E+000	72.9401	0.0000000E+000	0.0000000E+000	0.0000000E+000	-72.9401	0.0000000E+000	0.0000000E+000	0.0000000E+000	-17.0599	0.0000000E+000	0.0000000E+000	0.0000000E+000	17.0599	3.25866	72.9401	-4.53453e-06	-0.000140846	2.20468e-08	-0.000140868	3.79316	102122	15.9852	102138
251.044	14.4237	2.4247	14.626	-9.54255	17.212	3.79257	-0.0374912	261.463	7.1858	1	10	0.00472383	0.000322974	0	-3.84136e-05	-0.0004792	4.83776e-06	-44.8522	0.0149788	0.0106189	0.0105643	-9.57643	14.6383	14.4343	2.43527	0.0674251	0.0113346	0.0683712	9.54255	7185.8	42745.6	43345.4	-80.4575	0.0000000E+000	0.0000000E+000	0.0000000E+000	80.4575	0.0000000E+000	0.0000000E+000	0.0000000E+000	-80.4575	0.0000000E+000	0.0000000E+000	0.0000000E+000	-9.54255	0.0000000E+000	0.0000000E+000	0.0000000E+000	9.54255	5.94863	80.4575	-4.52012e-06	-0.000142188	1.79658e-08	-0.000142206	3.79305	101159	12.7817	101172
63.0823	15.8959	1.45636	15.9625	-5.23475	19.9329	3.79258	-0.0345055	1732.38	14.4205	1	10	0.00471407	0.000295321	0	-6.45648e-05	-0.000154917	1.11501e-05	-92.8076	0.0377557	-0.00184938	0.0377103	-5.37014	15.9641	15.8941	1.49407	0.0623856	0.00571569	0.0626469	5.23475	14420.5	157397	158056	-84.7652	0.0000000E+000	0.0000000E+000	0.0000000E+000	84.7652	0.0000000E+000	0.0000000E+000	0.0000000E+000	-84.7652	0.0000000E+000	0.0000000E+000	0.0000000E+000	-5.23475	0.0000000E+000	0.0000000E+000	0.0000000E+000	5.23475	10.9148	84.7652	-4.43796e-06	-0.000130865	5.3455e-09	-0.00013087	3.79273	109912	4.48964	109917
15.8576	16.8834	0.785098	16.9017	-2.6624	22.8351	3.79263	-0.0339984	12783.8	27.5834	1	11	0.00472661	0.000279653	0	-9.51946e-05	-0.000326596	2.74711e-05	2.38617	0.0982327	0.0981475	-0.00408986	-2.63326	16.9995	16.9816	0.781008	0.0591019	0.0027483	0.0591657	2.6624	27583.4	593177	593818	-87.3376	0.0000000E+000	0.0000000E+000	0.0000000E+000	87.3376	0.0000000E+000	0.0000000E+000	0.0000000E+000	-87.3376	0.0000000E+000	0.0000000E+000	0.0000000E+000	-2.6624	0.0000000E+000	0.0000000E+000	0.0000000E+000	2.6624	21.5049	87.3376	-5.22618e-06	-0.000128943	1.11037e-08	-0.000128954	3.79296	111553	9.60623	111563
3.97785	17.2139	0.409613	17.2187	-1.36313	25.7473	3.79265	-0.0316319	97678.2	55.2768	1	11	0.00471988	0.000274113	0	-0.000119787	-0.000231219	2.50147e-06	-35.1619	0.00912567	0.0074605	0.00525537	-1.38001	17.2263	17.2213	0.414869	0.0580598	0.00138156	0.0580763	1.36313	55276.9	2.32299e+06	2.32365e+06	-88.6369	0.0000000E+000	0.0000000E+000	0.0000000E+000	88.6369	0.0000000E+000	0.0000000E+000	0.0000000E+000	-88.6369	0.0000000E+000	0.0000000E+000	0.0000000E+000	-1.36313	0.0000000E+000	0.0000000E+000	0.0000000E+000	1.36313	42.0247	88.6369	-5.95518e-06	-0.000119968	7.31389e-09	-0.000119976	3.79288	119900	7.30969	119907
1.00469	17.5562	0.425582	17.5614	-1.38864	240.562	3.79261	-0.0171372	372223	218.601	1	11	0.00505826	0.000288033	0	-0.0025884	-4.04649e-05	2.69705e-07	5.80326	0.000936368	0.000931569	-9.46788e-05	-1.38826	17.5623	17.5572	0.425487	0.0569263	0.00137996	0.0569431	1.38864	218601	9.01778e+06	9.02043e+06	-88.6114	0.0000000E+000	0.0000000E+000	0.0000000E+000	88.6114	0.0000000E+000	0.0000000E+000	0.0000000E+000	-88.6114	0.0000000E+000	0.0000000E+000	0.0000000E+000	-1.38864	0.0000000E+000	0.0000000E+000	0.0000000E+000	1.38864	41.2523	88.6114	-0.0024282	-6.49948e-05	6.93457e-10	-6.49955e-05	3.79265	221308	2.36123	221310
0.251173	17.895	0.726796	17.9097	-2.32577	240.562	3.79261	-0.0171372	871834	1435.76	1	11	0.00508804	0.000284094	0	-0.0025884	-4.04649e-05	4.46572e-07	-51.4681	0.00157192	0.000979226	0.00122965	-2.32957	17.9107	17.8959	0.728026	0.0557897	0.00226587	0.0558357	2.32577	1.43576e+06	3.53509e+07	3.538e+07	-87.6742	0.0000000E+000	0.0000000E+000	0.0000000E+000	87.6742	0.0000000E+000	0.0000000E+000	0.0000000E+000	-87.6742	0.0000000E+000	0.0000000E+000	0.0000000E+000	-2.32577	0.0000000E+000	0.0000000E+000	0.0000000E+000	2.32577	24.6217	87.6742	0.000000000000000E+000	-6.49948e-05	6.93457e-10	-6.49955e-05	3.79265	221308	2.36123	221310
0.0602816	18.6144	1.41501	18.6681	-4.34709	240.563	3.79261	-0.0171372	1.86585e+06	10720	1	11	0.00507662	0.000271941	0	-0.0025884	-4.04649e-05	7.8479e-07	8.72459	0.00288588	0.00285249	-0.000437745	-4.34508	18.6709	18.6172	1.41457	0.0534132	0.00406031	0.0535673	4.34709	1.072e+07	1.41021e+08	1.41428e+08	-85.6529	0.0000000E+000	0.0000000E+000	0.0000000E+000	85.6529	0.0000000E+000	0.0000000E+000	0.0000000E+000	-85.6529	0.0000000E+000	0.0000000E+000	0.0000000E+000	-4.34709	0.0000000E+000	0.0000000E+000	0.0000000E+000	4.34709	13.155	85.6529	0.000000000000000E+000	-6.49948e-05	6.93457e-10	-6.49955e-05	3.79265	221308	2.36123	221310
0.00796479	22.9181	2.90376	23.1013	-7.22098	20329.5	3.79264	0.00131318	6.88154e+06	108726	1	11	0.00507021	0.000219477	0	0.00532496	-0.000631803	3.10737e-07	-40.1183	0.00141581	0.00108269	0.000912299	-7.22289	23.1025	22.9192	2.90467	0.0429442	0.00544109	0.0432875	7.22098	1.08726e+08	8.58125e+08	8.64986e+08	-82.779	0.0000000E+000	0.0000000E+000	0.0000000E+000	82.779	0.0000000E+000	0.0000000E+000	0.0000000E+000	-82.779	0.0000000E+000	0.0000000E+000	0.0000000E+000	-7.22098	0.0000000E+000	0.0000000E+000	0.0000000E+000	7.22098	7.89257	82.779	0.00791335	4.98043e-06	-8.29673e-10	4.98126e-06	3.79327	2.88813e+06	481.124	2.88861e+06
0.0019912	25.0863	3.8112	25.3741	-8.63853	20329.5	3.79264	0.00131318	2.09722e+07	473135	1	11	0.00508119	0.000200251	0	0.00532496	-0.000631803	1.71208e-06	26.7161	0.00854968	0.00763696	-0.00384368	-8.62736	25.3811	25.0939	3.80736	0.0389631	0.00591942	0.0394102	8.63853	4.73135e+08	3.11429e+09	3.15003e+09	-81.3615	0.0000000E+000	0.0000000E+000	0.0000000E+000	81.3615	0.0000000E+000	0.0000000E+000	0.0000000E+000	-81.3615	0.0000000E+000	0.0000000E+000	0.0000000E+000	-8.63853	0.0000000E+000	0.0000000E+000	0.0000000E+000	8.63853	6.58225	81.3615	0.000000000000000E+000	4.98043e-06	-8.29673e-10	4.98126e-06	3.79327	2.88813e+06	481.124	2.88861e+06
0.000497799	26.3593	9.03477	27.8646	-18.9194	20329.5	3.79264	0.00131318	3.53874e+07	3.72029e+06	1	11	0.00508489	0.000182486	0	0.00532496	-0.000631803	3.00836e-06	-134.634	0.0164854	-0.0115823	0.0117312	-18.95	27.8575	26.3477	9.04651	0.033949	0.0116362	0.0358878	18.9194	3.72029e+09	1.08541e+10	1.14739e+10	-71.0806	0.0000000E+000	0.0000000E+000	0.0000000E+000	71.0806	0.0000000E+000	0.0000000E+000	0.0000000E+000	-71.0806	0.0000000E+000	0.0000000E+000	0.0000000E+000	-18.9194	0.0000000E+000	0.0000000E+000	0.0000000E+000	18.9194	2.91753	71.0806	0.000000000000000E+000	4.98043e-06	-8.29673e-10	4.98126e-06	3.79327	2.88813e+06	481.124	2.88861e+06
9.95598e-05	30.1498	40.6201	50.5866	-53.4158	20329.5	3.79264	0.00131318	3.93546e+07	2.5375e+07	1	11	0.00508287	0.000100479	0	0.00532496	-0.000631803	2.39204e-06	-132.931	0.0238064	-0.0162148	0.0174306	-53.4423	50.5909	30.1336	40.6375	0.0117819	0.0158734	0.0197681	53.4158	2.5375e+10	1.88343e+10	3.1601e+10	-36.5842	0.0000000E+000	0.0000000E+000	0.0000000E+000	36.5842	0.0000000E+000	0.0000000E+000	0.0000000E+000	-36.5842	0.0000000E+000	0.0000000E+000	0.0000000E+000	-53.4158	0.0000000E+000	0.0000000E+000	0.0000000E+000	53.4158	0.742239	36.5842	0.000000000000000E+000	4.98043e-06	-8.29673e-10	4.98126e-06	3.79327	2.88813e+06	481.124	2.88861e+06