File: txt/17550_R290_UC83_50SOC_C06.mpt
EC-Lab ASCII FILE
Nb header lines : 64

Potentio Electrochemical Impedance Spectroscopy

Run on channel : 6 (SN 65795)
User :
CE vs. WE compliance from -10 V to 10 V
Electrode connection : standard
Potential control : Ewe
Ewe ctrl range : min = -10.00 V, max = 10.00 V
Safety Limits :
	Do not start on E overload
Acquisition started on : 09/16/2025 16:58:22.065
Loaded Setting File :  C:\Users\Celltest\OneDrive - store-dot.com\Documents\EC-Lab\Data\Michael\R290\17544_R290_UC82_50SOC.mps
Saved on :
	File : 17550_R290_UC83_50SOC_C06.mpr
	Directory : C:\Users\Celltest\OneDrive - store-dot.com\Documents\EC-Lab\Data\Michael\R290\
	Host : 169.254.61.224
Device : VMP-3e (SN .003165)
Address : USB
EC-LAB for windows v11.62 (software)
Internet server v27.00 (firmware)
Command interpretor v12.03 (firmware)
Electrode material :
Initial state :
Electrolyte :
Comments :
Electrode surface area : 0.001 cm²
Characteristic mass : 0.001 g
Equivalent Weight : 0.000 g/eq.
Density : 0.000 g/cm3
Volume (V) : 0.001 cm³
Record Ece
Cycle Definition : Charge/Discharge alternance
Mode                Multi sine
E (V)               0.0000
vs.                 Eoc
tE (h:m:s)          0:00:0.0000
record              0
dI                  0.000
unit dI             mA
dt (s)              0.000
fi                  1.000
unit fi             MHz
ff                  0.100
unit ff             mHz
Nd                  10
Points              per decade
spacing             Logarithmic
Va (mV)             5.0
pw                  0.10
Na                  2
corr                0
E range min (V)     -10.000
E range max (V)     10.000
I Range             Auto
Bandwidth           5
nc cycles           0
goto Ns'            0
nr cycles           0
inc. cycle          0

freq/Hz	Re(Z)/Ohm	-Im(Z)/Ohm	|Z|/Ohm	Phase(Z)/deg	time/s	<Ewe>/V	<I>/mA	Cs/µF	Cp/µF	cycle number	I Range	|Ewe|/V	|I|/A	Ns	(Q-Qo)/mA.h	<Ece>/V	|Ece|/V	Phase(Zce)/deg	|Zce|/Ohm	Re(Zce)/Ohm	-Im(Zce)/Ohm	Phase(Zwe-ce)/deg	|Zwe-ce|/Ohm	Re(Zwe-ce)/Ohm	-Im(Zwe-ce)/Ohm	Re(Y)/Ohm-1	Im(Y)/Ohm-1	|Y|/Ohm-1	Phase(Y)/deg	Re(C)/nF	Im(C)/nF	|C|/nF	Phase(C)/deg	Re(M)	Im(M)	|M|	Phase(M)/deg	Re(Permittivity)	Im(Permittivity)	|Permittivity|	Phase(Permittivity)/deg	Re(Resistivity)/Ohm.cm	Im(Resistivity)/Ohm.cm	|Resistivity|/Ohm.cm	Phase(Resistivity)/deg	Re(Conductivity)/mS/cm	Im(Conductivity)/mS/cm	|Conductivity|/mS/cm	Phase(Conductivity)/deg	Tan(Delta)	Loss Angle(Delta)/deg	dq/mA.h	Pwe/W	Pce/W	Pwe-ce/W	<Ewe-Ece>/V	Rwe/Ohm	Rce/Ohm	Rwe-ce/Ohm		Ewe-Ece/V
1.00002e+06	1.24309	5.06162	5.21203	-76.2017	2.23457	3.79271	0.00573448	0.0314429	0.0296543	1	10	0.000211681	4.06139e-05	0	-5.39969e-06	-0.000172193	0.000202195	-65.2841	4.97847	2.08159	4.5224	-70.8684	10.1443	3.32468	9.58402	0.0457604	0.186327	0.191864	76.2017	29.6543	7.28286	30.5355	-13.7983	0.0000000E+000	0.0000000E+000	0.0000000E+000	13.7983	0.0000000E+000	0.0000000E+000	0.0000000E+000	-13.7983	0.0000000E+000	0.0000000E+000	0.0000000E+000	-76.2017	0.0000000E+000	0.0000000E+000	0.0000000E+000	76.2017	0.245592	13.7983	-5.39969e-06	2.17492e-05	-9.8744e-10	2.17502e-05	3.79288	661386	30.0277	661416
251206	0.741348	0.294942	0.797864	-21.6949	4.93557	3.79248	0.0595186	2.14809	0.293541	1	9	0.00107112	0.00134249	0	3.627e-05	-0.000114899	9.04827e-05	70.7481	0.0673993	0.0222231	-0.0636302	-16.8533	0.797838	0.763571	0.231312	1.16457	0.463317	1.25335	21.6949	293.541	737.826	794.073	-68.3051	0.0000000E+000	0.0000000E+000	0.0000000E+000	68.3051	0.0000000E+000	0.0000000E+000	0.0000000E+000	-68.3051	0.0000000E+000	0.0000000E+000	0.0000000E+000	-21.6949	0.0000000E+000	0.0000000E+000	0.0000000E+000	21.6949	2.51354	68.3051	7.13403e-06	0.000225723	-6.83864e-09	0.00022573	3.79259	63719.2	1.93048	63721.1
63093.8	0.0918529	-0.187937	0.209182	63.9532	7.0076	3.7924	0.0578423	-13.4221	-10.8342	1	9	5.14193e-05	0.000245811	0	7.60784e-05	-9.58012e-05	3.34574e-05	33.2572	0.13611	0.113818	-0.0746425	51.9295	0.333539	0.205671	-0.262579	2.09915	-4.29499	4.78052	-63.9532	-10834.2	5295.13	12058.9	-153.953	0.0000000E+000	0.0000000E+000	0.0000000E+000	153.953	0.0000000E+000	0.0000000E+000	0.0000000E+000	-153.953	0.0000000E+000	0.0000000E+000	0.0000000E+000	63.9532	0.0000000E+000	0.0000000E+000	0.0000000E+000	-63.9532	0.488744	26.0468	2.22045e-06	0.000219361	-5.54136e-09	0.000219367	3.7925	65564.5	1.65625	65566.1
15847.7	2.45317	3.13861	3.98358	-51.9885	10.0356	3.79245	0.0589971	3.19975	1.9863	1	9	0.00498822	0.00125219	0	-0.000120791	0.000228865	3.37422e-06	11.1058	0.00269465	0.00264419	-0.000519048	-51.954	3.9848	2.45581	3.1381	0.154589	0.197784	0.25103	51.9885	1986.3	1552.51	2521.04	-38.0115	0.0000000E+000	0.0000000E+000	0.0000000E+000	38.0115	0.0000000E+000	0.0000000E+000	0.0000000E+000	-38.0115	0.0000000E+000	0.0000000E+000	0.0000000E+000	-51.9885	0.0000000E+000	0.0000000E+000	0.0000000E+000	51.9885	0.781608	38.0115	6.64047e-06	0.000223743	1.35024e-08	0.00022373	3.79222	64282	3.87927	64278.1
3983.6	6.8654	4.12499	8.00932	-30.999	11.916	3.79231	-0.0579598	9.68549	2.56907	1	10	0.00453948	0.000566775	0	-0.000132896	-9.58012e-05	1.17137e-05	-139.178	0.0206672	-0.0156399	0.0135103	-31.1396	8.0029	6.84976	4.1385	0.107022	0.064303	0.124854	30.999	2569.07	4275.81	4988.25	-59.001	0.0000000E+000	0.0000000E+000	0.0000000E+000	59.001	0.0000000E+000	0.0000000E+000	0.0000000E+000	-59.001	0.0000000E+000	0.0000000E+000	0.0000000E+000	-30.999	0.0000000E+000	0.0000000E+000	0.0000000E+000	30.999	1.66434	59.001	-4.52336e-06	-0.000219802	5.55262e-09	-0.000219807	3.79241	65430	1.65289	65431.6
1000.32	10.1655	2.88353	10.5666	-15.8364	14.7218	3.79221	-0.0114524	55.1769	4.10899	1	10	0.00484651	0.000458664	0	-0.000145956	9.51792e-05	8.81667e-06	116.913	0.0192225	-0.00870092	-0.0171406	-15.7597	10.5535	10.1568	2.86639	0.0910459	0.0258258	0.0946379	15.8364	4108.99	14485.8	15057.3	-74.1636	0.0000000E+000	0.0000000E+000	0.0000000E+000	74.1636	0.0000000E+000	0.0000000E+000	0.0000000E+000	-74.1636	0.0000000E+000	0.0000000E+000	0.0000000E+000	-15.8364	0.0000000E+000	0.0000000E+000	0.0000000E+000	15.8364	3.52538	74.1636	-1.35509e-06	-4.34299e-05	-1.09003e-09	-4.34288e-05	3.79212	331128	8.31086	331120
251.044	12.2247	2.12372	12.4078	-9.85529	17.423	3.79222	-0.0099804	298.52	8.7454	1	10	0.00482082	0.000388533	0	-0.000153825	-5.76051e-05	5.70938e-06	62.528	0.0146947	0.0067789	-0.0130377	-9.79064	12.4122	12.2314	2.11068	0.0794054	0.0137946	0.0805947	9.85529	8745.4	50340.8	51094.8	-80.1447	0.0000000E+000	0.0000000E+000	0.0000000E+000	80.1447	0.0000000E+000	0.0000000E+000	0.0000000E+000	-80.1447	0.0000000E+000	0.0000000E+000	0.0000000E+000	-9.85529	0.0000000E+000	0.0000000E+000	0.0000000E+000	9.85529	5.75626	80.1447	-1.39976e-06	-3.78479e-05	5.74922e-10	-3.78484e-05	3.79228	379967	5.77182	379972
63.0823	13.7679	1.35157	13.8341	-5.60664	20.1439	3.79224	-0.00392475	1866.7	17.8176	1	10	0.00482438	0.000348731	0	-0.000160873	3.78851e-05	7.24245e-06	-68.7643	0.020768	0.00752229	0.0193578	-5.68334	13.8435	13.7754	1.37093	0.0719394	0.00706214	0.0722852	5.60664	17817.6	181501	182374	-84.3934	0.0000000E+000	0.0000000E+000	0.0000000E+000	84.3934	0.0000000E+000	0.0000000E+000	0.0000000E+000	-84.3934	0.0000000E+000	0.0000000E+000	0.0000000E+000	-5.60664	0.0000000E+000	0.0000000E+000	0.0000000E+000	5.60664	10.1866	84.3934	-3.89012e-07	-1.48836e-05	-1.48689e-10	-1.48834e-05	3.7922	966239	9.65287	966229
15.8576	14.6369	0.683645	14.6529	-2.67416	23.0361	3.79231	-0.0191019	14680.9	31.9571	1	11	0.00481305	0.000328471	0	-0.000169535	-0.000133997	5.7076e-06	-18.5938	0.0173763	0.0164693	0.00554055	-2.69278	14.6696	14.6534	0.689186	0.0681716	0.00318408	0.0682459	2.67416	31957.1	684206	684952	-87.3258	0.0000000E+000	0.0000000E+000	0.0000000E+000	87.3258	0.0000000E+000	0.0000000E+000	0.0000000E+000	-87.3258	0.0000000E+000	0.0000000E+000	0.0000000E+000	-2.67416	0.0000000E+000	0.0000000E+000	0.0000000E+000	2.67416	21.4101	87.3258	-3.45173e-06	-7.24403e-05	2.5596e-09	-7.24429e-05	3.79245	198531	7.01487	198538
3.97785	14.9301	0.372079	14.9348	-1.42759	25.9494	3.79233	-0.0166149	107532	66.7436	1	11	0.00480982	0.000322055	0	-0.000183207	-5.76051e-05	6.03666e-06	61.9881	0.0187442	0.00880329	-0.0165483	-1.36332	14.9432	14.9389	0.35553	0.0669371	0.00166816	0.0669579	1.42759	66743.5	2.67817e+06	2.679e+06	-88.5724	0.0000000E+000	0.0000000E+000	0.0000000E+000	88.5724	0.0000000E+000	0.0000000E+000	0.0000000E+000	-88.5724	0.0000000E+000	0.0000000E+000	0.0000000E+000	-1.42759	0.0000000E+000	0.0000000E+000	0.0000000E+000	1.42759	40.1263	88.5724	-4.84774e-06	-6.30091e-05	9.57102e-10	-6.30101e-05	3.79239	228249	3.46708	228253
1.00469	15.1687	0.353826	15.1728	-1.33624	240.764	3.79231	-0.00536938	447710	243.469	1	11	0.00500482	0.000329855	0	-0.00204588	0.000228865	5.77473e-07	9.17845	0.00175069	0.00172827	-0.000279252	-1.33504	15.1745	15.1704	0.353547	0.0658895	0.00153694	0.0659074	1.33624	243469	1.04376e+07	1.04405e+07	-88.6638	0.0000000E+000	0.0000000E+000	0.0000000E+000	88.6638	0.0000000E+000	0.0000000E+000	0.0000000E+000	-88.6638	0.0000000E+000	0.0000000E+000	0.0000000E+000	-1.33624	0.0000000E+000	0.0000000E+000	0.0000000E+000	1.33624	42.8704	88.6638	-0.0018466	-2.03624e-05	-1.22887e-09	-2.03612e-05	3.79208	706284	42.6242	706242
0.251173	15.4345	0.605153	15.4463	-2.24529	240.765	3.79231	-0.00536938	1.04708e+06	1607.16	1	11	0.00503245	0.000325802	0	-0.00204588	0.000228865	6.86549e-07	-29.0573	0.00210726	0.00184203	0.00102346	-2.24882	15.4482	15.4363	0.606177	0.0646905	0.00253638	0.0647402	2.24529	1.60716e+06	4.09909e+07	4.10224e+07	-87.7547	0.0000000E+000	0.0000000E+000	0.0000000E+000	87.7547	0.0000000E+000	0.0000000E+000	0.0000000E+000	-87.7547	0.0000000E+000	0.0000000E+000	0.0000000E+000	-2.24529	0.0000000E+000	0.0000000E+000	0.0000000E+000	2.24529	25.5051	87.7547	0.000000000000000E+000	-2.03624e-05	-1.22887e-09	-2.03612e-05	3.79208	706284	42.6242	706242
0.0602816	16.0233	1.23456	16.0708	-4.40582	240.765	3.79231	-0.00536938	2.13857e+06	12620.4	1	11	0.00502477	0.000312666	0	-0.00204588	0.000228865	6.65761e-07	23.3143	0.00212931	0.00195545	-0.000842726	-4.40229	16.0726	16.0252	1.23372	0.0620409	0.00478013	0.0622248	4.40582	1.26205e+07	1.638e+08	1.64285e+08	-85.5942	0.0000000E+000	0.0000000E+000	0.0000000E+000	85.5942	0.0000000E+000	0.0000000E+000	0.0000000E+000	-85.5942	0.0000000E+000	0.0000000E+000	0.0000000E+000	-4.40582	0.0000000E+000	0.0000000E+000	0.0000000E+000	4.40582	12.9789	85.5942	0.000000000000000E+000	-2.03624e-05	-1.22887e-09	-2.03612e-05	3.79208	706284	42.6242	706242
0.00796479	19.8177	2.80075	20.0147	-8.04407	20329.7	3.79232	0.00181437	7.13464e+06	139709	1	11	0.00501885	0.000250759	0	0.00846109	0.000343454	2.51552e-07	-43.7168	0.00100316	0.00072505	0.000693279	-8.04574	20.0155	19.8185	2.80144	0.0494718	0.00699161	0.0499634	8.04407	1.39709e+08	9.88561e+08	9.98384e+08	-81.9559	0.0000000E+000	0.0000000E+000	0.0000000E+000	81.9559	0.0000000E+000	0.0000000E+000	0.0000000E+000	-81.9559	0.0000000E+000	0.0000000E+000	0.0000000E+000	-8.04407	0.0000000E+000	0.0000000E+000	0.0000000E+000	8.04407	7.07588	81.9559	0.010507	6.88066e-06	6.23151e-10	6.88004e-06	3.79198	2.09016e+06	189.297	2.08997e+06
0.0019912	21.9707	3.72439	22.2841	-9.62111	20329.7	3.79232	0.00181437	2.1461e+07	599474	1	11	0.00503261	0.000225839	0	0.00846109	0.000343454	8.9665e-07	-88.6404	0.00397031	9.42062e-05	0.0039692	-9.63113	22.2849	21.9708	3.72836	0.0442438	0.00750005	0.044875	9.62111	5.99474e+08	3.53638e+09	3.58683e+09	-80.3789	0.0000000E+000	0.0000000E+000	0.0000000E+000	80.3789	0.0000000E+000	0.0000000E+000	0.0000000E+000	-80.3789	0.0000000E+000	0.0000000E+000	0.0000000E+000	-9.62111	0.0000000E+000	0.0000000E+000	0.0000000E+000	9.62111	5.89914	80.3789	0.000000000000000E+000	6.88066e-06	6.23151e-10	6.88004e-06	3.79198	2.09016e+06	189.297	2.08997e+06
0.000497799	23.0835	8.95917	24.7612	-21.2122	20329.7	3.79232	0.00181437	3.5686e+07	4.67188e+06	1	11	0.00503167	0.000203208	0	0.00846109	0.000343454	2.73987e-06	29.7695	0.0134831	0.0117037	-0.0066945	-21.188	24.7696	23.0952	8.95247	0.0376496	0.0146126	0.0403858	21.2122	4.67188e+09	1.20372e+10	1.2912e+10	-68.7878	0.0000000E+000	0.0000000E+000	0.0000000E+000	68.7878	0.0000000E+000	0.0000000E+000	0.0000000E+000	-68.7878	0.0000000E+000	0.0000000E+000	0.0000000E+000	-21.2122	0.0000000E+000	0.0000000E+000	0.0000000E+000	21.2122	2.57652	68.7878	0.000000000000000E+000	6.88066e-06	6.23151e-10	6.88004e-06	3.79198	2.09016e+06	189.297	2.08997e+06
9.95598e-05	26.361	40.4596	48.2896	-56.9142	20329.7	3.79232	0.00181437	3.95107e+07	2.77365e+07	1	11	0.00503436	0.000104254	0	0.00846109	0.000343454	5.41732e-06	-84.8387	0.0519629	0.0046746	0.0517522	-56.943	48.3355	26.3657	40.5113	0.0113046	0.0173506	0.0207084	56.9142	2.77365e+10	1.80714e+10	3.31042e+10	-33.0858	0.0000000E+000	0.0000000E+000	0.0000000E+000	33.0858	0.0000000E+000	0.0000000E+000	0.0000000E+000	-33.0858	0.0000000E+000	0.0000000E+000	0.0000000E+000	-56.9142	0.0000000E+000	0.0000000E+000	0.0000000E+000	56.9142	0.651539	33.0858	0.000000000000000E+000	6.88066e-06	6.23151e-10	6.88004e-06	3.79198	2.09016e+06	189.297	2.08997e+06