File: txt/17604_R291_UC84_SOC50_C01.mpt
EC-Lab ASCII FILE
Nb header lines : 64

Potentio Electrochemical Impedance Spectroscopy

Run on channel : 1 (SN 66354)
User :
CE vs. WE compliance from -10 V to 10 V
Electrode connection : standard
Potential control : Ewe
Ewe ctrl range : min = -10.00 V, max = 10.00 V
Safety Limits :
	Do not start on E overload
Acquisition started on : 09/17/2025 17:32:53.889
Loaded Setting File :  C:\Users\Celltest\OneDrive - store-dot.com\Documents\EC-Lab\Data\Michael\UC74_NCMA_16706_EIS_50_SOC.mps
Saved on :
	File : 17604_R291_UC84_SOC50_C01.mpr
	Directory : C:\Users\Celltest\OneDrive - store-dot.com\Documents\EC-Lab\Data\Gyutae\
	Host : 169.254.61.224
Device : VMP-3e (SN .003165)
Address : USB
EC-LAB for windows v11.62 (software)
Internet server v27.00 (firmware)
Command interpretor v12.03 (firmware)
Electrode material :
Initial state :
Electrolyte :
Comments :
Electrode surface area : 0.001 cm²
Characteristic mass : 0.001 g
Equivalent Weight : 0.000 g/eq.
Density : 0.000 g/cm3
Volume (V) : 0.001 cm³
Record Ece
Cycle Definition : Charge/Discharge alternance
Mode                Multi sine
E (V)               0.0000
vs.                 Eoc
tE (h:m:s)          0:00:0.0000
record              0
dI                  0.000
unit dI             mA
dt (s)              0.000
fi                  1.000
unit fi             MHz
ff                  0.100
unit ff             mHz
Nd                  10
Points              per decade
spacing             Logarithmic
Va (mV)             5.0
pw                  0.10
Na                  2
corr                0
E range min (V)     -10.000
E range max (V)     10.000
I Range             Auto
Bandwidth           5
nc cycles           0
goto Ns'            0
nr cycles           0
inc. cycle          0

freq/Hz	Re(Z)/Ohm	-Im(Z)/Ohm	|Z|/Ohm	Phase(Z)/deg	time/s	<Ewe>/V	<I>/mA	Cs/µF	Cp/µF	cycle number	I Range	|Ewe|/V	|I|/A	Ns	(Q-Qo)/mA.h	<Ece>/V	|Ece|/V	Phase(Zce)/deg	|Zce|/Ohm	Re(Zce)/Ohm	-Im(Zce)/Ohm	Phase(Zwe-ce)/deg	|Zwe-ce|/Ohm	Re(Zwe-ce)/Ohm	-Im(Zwe-ce)/Ohm	Re(Y)/Ohm-1	Im(Y)/Ohm-1	|Y|/Ohm-1	Phase(Y)/deg	Re(C)/nF	Im(C)/nF	|C|/nF	Phase(C)/deg	Re(M)	Im(M)	|M|	Phase(M)/deg	Re(Permittivity)	Im(Permittivity)	|Permittivity|	Phase(Permittivity)/deg	Re(Resistivity)/Ohm.cm	Im(Resistivity)/Ohm.cm	|Resistivity|/Ohm.cm	Phase(Resistivity)/deg	Re(Conductivity)/mS/cm	Im(Conductivity)/mS/cm	|Conductivity|/mS/cm	Phase(Conductivity)/deg	Tan(Delta)	Loss Angle(Delta)/deg	dq/mA.h	Pwe/W	Pce/W	Pwe-ce/W	<Ewe-Ece>/V	Rwe/Ohm	Rce/Ohm	Rwe-ce/Ohm		Ewe-Ece/V
1.00002e+06	1.10267	-0.0271336	1.103	1.4096	2.72753	3.78505	0.117235	-5.8655	-0.00354948	1	9	0.000235281	0.000213309	0	2.64431e-05	-8.65131e-05	0.000185872	-6.27423	0.871375	0.866155	0.0952302	-1.98092	1.97	1.96883	0.0680966	0.90634	-0.0223024	0.906615	-1.4096	-3.54947	144.246	144.29	-91.4096	0.0000000E+000	0.0000000E+000	0.0000000E+000	91.4096	0.0000000E+000	0.0000000E+000	0.0000000E+000	-91.4096	0.0000000E+000	0.0000000E+000	0.0000000E+000	1.4096	0.0000000E+000	0.0000000E+000	0.0000000E+000	-1.4096	40.6386	88.5904	2.64431e-05	0.000443739	-1.01423e-08	0.000443749	3.78513	32286	0.737948	32286.8
251206	0.809189	0.251108	0.847255	-17.2402	5.02755	3.78474	0.0764786	2.52307	0.221627	1	9	0.00221492	0.00261423	0	8.32631e-05	-0.000143745	6.2252e-05	115.579	0.0238128	-0.0102813	-0.0214789	-16.0362	0.831254	0.798907	0.229629	1.12725	0.34981	1.18028	17.2402	221.627	714.185	747.783	-72.7598	0.0000000E+000	0.0000000E+000	0.0000000E+000	72.7598	0.0000000E+000	0.0000000E+000	0.0000000E+000	-72.7598	0.0000000E+000	0.0000000E+000	0.0000000E+000	-17.2402	0.0000000E+000	0.0000000E+000	0.0000000E+000	17.2402	3.22247	72.7598	9.84615e-06	0.000289451	-1.09934e-08	0.000289462	3.78488	49487.6	1.87955	49489.4
63093.8	1.18737	0.352989	1.23873	-16.5564	7.32755	3.78469	0.0742806	7.14615	0.580281	1	9	0.00532693	0.0043003	0	0.000116536	-8.65131e-05	3.28424e-05	84.6656	0.00763724	0.000710022	-0.00760417	-16.2095	1.23727	1.18808	0.345385	0.773806	0.230041	0.807276	16.5564	580.281	1951.94	2036.36	-73.4436	0.0000000E+000	0.0000000E+000	0.0000000E+000	73.4436	0.0000000E+000	0.0000000E+000	0.0000000E+000	-73.4436	0.0000000E+000	0.0000000E+000	0.0000000E+000	-16.5564	0.0000000E+000	0.0000000E+000	0.0000000E+000	16.5564	3.36377	73.4436	2.20589e-05	0.000281129	-6.42625e-09	0.000281135	3.78477	50951.2	1.16468	50952.4
15847.7	1.47565	0.393286	1.52716	-14.9234	9.62552	3.78469	0.0769256	25.5356	1.69353	1	9	0.0049378	0.00323333	0	0.000165673	-4.83585e-05	6.01992e-05	-113.487	0.0186184	-0.00742021	0.0170758	-15.6154	1.5245	1.46823	0.410361	0.632724	0.168632	0.654811	14.9234	1693.53	6354.32	6576.12	-75.0766	0.0000000E+000	0.0000000E+000	0.0000000E+000	75.0766	0.0000000E+000	0.0000000E+000	0.0000000E+000	-75.0766	0.0000000E+000	0.0000000E+000	0.0000000E+000	-14.9234	0.0000000E+000	0.0000000E+000	0.0000000E+000	14.9234	3.75211	75.0766	1.19343e-05	0.000291139	-3.72001e-09	0.000291143	3.78473	49199.3	0.628639	49199.9
3983.6	1.81868	0.580523	1.90908	-17.7031	11.4761	3.7845	-0.0428471	68.8216	6.36378	1	9	0.00497115	0.00260395	0	0.000199772	0.000237801	5.25991e-06	-38.6047	0.00201998	0.00157855	0.00126035	-17.7247	1.91097	1.82026	0.581784	0.499007	0.159283	0.523812	17.7031	6363.78	19936.6	20927.6	-72.2969	0.0000000E+000	0.0000000E+000	0.0000000E+000	72.2969	0.0000000E+000	0.0000000E+000	0.0000000E+000	-72.2969	0.0000000E+000	0.0000000E+000	0.0000000E+000	-17.7031	0.0000000E+000	0.0000000E+000	0.0000000E+000	17.7031	3.13282	72.2969	-2.88992e-06	-0.000162155	-1.01891e-08	-0.000162144	3.78426	88325.8	5.55	88320.2
1000.32	2.39777	1.02743	2.60863	-23.1948	14.1058	3.78457	0.0568083	154.857	24.022	1	9	0.00483197	0.0018523	0	0.000229181	0.000123337	9.13784e-06	6.59991	0.00493323	0.00490054	-0.000567004	-23.141	2.61291	2.40267	1.02686	0.352358	0.150983	0.383344	23.1948	24022	56061.6	60991.5	-66.8052	0.0000000E+000	0.0000000E+000	0.0000000E+000	66.8052	0.0000000E+000	0.0000000E+000	0.0000000E+000	-66.8052	0.0000000E+000	0.0000000E+000	0.0000000E+000	-23.1948	0.0000000E+000	0.0000000E+000	0.0000000E+000	23.1948	2.33376	66.8052	6.60892e-06	0.000214995	7.00658e-09	0.000214988	3.78445	66620	2.17111	66617.9
251.044	3.79899	1.6393	4.13759	-23.3407	17.0531	3.78458	-0.0183966	386.733	60.7064	1	10	0.00483532	0.00116863	0	0.000238927	8.87343e-06	1.33128e-05	-78.0386	0.0113918	0.00236099	0.0111445	-23.4692	4.14418	3.80135	1.65045	0.221908	0.0957557	0.241687	23.3407	60706.4	140684	153222	-66.6593	0.0000000E+000	0.0000000E+000	0.0000000E+000	66.6593	0.0000000E+000	0.0000000E+000	0.0000000E+000	-66.6593	0.0000000E+000	0.0000000E+000	0.0000000E+000	-23.3407	0.0000000E+000	0.0000000E+000	0.0000000E+000	23.3407	2.31744	66.6593	-2.76741e-06	-6.96234e-05	-1.63241e-10	-6.96232e-05	3.78457	205721	0.482341	205721
63.0823	5.42981	1.12174	5.54446	-11.6725	19.775	3.78458	-0.0147442	2249.16	92.0633	1	10	0.00481143	0.00086779	0	0.000224112	-1.02039e-05	4.61269e-06	-87.6151	0.00531545	0.00022119	0.00531084	-11.7258	5.54576	5.43003	1.12705	0.17663	0.03649	0.18036	11.6725	92063.2	445633	455044	-78.3275	0.0000000E+000	0.0000000E+000	0.0000000E+000	78.3275	0.0000000E+000	0.0000000E+000	0.0000000E+000	-78.3275	0.0000000E+000	0.0000000E+000	0.0000000E+000	-11.6725	0.0000000E+000	0.0000000E+000	0.0000000E+000	11.6725	4.84051	78.3275	-1.63406e-06	-5.58007e-05	1.50448e-10	-5.58008e-05	3.78459	256683	0.69206	256683
15.8576	5.97348	0.481605	5.99286	-4.60943	22.4341	3.78455	-0.0218589	20839.7	134.588	1	10	0.00483459	0.000806725	0	0.000217885	0.000161492	2.49402e-05	-1.66278	0.0309153	0.0309023	0.000897065	-4.59432	6.02374	6.00438	0.482502	0.166325	0.0134098	0.166865	4.60943	134588	1.66933e+06	1.67475e+06	-85.3906	0.0000000E+000	0.0000000E+000	0.0000000E+000	85.3906	0.0000000E+000	0.0000000E+000	0.0000000E+000	-85.3906	0.0000000E+000	0.0000000E+000	0.0000000E+000	-4.60943	0.0000000E+000	0.0000000E+000	0.0000000E+000	4.60943	12.4033	85.3906	5.28643e-07	-8.27264e-05	-3.53004e-09	-8.27228e-05	3.78439	173135	7.38791	173128
3.97785	6.11703	0.26276	6.12267	-2.45965	25.3473	3.78462	-0.00480819	152269	280.445	1	10	0.00481175	0.00078589	0	0.00020173	-6.74358e-05	7.41181e-06	2.79517	0.0094311	0.00941988	-0.000459913	-2.45158	6.13206	6.12645	0.2623	0.163177	0.00700934	0.163327	2.45965	280446	6.52875e+06	6.53477e+06	-87.5403	0.0000000E+000	0.0000000E+000	0.0000000E+000	87.5403	0.0000000E+000	0.0000000E+000	0.0000000E+000	-87.5403	0.0000000E+000	0.0000000E+000	0.0000000E+000	-2.45965	0.0000000E+000	0.0000000E+000	0.0000000E+000	2.45965	23.2799	87.5403	-3.36284e-06	-1.81972e-05	3.24244e-10	-1.81975e-05	3.78469	787119	14.0252	787133
1.00469	6.35305	0.295808	6.35993	-2.66586	240.604	3.78461	-0.0055441	535520	1158.49	1	11	0.00500838	0.00078749	0	-0.00290132	0.000123337	4.56004e-07	-0.480227	0.00057906	0.00057904	4.85336e-06	-2.66566	6.36051	6.35363	0.295813	0.157064	0.00731317	0.157234	2.66586	1.15849e+06	2.48808e+07	2.49077e+07	-87.3341	0.0000000E+000	0.0000000E+000	0.0000000E+000	87.3341	0.0000000E+000	0.0000000E+000	0.0000000E+000	-87.3341	0.0000000E+000	0.0000000E+000	0.0000000E+000	-2.66586	0.0000000E+000	0.0000000E+000	0.0000000E+000	2.66586	21.4769	87.3341	-0.00308453	-2.09823e-05	-6.83794e-10	-2.09816e-05	3.78449	682637	22.2466	682615
0.251173	6.59681	0.569512	6.62135	-4.93419	240.604	3.78461	-0.0055441	1.11261e+06	8231.06	1	11	0.00503574	0.000760531	0	-0.00290132	0.000123337	7.37348e-07	-15.8226	0.000969517	0.000932783	0.000264348	-4.93577	6.6223	6.59775	0.569776	0.150467	0.01299	0.151027	4.93419	8.23106e+06	9.53427e+07	9.56973e+07	-85.0658	0.0000000E+000	0.0000000E+000	0.0000000E+000	85.0658	0.0000000E+000	0.0000000E+000	0.0000000E+000	-85.0658	0.0000000E+000	0.0000000E+000	0.0000000E+000	-4.93419	0.0000000E+000	0.0000000E+000	0.0000000E+000	4.93419	11.5833	85.0658	0.000000000000000E+000	-2.09823e-05	-6.83794e-10	-2.09816e-05	3.78449	682637	22.2466	682615
0.0602816	7.15281	1.20016	7.25279	-9.52488	240.605	3.78461	-0.0055441	2.19986e+06	60237.1	1	11	0.00502697	0.000693108	0	-0.00290132	0.000123337	5.00557e-07	-6.37947	0.000722192	0.00071772	8.02448e-05	-9.52456	7.25351	7.15352	1.20024	0.135977	0.0228155	0.137878	9.52488	6.02372e+07	3.59005e+08	3.64024e+08	-80.4751	0.0000000E+000	0.0000000E+000	0.0000000E+000	80.4751	0.0000000E+000	0.0000000E+000	0.0000000E+000	-80.4751	0.0000000E+000	0.0000000E+000	0.0000000E+000	-9.52488	0.0000000E+000	0.0000000E+000	0.0000000E+000	9.52488	5.95987	80.4751	0.000000000000000E+000	-2.09823e-05	-6.83794e-10	-2.09816e-05	3.78449	682637	22.2466	682615
0.00796479	10.0826	2.25404	10.3315	-12.6016	20329.5	3.7846	0.00151334	8.86513e+06	421967	1	11	0.00502182	0.000486068	0	-0.0248949	0.000123337	6.11292e-07	-18.4044	0.00125763	0.0011933	0.00039706	-12.6023	10.3328	10.0838	2.25443	0.0944595	0.021117	0.0967911	12.6016	4.21967e+08	1.88752e+09	1.93411e+09	-77.3984	0.0000000E+000	0.0000000E+000	0.0000000E+000	77.3984	0.0000000E+000	0.0000000E+000	0.0000000E+000	-77.3984	0.0000000E+000	0.0000000E+000	0.0000000E+000	-12.6016	0.0000000E+000	0.0000000E+000	0.0000000E+000	12.6016	4.47315	77.3984	-0.0219936	5.72738e-06	1.86651e-10	5.72719e-06	3.78447	2.50082e+06	81.5001	2.50074e+06
0.0019912	11.8208	3.20158	12.2467	-15.1546	20329.5	3.7846	0.00151334	2.49656e+07	1.70622e+06	1	11	0.00503475	0.000411112	0	-0.0248949	0.000123337	6.50828e-07	-20.4046	0.00158309	0.00148376	0.00055194	-15.1553	12.2482	11.8223	3.20213	0.0788153	0.0213466	0.0816549	15.1546	1.70622e+09	6.29965e+09	6.52662e+09	-74.8454	0.0000000E+000	0.0000000E+000	0.0000000E+000	74.8454	0.0000000E+000	0.0000000E+000	0.0000000E+000	-74.8454	0.0000000E+000	0.0000000E+000	0.0000000E+000	-15.1546	0.0000000E+000	0.0000000E+000	0.0000000E+000	15.1546	3.69217	74.8454	0.000000000000000E+000	5.72738e-06	1.86651e-10	5.72719e-06	3.78447	2.50082e+06	81.5001	2.50074e+06
0.000497799	12.3189	7.36464	14.3524	-30.8725	20329.5	3.7846	0.00151334	4.34124e+07	1.14306e+07	1	11	0.00503667	0.000350928	0	-0.0248949	0.000123337	6.00517e-07	-21.5783	0.00171123	0.0015913	0.000629342	-30.8714	14.3541	12.3204	7.36527	0.0598026	0.0357521	0.0696746	30.8725	1.14306e+10	1.91199e+10	2.22762e+10	-59.1275	0.0000000E+000	0.0000000E+000	0.0000000E+000	59.1275	0.0000000E+000	0.0000000E+000	0.0000000E+000	-59.1275	0.0000000E+000	0.0000000E+000	0.0000000E+000	-30.8725	0.0000000E+000	0.0000000E+000	0.0000000E+000	30.8725	1.6727	59.1275	0.000000000000000E+000	5.72738e-06	1.86651e-10	5.72719e-06	3.78447	2.50082e+06	81.5001	2.50074e+06
9.95598e-05	14.66	36.7242	39.5422	-68.2386	20329.5	3.7846	0.00151334	4.35295e+07	3.75463e+07	1	11	0.00503208	0.000127258	0	-0.0248949	0.000123337	1.44195e-06	-75.7011	0.0113309	0.0027985	0.0109798	-68.2407	39.5534	14.6628	36.7352	0.00937588	0.0234872	0.0252894	68.2386	3.75463e+10	1.49882e+10	4.04273e+10	-21.7614	0.0000000E+000	0.0000000E+000	0.0000000E+000	21.7614	0.0000000E+000	0.0000000E+000	0.0000000E+000	-21.7614	0.0000000E+000	0.0000000E+000	0.0000000E+000	-68.2386	0.0000000E+000	0.0000000E+000	0.0000000E+000	68.2386	0.399191	21.7614	0.000000000000000E+000	5.72738e-06	1.86651e-10	5.72719e-06	3.78447	2.50082e+06	81.5001	2.50074e+06