File: txt/17605_R291_UC84_SOC50_C02.mpt
EC-Lab ASCII FILE
Nb header lines : 64

Potentio Electrochemical Impedance Spectroscopy

Run on channel : 2 (SN 66139)
User :
CE vs. WE compliance from -10 V to 10 V
Electrode connection : standard
Potential control : Ewe
Ewe ctrl range : min = -10.00 V, max = 10.00 V
Safety Limits :
	Do not start on E overload
Acquisition started on : 09/17/2025 17:33:06.243
Loaded Setting File :  C:\Users\Celltest\OneDrive - store-dot.com\Documents\EC-Lab\Data\Michael\UC74_NCMA_16706_EIS_50_SOC.mps
Saved on :
	File : 17605_R291_UC84_SOC50_C02.mpr
	Directory : C:\Users\Celltest\OneDrive - store-dot.com\Documents\EC-Lab\Data\Gyutae\
	Host : 169.254.61.224
Device : VMP-3e (SN .003165)
Address : USB
EC-LAB for windows v11.62 (software)
Internet server v27.00 (firmware)
Command interpretor v12.03 (firmware)
Electrode material :
Initial state :
Electrolyte :
Comments :
Electrode surface area : 0.001 cm²
Characteristic mass : 0.001 g
Equivalent Weight : 0.000 g/eq.
Density : 0.000 g/cm3
Volume (V) : 0.001 cm³
Record Ece
Cycle Definition : Charge/Discharge alternance
Mode                Multi sine
E (V)               0.0000
vs.                 Eoc
tE (h:m:s)          0:00:0.0000
record              0
dI                  0.000
unit dI             mA
dt (s)              0.000
fi                  1.000
unit fi             MHz
ff                  0.100
unit ff             mHz
Nd                  10
Points              per decade
spacing             Logarithmic
Va (mV)             5.0
pw                  0.10
Na                  2
corr                0
E range min (V)     -10.000
E range max (V)     10.000
I Range             Auto
Bandwidth           5
nc cycles           0
goto Ns'            0
nr cycles           0
inc. cycle          0

freq/Hz	Re(Z)/Ohm	-Im(Z)/Ohm	|Z|/Ohm	Phase(Z)/deg	time/s	<Ewe>/V	<I>/mA	Cs/µF	Cp/µF	cycle number	I Range	|Ewe|/V	|I|/A	Ns	(Q-Qo)/mA.h	<Ece>/V	|Ece|/V	Phase(Zce)/deg	|Zce|/Ohm	Re(Zce)/Ohm	-Im(Zce)/Ohm	Phase(Zwe-ce)/deg	|Zwe-ce|/Ohm	Re(Zwe-ce)/Ohm	-Im(Zwe-ce)/Ohm	Re(Y)/Ohm-1	Im(Y)/Ohm-1	|Y|/Ohm-1	Phase(Y)/deg	Re(C)/nF	Im(C)/nF	|C|/nF	Phase(C)/deg	Re(M)	Im(M)	|M|	Phase(M)/deg	Re(Permittivity)	Im(Permittivity)	|Permittivity|	Phase(Permittivity)/deg	Re(Resistivity)/Ohm.cm	Im(Resistivity)/Ohm.cm	|Resistivity|/Ohm.cm	Phase(Resistivity)/deg	Re(Conductivity)/mS/cm	Im(Conductivity)/mS/cm	|Conductivity|/mS/cm	Phase(Conductivity)/deg	Tan(Delta)	Loss Angle(Delta)/deg	dq/mA.h	Pwe/W	Pce/W	Pwe-ce/W	<Ewe-Ece>/V	Rwe/Ohm	Rce/Ohm	Rwe-ce/Ohm		Ewe-Ece/V
1.00002e+06	1.00131	-0.338023	1.05682	18.6538	2.23352	3.78251	-0.0707278	-0.470832	-0.0481676	1	9	0.000195339	0.000184837	0	-5.47997e-05	8.34354e-05	0.000201664	0.873581	1.09104	1.09091	-0.0166343	9.62091	2.12206	2.09222	-0.354658	0.896527	-0.302652	0.946234	-18.6538	-48.1676	142.684	150.595	-108.654	0.0000000E+000	0.0000000E+000	0.0000000E+000	108.654	0.0000000E+000	0.0000000E+000	0.0000000E+000	-108.654	0.0000000E+000	0.0000000E+000	0.0000000E+000	18.6538	0.0000000E+000	0.0000000E+000	0.0000000E+000	-18.6538	2.96224	71.3462	-5.47997e-05	-0.000267528	-5.9012e-09	-0.000267522	3.78243	53479.8	1.17967	53478.7
251206	0.963912	0.243621	0.994222	-14.184	4.53556	3.78252	-0.0681205	2.60061	0.156149	1	9	0.00258097	0.00259597	0	-9.70293e-05	-6.92914e-05	2.49341e-05	99.2729	0.00960496	-0.00154772	-0.00947944	-13.6743	0.990438	0.962364	0.234141	0.975148	0.246461	1.00581	14.184	156.148	617.818	637.245	-75.816	0.0000000E+000	0.0000000E+000	0.0000000E+000	75.816	0.0000000E+000	0.0000000E+000	0.0000000E+000	-75.816	0.0000000E+000	0.0000000E+000	0.0000000E+000	-14.184	0.0000000E+000	0.0000000E+000	0.0000000E+000	14.184	3.9566	75.816	-6.53669e-06	-0.000257667	4.72016e-09	-0.000257671	3.78258	55526.8	1.01719	55527.9
63093.8	1.33255	0.33731	1.37458	-14.205	6.70956	3.78242	-0.0626453	7.47832	0.450324	1	9	0.00537201	0.00390813	0	-0.000113504	0.000350707	1.50923e-05	90.9004	0.00386178	-6.06884e-05	-0.00386131	-14.0495	1.37357	1.33249	0.333449	0.705253	0.178522	0.727497	14.205	450.324	1779.01	1835.12	-75.795	0.0000000E+000	0.0000000E+000	0.0000000E+000	75.795	0.0000000E+000	0.0000000E+000	0.0000000E+000	-75.795	0.0000000E+000	0.0000000E+000	0.0000000E+000	-14.205	0.0000000E+000	0.0000000E+000	0.0000000E+000	14.205	3.95051	75.795	4.08789e-06	-0.000236951	-2.19702e-08	-0.000236929	3.78207	60378.3	5.5983	60372.7
15847.7	1.60507	0.389436	1.65164	-13.638	8.76354	3.78241	-0.054563	25.7881	1.4337	1	9	0.00464961	0.00281515	0	-0.000134287	0.000350707	7.26516e-05	-97.7878	0.0258073	-0.00349701	0.0255693	-14.5272	1.65447	1.60157	0.415005	0.588388	0.14276	0.605459	13.638	1433.7	5909.06	6080.5	-76.362	0.0000000E+000	0.0000000E+000	0.0000000E+000	76.362	0.0000000E+000	0.0000000E+000	0.0000000E+000	-76.362	0.0000000E+000	0.0000000E+000	0.0000000E+000	-13.638	0.0000000E+000	0.0000000E+000	0.0000000E+000	13.638	4.12153	76.362	-6.00529e-06	-0.00020638	-1.91356e-08	-0.000206361	3.78206	69322	6.42757	69315.6
3983.6	1.93893	0.592864	2.02754	-17.002	10.6101	3.78224	-0.137249	67.389	5.76181	1	9	0.00481965	0.00237709	0	-0.000163904	0.000255253	5.18976e-06	-151.723	0.00218324	-0.00192271	0.00103428	-17.0459	2.02601	1.93701	0.593898	0.471652	0.144216	0.493208	17.002	5761.81	18843.7	19704.9	-72.998	0.0000000E+000	0.0000000E+000	0.0000000E+000	72.998	0.0000000E+000	0.0000000E+000	0.0000000E+000	-72.998	0.0000000E+000	0.0000000E+000	0.0000000E+000	-17.002	0.0000000E+000	0.0000000E+000	0.0000000E+000	17.002	3.27044	72.998	-1.11819e-05	-0.000519108	-3.50332e-08	-0.000519073	3.78199	27557.5	1.85978	27555.7
1000.32	2.58393	1.08564	2.80273	-22.7897	13.2398	3.78234	-0.0420111	146.554	21.9888	1	9	0.00468993	0.00167334	0	-0.000208732	-5.02005e-05	8.71416e-06	88.2983	0.00520764	0.000154647	-0.00520535	-22.6903	2.80087	2.58409	1.08043	0.328941	0.138204	0.356794	22.7897	21988.8	52335.8	56767.4	-67.2103	0.0000000E+000	0.0000000E+000	0.0000000E+000	67.2103	0.0000000E+000	0.0000000E+000	0.0000000E+000	-67.2103	0.0000000E+000	0.0000000E+000	0.0000000E+000	-22.7897	0.0000000E+000	0.0000000E+000	0.0000000E+000	22.7897	2.38011	67.2103	-4.53122e-06	-0.000158901	2.10898e-09	-0.000158903	3.78239	90031.9	1.19493	90033.1
251.044	4.00411	1.52652	4.28522	-20.8687	16.186	3.78234	-0.087643	415.306	52.7016	1	10	0.00469504	0.00109564	0	-0.000272152	7.07199e-06	9.7976e-06	36.7402	0.00894239	0.00716604	-0.00534922	-20.7679	4.29002	4.01128	1.52117	0.218051	0.0831293	0.23336	20.8687	52701.6	138238	147944	-69.1313	0.0000000E+000	0.0000000E+000	0.0000000E+000	69.1313	0.0000000E+000	0.0000000E+000	0.0000000E+000	-69.1313	0.0000000E+000	0.0000000E+000	0.0000000E+000	-20.8687	0.0000000E+000	0.0000000E+000	0.0000000E+000	20.8687	2.62304	69.1313	-1.14389e-05	-0.000331496	-6.1981e-10	-0.000331495	3.78233	43156.2	0.0806909	43156.2
63.0823	5.39485	0.952483	5.47828	-10.0126	18.908	3.78235	-0.0812207	2648.84	80.0721	1	10	0.00467301	0.000853006	0	-0.000336867	-3.11097e-05	8.92326e-06	-97.803	0.010461	-0.00142026	0.0103641	-10.122	5.4787	5.39343	0.962848	0.179759	0.0317372	0.182539	10.0126	80072.1	453526	460541	-79.9874	0.0000000E+000	0.0000000E+000	0.0000000E+000	79.9874	0.0000000E+000	0.0000000E+000	0.0000000E+000	-79.9874	0.0000000E+000	0.0000000E+000	0.0000000E+000	-10.0126	0.0000000E+000	0.0000000E+000	0.0000000E+000	10.0126	5.66398	79.9874	-9.69425e-06	-0.000307205	2.52675e-09	-0.000307207	3.78238	46568.8	0.383027	46569.1
15.8576	5.82311	0.380194	5.83551	-3.73556	21.566	3.78229	-0.0862386	26398.5	112.055	1	10	0.0046774	0.00080154	0	-0.000395748	7.07199e-06	2.05211e-05	27.0976	0.0256021	0.0227918	-0.0116619	-3.60721	5.85751	5.8459	0.368532	0.171001	0.0111647	0.171365	3.73556	112055	1.71625e+06	1.7199e+06	-86.2644	0.0000000E+000	0.0000000E+000	0.0000000E+000	86.2644	0.0000000E+000	0.0000000E+000	0.0000000E+000	-86.2644	0.0000000E+000	0.0000000E+000	0.0000000E+000	-3.73556	0.0000000E+000	0.0000000E+000	0.0000000E+000	3.73556	15.3162	86.2644	-9.67009e-06	-0.000326179	-6.09878e-10	-0.000326179	3.78229	43858.5	0.082005	43858.4
3.97785	5.96384	0.247821	5.96898	-2.3795	24.4783	3.78237	-0.0724087	161448	278.298	1	10	0.00467	0.000782377	0	-0.000466727	-0.000107473	4.60813e-06	8.95312	0.00588991	0.00581815	-0.000916625	-2.3684	5.97476	5.96966	0.246905	0.167388	0.00695565	0.167533	2.3795	278298	6.69725e+06	6.70303e+06	-87.6205	0.0000000E+000	0.0000000E+000	0.0000000E+000	87.6205	0.0000000E+000	0.0000000E+000	0.0000000E+000	-87.6205	0.0000000E+000	0.0000000E+000	0.0000000E+000	-2.3795	0.0000000E+000	0.0000000E+000	0.0000000E+000	2.3795	24.0651	87.6205	-1.98806e-05	-0.000273877	7.78198e-09	-0.000273884	3.78248	52236.4	1.48426	52237.9
1.00469	6.1664	0.301353	6.17376	-2.79783	239.735	3.78236	-0.0442219	525667	1252.46	1	11	0.00498008	0.000806652	0	-0.00638489	0.000350707	3.22572e-07	28.0407	0.00039989	0.000352948	-0.000187988	-2.79593	6.17411	6.16676	0.301165	0.161783	0.00790635	0.161976	2.79783	1.25246e+06	2.56282e+07	2.56588e+07	-87.2022	0.0000000E+000	0.0000000E+000	0.0000000E+000	87.2022	0.0000000E+000	0.0000000E+000	0.0000000E+000	-87.2022	0.0000000E+000	0.0000000E+000	0.0000000E+000	-2.79783	0.0000000E+000	0.0000000E+000	0.0000000E+000	2.79783	20.4624	87.2022	-0.00579232	-0.000167263	-1.5509e-08	-0.000167248	3.782	85531.2	7.93061	85523.2
0.251173	6.41584	0.602002	6.44402	-5.3604	239.735	3.78236	-0.0442219	1.05256e+06	9186.09	1	11	0.0050062	0.000776876	0	-0.00638489	0.000350707	2.48664e-07	-44.9648	0.000320083	0.000226472	0.000226193	-5.36222	6.44427	6.41606	0.602228	0.154504	0.0144972	0.155183	5.3604	9.18609e+06	9.79008e+07	9.83308e+07	-84.6396	0.0000000E+000	0.0000000E+000	0.0000000E+000	84.6396	0.0000000E+000	0.0000000E+000	0.0000000E+000	-84.6396	0.0000000E+000	0.0000000E+000	0.0000000E+000	-5.3604	0.0000000E+000	0.0000000E+000	0.0000000E+000	5.3604	10.6575	84.6396	0.000000000000000E+000	-0.000167263	-1.5509e-08	-0.000167248	3.782	85531.2	7.93061	85523.2
0.0602816	6.96888	1.2518	7.08041	-10.1833	239.735	3.78236	-0.0442219	2.10911e+06	65925.6	1	11	0.00500018	0.000706199	0	-0.00638489	0.000350707	3.67299e-07	76.6592	0.000520107	0.000120011	-0.000506072	-10.1791	7.08044	6.969	1.2513	0.13901	0.02497	0.141235	10.1833	6.59256e+07	3.67012e+08	3.72886e+08	-79.8167	0.0000000E+000	0.0000000E+000	0.0000000E+000	79.8167	0.0000000E+000	0.0000000E+000	0.0000000E+000	-79.8167	0.0000000E+000	0.0000000E+000	0.0000000E+000	-10.1833	0.0000000E+000	0.0000000E+000	0.0000000E+000	10.1833	5.56706	79.8167	0.000000000000000E+000	-0.000167263	-1.5509e-08	-0.000167248	3.782	85531.2	7.93061	85523.2
0.00796479	10.4281	2.79769	10.7968	-15.0179	20328.7	3.78234	0.000928338	7.14244e+06	479571	1	11	0.00499457	0.000462596	0	-0.0296519	-3.11097e-05	2.15876e-07	-78.5955	0.000466662	9.2275e-05	0.000457448	-15.0201	10.797	10.4282	2.79815	0.0894563	0.0239997	0.0926197	15.0179	4.79571e+08	1.78754e+09	1.85076e+09	-74.9821	0.0000000E+000	0.0000000E+000	0.0000000E+000	74.9821	0.0000000E+000	0.0000000E+000	0.0000000E+000	-74.9821	0.0000000E+000	0.0000000E+000	0.0000000E+000	-15.0179	0.0000000E+000	0.0000000E+000	0.0000000E+000	15.0179	3.72739	74.9821	-0.0232671	3.51129e-06	-2.88803e-11	3.51132e-06	3.78238	4.07432e+06	33.5112	4.07435e+06
0.0019912	12.7352	3.73827	13.2725	-16.359	20328.7	3.78234	0.000928338	2.13814e+07	1.69618e+06	1	11	0.00500677	0.000377229	0	-0.0296519	-3.11097e-05	5.96402e-07	-44.525	0.00158101	0.00112717	0.00110863	-16.3623	13.2739	12.7363	3.73938	0.0722936	0.021221	0.0753438	16.359	1.69618e+09	5.77838e+09	6.02218e+09	-73.641	0.0000000E+000	0.0000000E+000	0.0000000E+000	73.641	0.0000000E+000	0.0000000E+000	0.0000000E+000	-73.641	0.0000000E+000	0.0000000E+000	0.0000000E+000	-16.359	0.0000000E+000	0.0000000E+000	0.0000000E+000	16.359	3.4067	73.641	0.000000000000000E+000	3.51129e-06	-2.88803e-11	3.51132e-06	3.78238	4.07432e+06	33.5112	4.07435e+06
0.000497799	13.578	7.37927	15.4536	-28.5229	20328.7	3.78234	0.000928338	4.33264e+07	9.87913e+06	1	11	0.00500774	0.000324049	0	-0.0296519	-3.11097e-05	9.03139e-07	6.0202	0.00278704	0.00277167	-0.000292302	-28.5171	15.4559	13.5807	7.37898	0.0568557	0.0308996	0.0647097	28.5229	9.87913e+09	1.81777e+10	2.06888e+10	-61.4771	0.0000000E+000	0.0000000E+000	0.0000000E+000	61.4771	0.0000000E+000	0.0000000E+000	0.0000000E+000	-61.4771	0.0000000E+000	0.0000000E+000	0.0000000E+000	-28.5229	0.0000000E+000	0.0000000E+000	0.0000000E+000	28.5229	1.84001	61.4771	0.000000000000000E+000	3.51129e-06	-2.88803e-11	3.51132e-06	3.78238	4.07432e+06	33.5112	4.07435e+06
9.95598e-05	16.5205	36.7439	40.2869	-65.7908	20328.7	3.78234	0.000928338	4.35062e+07	3.61903e+07	1	11	0.00499938	0.000124094	0	-0.0296519	-3.11097e-05	5.27453e-06	-33.9555	0.0425042	0.035256	0.0237407	-65.7589	40.323	16.5557	36.7676	0.0101787	0.022639	0.0248219	65.7908	3.61903e+10	1.62716e+10	3.968e+10	-24.2092	0.0000000E+000	0.0000000E+000	0.0000000E+000	24.2092	0.0000000E+000	0.0000000E+000	0.0000000E+000	-24.2092	0.0000000E+000	0.0000000E+000	0.0000000E+000	-65.7908	0.0000000E+000	0.0000000E+000	0.0000000E+000	65.7908	0.449612	24.2092	0.000000000000000E+000	3.51129e-06	-2.88803e-11	3.51132e-06	3.78238	4.07432e+06	33.5112	4.07435e+06