File: txt/17607_R291_UC84_SOC50_C04.mpt
EC-Lab ASCII FILE
Nb header lines : 64

Potentio Electrochemical Impedance Spectroscopy

Run on channel : 4 (SN 66756)
User :
CE vs. WE compliance from -10 V to 10 V
Electrode connection : standard
Potential control : Ewe
Ewe ctrl range : min = -10.00 V, max = 10.00 V
Safety Limits :
	Do not start on E overload
Acquisition started on : 09/17/2025 17:33:41.551
Loaded Setting File :  C:\Users\Celltest\OneDrive - store-dot.com\Documents\EC-Lab\Data\Michael\UC74_NCMA_16706_EIS_50_SOC.mps
Saved on :
	File : 17607_R291_UC84_SOC50_C04.mpr
	Directory : C:\Users\Celltest\OneDrive - store-dot.com\Documents\EC-Lab\Data\Gyutae\
	Host : 169.254.61.224
Device : VMP-3e (SN .003165)
Address : USB
EC-LAB for windows v11.62 (software)
Internet server v27.00 (firmware)
Command interpretor v12.03 (firmware)
Electrode material :
Initial state :
Electrolyte :
Comments :
Electrode surface area : 0.001 cm²
Characteristic mass : 0.001 g
Equivalent Weight : 0.000 g/eq.
Density : 0.000 g/cm3
Volume (V) : 0.001 cm³
Record Ece
Cycle Definition : Charge/Discharge alternance
Mode                Multi sine
E (V)               0.0000
vs.                 Eoc
tE (h:m:s)          0:00:0.0000
record              0
dI                  0.000
unit dI             mA
dt (s)              0.000
fi                  1.000
unit fi             MHz
ff                  0.100
unit ff             mHz
Nd                  10
Points              per decade
spacing             Logarithmic
Va (mV)             5.0
pw                  0.10
Na                  2
corr                0
E range min (V)     -10.000
E range max (V)     10.000
I Range             Auto
Bandwidth           5
nc cycles           0
goto Ns'            0
nr cycles           0
inc. cycle          0

freq/Hz	Re(Z)/Ohm	-Im(Z)/Ohm	|Z|/Ohm	Phase(Z)/deg	time/s	<Ewe>/V	<I>/mA	Cs/µF	Cp/µF	cycle number	I Range	|Ewe|/V	|I|/A	Ns	(Q-Qo)/mA.h	<Ece>/V	|Ece|/V	Phase(Zce)/deg	|Zce|/Ohm	Re(Zce)/Ohm	-Im(Zce)/Ohm	Phase(Zwe-ce)/deg	|Zwe-ce|/Ohm	Re(Zwe-ce)/Ohm	-Im(Zwe-ce)/Ohm	Re(Y)/Ohm-1	Im(Y)/Ohm-1	|Y|/Ohm-1	Phase(Y)/deg	Re(C)/nF	Im(C)/nF	|C|/nF	Phase(C)/deg	Re(M)	Im(M)	|M|	Phase(M)/deg	Re(Permittivity)	Im(Permittivity)	|Permittivity|	Phase(Permittivity)/deg	Re(Resistivity)/Ohm.cm	Im(Resistivity)/Ohm.cm	|Resistivity|/Ohm.cm	Phase(Resistivity)/deg	Re(Conductivity)/mS/cm	Im(Conductivity)/mS/cm	|Conductivity|/mS/cm	Phase(Conductivity)/deg	Tan(Delta)	Loss Angle(Delta)/deg	dq/mA.h	Pwe/W	Pce/W	Pwe-ce/W	<Ewe-Ece>/V	Rwe/Ohm	Rce/Ohm	Rwe-ce/Ohm		Ewe-Ece/V
1.00002e+06	-0.0418211	-5.22826	5.22843	90.4583	1.77354	3.77173	0.0603408	-0.0304407	-0.0304388	1	10	0.00013303	2.54435e-05	0	-9.56333e-06	-0.000283614	0.000193497	100.246	7.60496	-1.35273	-7.48368	96.2605	12.7882	-1.39455	-12.7119	-0.00152985	-0.191256	0.191262	-90.4583	-30.4388	-0.243479	30.4397	179.542	0.0000000E+000	0.0000000E+000	0.0000000E+000	-179.542	0.0000000E+000	0.0000000E+000	0.0000000E+000	179.542	0.0000000E+000	0.0000000E+000	0.0000000E+000	90.4583	0.0000000E+000	0.0000000E+000	0.0000000E+000	-90.4583	0.00799904	0.458298	-9.56333e-06	0.000227589	-1.71135e-08	0.000227606	3.77201	62507.1	4.70021	62511.8
251206	0.038044	-0.848949	0.849801	87.4341	4.47552	3.77034	-0.0686497	-0.746291	-0.744795	1	9	0.000244532	0.000287752	0	-5.05634e-05	-0.000245394	5.24097e-05	44.6266	0.182135	0.129626	-0.127947	80.2609	0.99118	0.16767	-0.976896	0.0526807	-1.17557	1.17675	-87.4341	-744.795	33.3766	745.543	-177.434	0.0000000E+000	0.0000000E+000	0.0000000E+000	177.434	0.0000000E+000	0.0000000E+000	0.0000000E+000	-177.434	0.0000000E+000	0.0000000E+000	0.0000000E+000	87.4341	0.0000000E+000	0.0000000E+000	0.0000000E+000	-87.4341	0.044813	2.56588	-7.05107e-06	-0.000258833	1.68463e-08	-0.00025885	3.77059	54921.4	3.57459	54925
63093.8	1.74129	0.210496	1.75396	-6.89279	6.77352	3.77027	-0.0739459	11.9836	0.172598	1	9	0.00169732	0.000967708	0	-0.000101905	0.000327904	5.73743e-05	-17.82	0.0592888	0.0564443	0.018144	-7.24812	1.81221	1.79773	0.22864	0.566017	0.0684232	0.570137	6.89279	172.599	1427.78	1438.18	-83.1072	0.0000000E+000	0.0000000E+000	0.0000000E+000	83.1072	0.0000000E+000	0.0000000E+000	0.0000000E+000	-83.1072	0.0000000E+000	0.0000000E+000	0.0000000E+000	-6.89279	0.0000000E+000	0.0000000E+000	0.0000000E+000	6.89279	8.27229	83.1072	-9.00457e-06	-0.000278796	-2.42472e-08	-0.000278772	3.76994	50986.9	4.43438	50982.4
15847.7	2.4925	0.618802	2.56816	-13.9427	9.19756	3.77026	-0.0619361	16.2294	0.942239	1	9	0.00530287	0.00206485	0	-0.000149825	-0.000168955	4.67375e-05	71.5335	0.0226348	0.00716957	-0.0214693	-13.4397	2.57005	2.49967	0.597333	0.377911	0.0938225	0.389383	13.9427	942.239	3795.28	3910.5	-76.0573	0.0000000E+000	0.0000000E+000	0.0000000E+000	76.0573	0.0000000E+000	0.0000000E+000	0.0000000E+000	-76.0573	0.0000000E+000	0.0000000E+000	0.0000000E+000	-13.9427	0.0000000E+000	0.0000000E+000	0.0000000E+000	13.9427	4.02794	76.0573	-5.48246e-06	-0.000233515	1.04644e-08	-0.000233526	3.77043	60873.4	2.72788	60876.1
3983.6	2.9927	0.882717	3.12017	-16.4338	11.5641	3.77028	-0.0308675	45.2609	3.62252	1	9	0.00518113	0.00166053	0	-0.000190011	-0.000398274	8.11954e-06	-56.0622	0.00488973	0.0027299	0.00405673	-16.491	3.12393	2.99543	0.886774	0.307403	0.0906705	0.320496	16.4338	3622.52	12281.5	12804.6	-73.5662	0.0000000E+000	0.0000000E+000	0.0000000E+000	73.5662	0.0000000E+000	0.0000000E+000	0.0000000E+000	-73.5662	0.0000000E+000	0.0000000E+000	0.0000000E+000	-16.4338	0.0000000E+000	0.0000000E+000	0.0000000E+000	16.4338	3.39033	73.5662	-4.95261e-06	-0.000116379	1.22937e-08	-0.000116391	3.77068	122144	12.9027	122157
1000.32	3.89915	1.54971	4.19583	-21.6752	15.0428	3.77029	-0.0823981	102.667	14.0054	1	10	0.00507683	0.00120997	0	-0.000247763	-0.000493824	6.56136e-06	28.06	0.00542274	0.00478533	-0.00255084	-21.6188	4.19933	3.90394	1.54716	0.22148	0.0880267	0.238332	21.6752	14005.4	35238.4	37919.6	-68.3248	0.0000000E+000	0.0000000E+000	0.0000000E+000	68.3248	0.0000000E+000	0.0000000E+000	0.0000000E+000	-68.3248	0.0000000E+000	0.0000000E+000	0.0000000E+000	-21.6752	0.0000000E+000	0.0000000E+000	0.0000000E+000	21.6752	2.51606	68.3248	-7.40079e-06	-0.000310665	4.06901e-08	-0.000310705	3.77078	45757	5.99315	45763
251.044	5.89308	2.38265	6.35653	-22.0141	17.744	3.77027	-0.0610056	266.079	37.3843	1	10	0.00482252	0.000758672	0	-0.000289104	-0.000111625	7.43684e-06	-3.57168	0.00980244	0.0097834	0.000610664	-21.9862	6.36583	5.90287	2.38326	0.145849	0.0589685	0.157319	22.0141	37384.3	92464	99735.5	-67.9859	0.0000000E+000	0.0000000E+000	0.0000000E+000	67.9859	0.0000000E+000	0.0000000E+000	0.0000000E+000	-67.9859	0.0000000E+000	0.0000000E+000	0.0000000E+000	-22.0141	0.0000000E+000	0.0000000E+000	0.0000000E+000	22.0141	2.47333	67.9859	-6.70689e-06	-0.000230007	6.80973e-09	-0.000230014	3.77038	61802	1.82975	61803.9
63.0823	8.30423	1.767	8.49014	-12.0124	20.4649	3.77027	-0.0535377	1427.83	61.8471	1	10	0.00475681	0.000560274	0	-0.000329348	0.000213245	8.16405e-06	-139.805	0.0145715	-0.0111305	0.00940435	-12.0902	8.48122	8.2931	1.7764	0.115205	0.0245136	0.117784	12.0124	61847.1	290658	297165	-77.9876	0.0000000E+000	0.0000000E+000	0.0000000E+000	77.9876	0.0000000E+000	0.0000000E+000	0.0000000E+000	-77.9876	0.0000000E+000	0.0000000E+000	0.0000000E+000	-12.0124	0.0000000E+000	0.0000000E+000	0.0000000E+000	12.0124	4.69962	77.9876	-7.11959e-06	-0.000201852	-1.14166e-08	-0.000201841	3.77006	70422.7	3.98307	70418.7
15.8576	9.47141	0.80178	9.50528	-4.83871	23.123	3.77026	-0.0699431	12517.8	89.0653	1	10	0.00475588	0.000500341	0	-0.000372551	-0.000207174	2.14504e-05	-66.9562	0.0428717	0.0167814	0.0394508	-5.06665	9.52541	9.48819	0.841231	0.10483	0.00887412	0.105205	4.83871	89065.3	1.05213e+06	1.05589e+06	-85.1613	0.0000000E+000	0.0000000E+000	0.0000000E+000	85.1613	0.0000000E+000	0.0000000E+000	0.0000000E+000	-85.1613	0.0000000E+000	0.0000000E+000	0.0000000E+000	-4.83871	0.0000000E+000	0.0000000E+000	0.0000000E+000	4.83871	11.813	85.1613	-7.07584e-06	-0.000263704	1.44904e-08	-0.000263718	3.77047	53904.8	2.96204	53907.7
3.97785	9.46076	0.36007	9.4676	-2.17959	26.2813	3.77029	-0.0461537	111118	160.723	1	11	0.00474452	0.000501132	0	-0.000415782	-9.25148e-05	4.77486e-06	35.5383	0.00952815	0.00775332	-0.00553821	-2.14434	9.47514	9.46851	0.354532	0.105547	0.00401704	0.105623	2.17959	160723	4.22296e+06	4.22602e+06	-87.8204	0.0000000E+000	0.0000000E+000	0.0000000E+000	87.8204	0.0000000E+000	0.0000000E+000	0.0000000E+000	-87.8204	0.0000000E+000	0.0000000E+000	0.0000000E+000	-2.17959	0.0000000E+000	0.0000000E+000	0.0000000E+000	2.17959	26.2748	87.8204	-8.474e-06	-0.000174013	4.2699e-09	-0.000174017	3.77038	81689.9	2.00449	81691.9
1.00469	9.73393	0.451356	9.74439	-2.65487	241.095	3.77026	-0.0479633	350968	753.003	1	11	0.00506382	0.000519665	0	-0.00550202	0.000117695	3.76168e-07	-3.00217	0.000723865	0.000722872	3.79115e-05	-2.65489	9.74511	9.73465	0.451394	0.102513	0.00475346	0.102623	2.65487	753004	1.62392e+07	1.62567e+07	-87.3451	0.0000000E+000	0.0000000E+000	0.0000000E+000	87.3451	0.0000000E+000	0.0000000E+000	0.0000000E+000	-87.3451	0.0000000E+000	0.0000000E+000	0.0000000E+000	-2.65487	0.0000000E+000	0.0000000E+000	0.0000000E+000	2.65487	21.566	87.3451	-0.00502407	-0.000180834	-5.64503e-09	-0.000180829	3.77014	78607.2	2.45385	78604.7
0.251173	10.1102	0.791145	10.1411	-4.47441	241.096	3.77026	-0.0479633	800922	4874.54	1	11	0.00509249	0.000502164	0	-0.00550202	0.000117695	7.21432e-07	-17.5973	0.00143665	0.00136942	0.000434334	-4.47625	10.1425	10.1116	0.791579	0.0983082	0.00769284	0.0986087	4.47441	4.87454e+06	6.22926e+07	6.2483e+07	-85.5256	0.0000000E+000	0.0000000E+000	0.0000000E+000	85.5256	0.0000000E+000	0.0000000E+000	0.0000000E+000	-85.5256	0.0000000E+000	0.0000000E+000	0.0000000E+000	-4.47441	0.0000000E+000	0.0000000E+000	0.0000000E+000	4.47441	12.7792	85.5256	0.000000000000000E+000	-0.000180834	-5.64503e-09	-0.000180829	3.77014	78607.2	2.45385	78604.7
0.0602816	10.7585	1.67489	10.8881	-8.84882	241.098	3.77026	-0.0479633	1.57634e+06	37300.9	1	11	0.00508364	0.0004669	0	-0.00550202	0.000117695	7.05106e-07	0.659781	0.00151019	0.00151008	-1.73899e-05	-8.84751	10.8895	10.76	1.67487	0.0907506	0.0141281	0.0918438	8.84882	3.73009e+07	2.39599e+08	2.42485e+08	-81.1512	0.0000000E+000	0.0000000E+000	0.0000000E+000	81.1512	0.0000000E+000	0.0000000E+000	0.0000000E+000	-81.1512	0.0000000E+000	0.0000000E+000	0.0000000E+000	-8.84882	0.0000000E+000	0.0000000E+000	0.0000000E+000	8.84882	6.4234	81.1512	0.000000000000000E+000	-0.000180834	-5.64503e-09	-0.000180829	3.77014	78607.2	2.45385	78604.7
0.00796479	14.858	4.06757	15.4047	-15.3103	20330	3.77026	0.00661127	4.9126e+06	342509	1	11	0.00507589	0.000329502	0	0.00739748	-0.000321834	5.00798e-07	-13.4877	0.00151986	0.00147795	0.000354488	-15.3101	15.4063	14.8595	4.06792	0.0626112	0.0171406	0.0649151	15.3103	3.42509e+08	1.25112e+09	1.29715e+09	-74.6897	0.0000000E+000	0.0000000E+000	0.0000000E+000	74.6897	0.0000000E+000	0.0000000E+000	0.0000000E+000	-74.6897	0.0000000E+000	0.0000000E+000	0.0000000E+000	-15.3103	0.0000000E+000	0.0000000E+000	0.0000000E+000	15.3103	3.65281	74.6897	0.0128995	2.49262e-05	-2.12773e-09	2.49284e-05	3.77058	570278	48.6796	570327
0.0019912	18.5564	5.18748	19.2679	-15.6184	20330	3.77026	0.00661127	1.54081e+07	1.11685e+06	1	11	0.0050893	0.000264134	0	0.00739748	-0.000321834	6.78849e-07	12.1635	0.00257009	0.00251239	-0.000541524	-15.6149	19.2701	18.5589	5.18694	0.0499835	0.013973	0.0518999	15.6184	1.11685e+09	3.99515e+09	4.14832e+09	-74.3816	0.0000000E+000	0.0000000E+000	0.0000000E+000	74.3816	0.0000000E+000	0.0000000E+000	0.0000000E+000	-74.3816	0.0000000E+000	0.0000000E+000	0.0000000E+000	-15.6184	0.0000000E+000	0.0000000E+000	0.0000000E+000	15.6184	3.57716	74.3816	0.000000000000000E+000	2.49262e-05	-2.12773e-09	2.49284e-05	3.77058	570278	48.6796	570327
0.000497799	20.5351	7.92058	22.0097	-21.0921	20330	3.77026	0.00661127	4.03654e+07	5.22752e+06	1	11	0.00509102	0.000231308	0	0.00739748	-0.000321834	1.44814e-06	-50.1283	0.00626064	0.00401351	0.00480493	-21.1	22.0151	20.5391	7.92539	0.0423906	0.0163505	0.0454346	21.0921	5.22752e+09	1.3553e+10	1.45262e+10	-68.9079	0.0000000E+000	0.0000000E+000	0.0000000E+000	68.9079	0.0000000E+000	0.0000000E+000	0.0000000E+000	-68.9079	0.0000000E+000	0.0000000E+000	0.0000000E+000	-21.0921	0.0000000E+000	0.0000000E+000	0.0000000E+000	21.0921	2.59262	68.9079	0.000000000000000E+000	2.49262e-05	-2.12773e-09	2.49284e-05	3.77058	570278	48.6796	570327
9.95598e-05	24.9606	36.8574	44.5141	-55.8934	20330	3.77026	0.00661127	4.33721e+07	2.97349e+07	1	11	0.00508713	0.000114281	0	0.00739748	-0.000321834	3.54864e-06	3.91859	0.0310518	0.0309792	-0.00212205	-55.8589	44.5297	24.9915	36.8553	0.0125968	0.0186008	0.0224648	55.8934	2.97349e+10	2.01371e+10	3.59119e+10	-34.1066	0.0000000E+000	0.0000000E+000	0.0000000E+000	34.1066	0.0000000E+000	0.0000000E+000	0.0000000E+000	-34.1066	0.0000000E+000	0.0000000E+000	0.0000000E+000	-55.8934	0.0000000E+000	0.0000000E+000	0.0000000E+000	55.8934	0.677219	34.1066	0.000000000000000E+000	2.49262e-05	-2.12773e-09	2.49284e-05	3.77058	570278	48.6796	570327