File: txt/17606_R291_UC84_SOC50_C03.mpt
EC-Lab ASCII FILE
Nb header lines : 64

Potentio Electrochemical Impedance Spectroscopy

Run on channel : 3 (SN 65921)
User :
CE vs. WE compliance from -10 V to 10 V
Electrode connection : standard
Potential control : Ewe
Ewe ctrl range : min = -10.00 V, max = 10.00 V
Safety Limits :
	Do not start on E overload
Acquisition started on : 09/17/2025 17:33:26.756
Loaded Setting File :  C:\Users\Celltest\OneDrive - store-dot.com\Documents\EC-Lab\Data\Michael\UC74_NCMA_16706_EIS_50_SOC.mps
Saved on :
	File : 17606_R291_UC84_SOC50_C03.mpr
	Directory : C:\Users\Celltest\OneDrive - store-dot.com\Documents\EC-Lab\Data\Gyutae\
	Host : 169.254.61.224
Device : VMP-3e (SN .003165)
Address : USB
EC-LAB for windows v11.62 (software)
Internet server v27.00 (firmware)
Command interpretor v12.03 (firmware)
Electrode material :
Initial state :
Electrolyte :
Comments :
Electrode surface area : 0.001 cm²
Characteristic mass : 0.001 g
Equivalent Weight : 0.000 g/eq.
Density : 0.000 g/cm3
Volume (V) : 0.001 cm³
Record Ece
Cycle Definition : Charge/Discharge alternance
Mode                Multi sine
E (V)               0.0000
vs.                 Eoc
tE (h:m:s)          0:00:0.0000
record              0
dI                  0.000
unit dI             mA
dt (s)              0.000
fi                  1.000
unit fi             MHz
ff                  0.100
unit ff             mHz
Nd                  10
Points              per decade
spacing             Logarithmic
Va (mV)             5.0
pw                  0.10
Na                  2
corr                0
E range min (V)     -10.000
E range max (V)     10.000
I Range             Auto
Bandwidth           5
nc cycles           0
goto Ns'            0
nr cycles           0
inc. cycle          0

freq/Hz	Re(Z)/Ohm	-Im(Z)/Ohm	|Z|/Ohm	Phase(Z)/deg	time/s	<Ewe>/V	<I>/mA	Cs/µF	Cp/µF	cycle number	I Range	|Ewe|/V	|I|/A	Ns	(Q-Qo)/mA.h	<Ece>/V	|Ece|/V	Phase(Zce)/deg	|Zce|/Ohm	Re(Zce)/Ohm	-Im(Zce)/Ohm	Phase(Zwe-ce)/deg	|Zwe-ce|/Ohm	Re(Zwe-ce)/Ohm	-Im(Zwe-ce)/Ohm	Re(Y)/Ohm-1	Im(Y)/Ohm-1	|Y|/Ohm-1	Phase(Y)/deg	Re(C)/nF	Im(C)/nF	|C|/nF	Phase(C)/deg	Re(M)	Im(M)	|M|	Phase(M)/deg	Re(Permittivity)	Im(Permittivity)	|Permittivity|	Phase(Permittivity)/deg	Re(Resistivity)/Ohm.cm	Im(Resistivity)/Ohm.cm	|Resistivity|/Ohm.cm	Phase(Resistivity)/deg	Re(Conductivity)/mS/cm	Im(Conductivity)/mS/cm	|Conductivity|/mS/cm	Phase(Conductivity)/deg	Tan(Delta)	Loss Angle(Delta)/deg	dq/mA.h	Pwe/W	Pce/W	Pwe-ce/W	<Ewe-Ece>/V	Rwe/Ohm	Rce/Ohm	Rwe-ce/Ohm		Ewe-Ece/V
1.00002e+06	2.11997	2.6844	3.42056	-51.7006	2.23352	3.78211	0.0122562	0.0592878	0.0365144	1	10	0.000232404	6.79431e-05	0	-1.09142e-05	5.92533e-05	0.000194849	-68.1327	2.86782	1.06815	2.66148	-59.1895	6.22434	3.18811	5.34588	0.18119	0.229431	0.29235	51.7006	36.5144	28.8367	46.528	-38.2994	0.0000000E+000	0.0000000E+000	0.0000000E+000	38.2994	0.0000000E+000	0.0000000E+000	0.0000000E+000	-38.2994	0.0000000E+000	0.0000000E+000	0.0000000E+000	-51.7006	0.0000000E+000	0.0000000E+000	0.0000000E+000	51.7006	0.789736	38.2994	-1.09142e-05	4.63542e-05	7.2622e-10	4.63535e-05	3.78205	308587	4.83456	308583
251206	1.19982	0.264962	1.22873	-12.453	4.93852	3.78173	0.0144635	2.39115	0.111188	1	9	0.00312038	0.00253951	0	1.89834e-07	1.97113e-06	4.73102e-05	92.3062	0.0186297	-0.000749648	-0.0186146	-11.6097	1.22412	1.19907	0.246347	0.7947	0.175497	0.813847	12.453	111.188	503.492	515.623	-77.547	0.0000000E+000	0.0000000E+000	0.0000000E+000	77.547	0.0000000E+000	0.0000000E+000	0.0000000E+000	-77.547	0.0000000E+000	0.0000000E+000	0.0000000E+000	-12.453	0.0000000E+000	0.0000000E+000	0.0000000E+000	12.453	4.52829	77.547	5.53758e-07	5.46971e-05	2.85094e-11	5.46971e-05	3.78173	261467	0.136283	261467
63093.8	1.57464	0.339206	1.61076	-12.1568	7.23856	3.78169	0.0173351	7.43652	0.32979	1	9	0.00531788	0.00330148	0	2.8588e-05	-9.34992e-05	2.07824e-05	95.6503	0.00629487	-0.000619768	-0.00626428	-11.9434	1.60884	1.57402	0.332942	0.606904	0.130739	0.620826	12.1568	329.79	1530.92	1566.04	-77.8432	0.0000000E+000	0.0000000E+000	0.0000000E+000	77.8432	0.0000000E+000	0.0000000E+000	0.0000000E+000	-77.8432	0.0000000E+000	0.0000000E+000	0.0000000E+000	-12.1568	0.0000000E+000	0.0000000E+000	0.0000000E+000	12.1568	4.64212	77.8432	2.005e-06	6.55561e-05	-1.62082e-09	6.55577e-05	3.78178	218152	5.39363	218157
15847.7	1.84366	0.419035	1.89068	-12.8049	9.53853	3.78169	0.0222206	23.9665	1.17725	1	9	0.00514608	0.00272181	0	5.11643e-05	-0.000131687	7.36596e-05	101.015	0.0270627	-0.00517095	-0.0265641	-12.0503	1.87992	1.83849	0.392471	0.515756	0.117223	0.52891	12.8049	1177.25	5179.63	5311.73	-77.1951	0.0000000E+000	0.0000000E+000	0.0000000E+000	77.1951	0.0000000E+000	0.0000000E+000	0.0000000E+000	-77.1951	0.0000000E+000	0.0000000E+000	0.0000000E+000	-12.8049	0.0000000E+000	0.0000000E+000	0.0000000E+000	12.8049	4.39978	77.1951	2.85466e-06	8.40314e-05	-2.92617e-09	8.40343e-05	3.78183	170189	5.92637	170195
3983.6	2.22154	0.646001	2.31356	-16.2139	11.389	3.7816	0.00271602	61.8459	4.82188	1	9	0.0052929	0.00228777	0	6.05392e-05	4.01593e-05	6.27265e-06	-110.323	0.00274181	-0.000952265	0.00257113	-16.2816	2.31336	2.22059	0.648572	0.415043	0.12069	0.432235	16.2139	4821.88	16582	17268.9	-73.7861	0.0000000E+000	0.0000000E+000	0.0000000E+000	73.7861	0.0000000E+000	0.0000000E+000	0.0000000E+000	-73.7861	0.0000000E+000	0.0000000E+000	0.0000000E+000	-16.2139	0.0000000E+000	0.0000000E+000	0.0000000E+000	16.2139	3.43891	73.7861	1.64381e-06	1.02709e-05	1.09073e-10	1.02708e-05	3.78156	1.39233e+06	14.7861	1.39232e+06
1000.32	2.9371	1.13983	3.15052	-21.2102	14.0178	3.78164	0.0193862	139.586	18.2707	1	9	0.00516732	0.00164015	0	7.37374e-05	0.00032657	6.98165e-06	105.521	0.00425671	-0.00113909	-0.00410147	-21.1481	3.14798	2.93596	1.13572	0.295907	0.114835	0.317408	21.2102	18270.7	47079.9	50500.9	-68.7898	0.0000000E+000	0.0000000E+000	0.0000000E+000	68.7898	0.0000000E+000	0.0000000E+000	0.0000000E+000	-68.7898	0.0000000E+000	0.0000000E+000	0.0000000E+000	-21.2102	0.0000000E+000	0.0000000E+000	0.0000000E+000	21.2102	2.5768	68.7898	2.85381e-06	7.33118e-05	6.33096e-09	7.33054e-05	3.78132	195069	16.8455	195052
251.044	4.36547	1.52866	4.62537	-19.2987	16.9641	3.78166	-0.0290971	414.725	45.2987	1	10	0.00512254	0.00110749	0	5.28774e-05	-0.000131687	6.63674e-06	25.2962	0.00599261	0.00541798	-0.00256063	-19.2467	4.62964	4.37088	1.5261	0.20405	0.0714523	0.216199	19.2987	45298.7	129362	137064	-70.7013	0.0000000E+000	0.0000000E+000	0.0000000E+000	70.7013	0.0000000E+000	0.0000000E+000	0.0000000E+000	-70.7013	0.0000000E+000	0.0000000E+000	0.0000000E+000	-19.2987	0.0000000E+000	0.0000000E+000	0.0000000E+000	19.2987	2.85575	70.7013	-4.38252e-06	-0.000110035	3.83172e-09	-0.000110039	3.7818	129967	4.52579	129972
63.0823	5.74903	0.975211	5.83116	-9.62746	19.6839	3.78167	-0.0264086	2587.11	72.3605	1	10	0.00510453	0.000875388	0	3.00846e-05	-5.53111e-05	7.50201e-06	-88.6536	0.00856993	0.000201373	0.00856756	-9.7101	5.8328	5.74923	0.983778	0.169077	0.0286806	0.171492	9.62746	72360.4	426577	432671	-80.3725	0.0000000E+000	0.0000000E+000	0.0000000E+000	80.3725	0.0000000E+000	0.0000000E+000	0.0000000E+000	-80.3725	0.0000000E+000	0.0000000E+000	0.0000000E+000	-9.62746	0.0000000E+000	0.0000000E+000	0.0000000E+000	9.62746	5.89517	80.3725	-2.99796e-06	-9.98686e-05	1.46069e-09	-9.987e-05	3.78173	143199	2.09444	143201
15.8576	6.18588	0.428149	6.20068	-3.95935	22.342	3.78163	-0.0340602	23441.6	111.763	1	10	0.00508354	0.000819836	0	2.42994e-06	-5.53111e-05	5.84988e-05	-6.14466	0.0713543	0.0709444	0.00763771	-3.98421	6.27198	6.25683	0.435787	0.160888	0.0111357	0.161273	3.95935	111763	1.61475e+06	1.61862e+06	-86.0406	0.0000000E+000	0.0000000E+000	0.0000000E+000	86.0406	0.0000000E+000	0.0000000E+000	0.0000000E+000	-86.0406	0.0000000E+000	0.0000000E+000	0.0000000E+000	-3.95935	0.0000000E+000	0.0000000E+000	0.0000000E+000	3.95935	14.448	86.0406	-7.41923e-06	-0.000128803	1.88391e-09	-0.000128805	3.78168	111028	1.62392	111029
3.97785	6.3609	0.273891	6.36679	-2.46555	25.2553	3.78167	-0.0231216	146081	270.338	1	10	0.00509739	0.000800621	0	-1.60405e-05	-0.000169875	4.30195e-06	65.7178	0.00537327	0.00220966	-0.0048979	-2.42067	6.36879	6.36311	0.268993	0.15692	0.00675672	0.157065	2.46555	270338	6.27839e+06	6.28421e+06	-87.5345	0.0000000E+000	0.0000000E+000	0.0000000E+000	87.5345	0.0000000E+000	0.0000000E+000	0.0000000E+000	-87.5345	0.0000000E+000	0.0000000E+000	0.0000000E+000	-2.46555	0.0000000E+000	0.0000000E+000	0.0000000E+000	2.46555	23.2242	87.5345	-8.36769e-06	-8.74381e-05	3.92779e-09	-8.74421e-05	3.78184	163556	7.34706	163563
1.00469	6.55603	0.328795	6.56427	-2.87106	240.511	3.78168	-0.0130729	481794	1208.75	1	11	0.00503837	0.000767544	0	-0.00363816	-7.44051e-05	8.02312e-07	8.99455	0.0010453	0.00103244	-0.000163422	-2.86919	6.5653	6.55707	0.328631	0.152149	0.00763048	0.15234	2.87106	1.20875e+06	2.41021e+07	2.41324e+07	-87.1289	0.0000000E+000	0.0000000E+000	0.0000000E+000	87.1289	0.0000000E+000	0.0000000E+000	0.0000000E+000	-87.1289	0.0000000E+000	0.0000000E+000	0.0000000E+000	-2.87106	0.0000000E+000	0.0000000E+000	0.0000000E+000	2.87106	19.9396	87.1289	-0.00359013	-4.94375e-05	9.7269e-10	-4.94384e-05	3.78175	289276	5.69156	289282
0.251173	6.82707	0.64309	6.85729	-5.38122	240.516	3.78168	-0.0130729	985314	8665.9	1	11	0.00506669	0.000738877	0	-0.00363816	-7.44051e-05	8.50578e-07	-12.6123	0.00115118	0.0011234	0.000251362	-5.38243	6.85843	6.82819	0.643341	0.145188	0.0136762	0.14583	5.38122	8.66589e+06	9.19975e+07	9.24047e+07	-84.6188	0.0000000E+000	0.0000000E+000	0.0000000E+000	84.6188	0.0000000E+000	0.0000000E+000	0.0000000E+000	-84.6188	0.0000000E+000	0.0000000E+000	0.0000000E+000	-5.38122	0.0000000E+000	0.0000000E+000	0.0000000E+000	5.38122	10.616	84.6188	0.000000000000000E+000	-4.94375e-05	9.7269e-10	-4.94384e-05	3.78175	289276	5.69156	289282
0.0602816	7.39382	1.34097	7.51444	-10.2797	240.522	3.78168	-0.0130729	1.96886e+06	62699.3	1	11	0.00505893	0.000673229	0	-0.00363816	-7.44051e-05	5.51674e-07	10.6872	0.000819445	0.000805231	-0.000151964	-10.2774	7.5152	7.39463	1.34082	0.130941	0.023748	0.133077	10.2797	6.26993e+07	3.45709e+08	3.51349e+08	-79.7203	0.0000000E+000	0.0000000E+000	0.0000000E+000	79.7203	0.0000000E+000	0.0000000E+000	0.0000000E+000	-79.7203	0.0000000E+000	0.0000000E+000	0.0000000E+000	-10.2797	0.0000000E+000	0.0000000E+000	0.0000000E+000	10.2797	5.51377	79.7203	0.000000000000000E+000	-4.94375e-05	9.7269e-10	-4.94384e-05	3.78175	289276	5.69156	289282
0.00796479	11.3955	3.40072	11.8921	-16.6166	20329.3	3.78173	0.00102116	5.8759e+06	480508	1	11	0.00505283	0.00042489	0	-0.0107058	0.00013563	4.1591e-07	-165.559	0.000978865	-0.000947939	0.000244107	-16.619	11.8913	11.3945	3.40097	0.0805779	0.0240467	0.0840895	16.6166	4.80508e+08	1.61013e+09	1.6803e+09	-73.3835	0.0000000E+000	0.0000000E+000	0.0000000E+000	73.3835	0.0000000E+000	0.0000000E+000	0.0000000E+000	-73.3835	0.0000000E+000	0.0000000E+000	0.0000000E+000	-16.6166	0.0000000E+000	0.0000000E+000	0.0000000E+000	16.6166	3.3509	73.3835	-0.00706763	3.86176e-06	1.385e-10	3.86162e-06	3.7816	3.70336e+06	132.819	3.70323e+06
0.0019912	14.4449	4.49258	15.1274	-17.2765	20329.4	3.78173	0.00102116	1.77914e+07	1.56918e+06	1	11	0.00506514	0.000334832	0	-0.0107058	0.00013563	6.86363e-07	-40.143	0.00204987	0.001567	0.00132155	-17.2795	15.1293	14.4464	4.4939	0.0631228	0.0196322	0.0661053	17.2765	1.56918e+09	5.04536e+09	5.28375e+09	-72.7235	0.0000000E+000	0.0000000E+000	0.0000000E+000	72.7235	0.0000000E+000	0.0000000E+000	0.0000000E+000	-72.7235	0.0000000E+000	0.0000000E+000	0.0000000E+000	-17.2765	0.0000000E+000	0.0000000E+000	0.0000000E+000	17.2765	3.21528	72.7235	0.000000000000000E+000	3.86176e-06	1.385e-10	3.86162e-06	3.7816	3.70336e+06	132.819	3.70323e+06
0.000497799	15.9436	7.86618	17.7785	-26.2606	20329.4	3.78173	0.00102116	4.06445e+07	7.95683e+06	1	11	0.00506573	0.000284936	0	-0.0107058	0.00013563	9.08793e-07	100.241	0.00318946	-0.000567031	-0.00313866	-26.2524	17.7766	15.943	7.86304	0.0504424	0.0248871	0.0562477	26.2606	7.95683e+09	1.61273e+10	1.79834e+10	-63.7394	0.0000000E+000	0.0000000E+000	0.0000000E+000	63.7394	0.0000000E+000	0.0000000E+000	0.0000000E+000	-63.7394	0.0000000E+000	0.0000000E+000	0.0000000E+000	-26.2606	0.0000000E+000	0.0000000E+000	0.0000000E+000	26.2606	2.02685	63.7394	0.000000000000000E+000	3.86176e-06	1.385e-10	3.86162e-06	3.7816	3.70336e+06	132.819	3.70323e+06
9.95598e-05	19.2929	35.7153	40.5931	-61.6228	20329.4	3.78173	0.00102116	4.47591e+07	3.46486e+07	1	11	0.00505141	0.00012444	0	-0.0107058	0.00013563	7.93163e-06	-88.2801	0.0637385	0.00191304	0.0637098	-61.6631	40.6501	19.2948	35.779	0.0117083	0.0216746	0.0246347	61.6228	3.46486e+10	1.87167e+10	3.93807e+10	-28.3772	0.0000000E+000	0.0000000E+000	0.0000000E+000	28.3772	0.0000000E+000	0.0000000E+000	0.0000000E+000	-28.3772	0.0000000E+000	0.0000000E+000	0.0000000E+000	-61.6228	0.0000000E+000	0.0000000E+000	0.0000000E+000	61.6228	0.540185	28.3772	0.000000000000000E+000	3.86176e-06	1.385e-10	3.86162e-06	3.7816	3.70336e+06	132.819	3.70323e+06