File: txt/17609_R291_UC85_SOC50_C05.mpt
EC-Lab ASCII FILE
Nb header lines : 64

Potentio Electrochemical Impedance Spectroscopy

Run on channel : 5 (SN 65912)
User :
CE vs. WE compliance from -10 V to 10 V
Electrode connection : standard
Potential control : Ewe
Ewe ctrl range : min = -10.00 V, max = 10.00 V
Safety Limits :
	Do not start on E overload
Acquisition started on : 09/17/2025 17:34:13.692
Loaded Setting File :  C:\Users\Celltest\OneDrive - store-dot.com\Documents\EC-Lab\Data\Michael\R290\17544_R290_UC82_50SOC.mps
Saved on :
	File : 17609_R291_UC85_SOC50_C05.mpr
	Directory : C:\Users\Celltest\OneDrive - store-dot.com\Documents\EC-Lab\Data\Gyutae\
	Host : 169.254.61.224
Device : VMP-3e (SN .003165)
Address : USB
EC-LAB for windows v11.62 (software)
Internet server v27.00 (firmware)
Command interpretor v12.03 (firmware)
Electrode material :
Initial state :
Electrolyte :
Comments :
Electrode surface area : 0.001 cm²
Characteristic mass : 0.001 g
Equivalent Weight : 0.000 g/eq.
Density : 0.000 g/cm3
Volume (V) : 0.001 cm³
Record Ece
Cycle Definition : Charge/Discharge alternance
Mode                Multi sine
E (V)               0.0000
vs.                 Eoc
tE (h:m:s)          0:00:0.0000
record              0
dI                  0.000
unit dI             mA
dt (s)              0.000
fi                  1.000
unit fi             MHz
ff                  0.100
unit ff             mHz
Nd                  10
Points              per decade
spacing             Logarithmic
Va (mV)             5.0
pw                  0.10
Na                  2
corr                0
E range min (V)     -10.000
E range max (V)     10.000
I Range             Auto
Bandwidth           5
nc cycles           0
goto Ns'            0
nr cycles           0
inc. cycle          0

freq/Hz	Re(Z)/Ohm	-Im(Z)/Ohm	|Z|/Ohm	Phase(Z)/deg	time/s	<Ewe>/V	<I>/mA	Cs/µF	Cp/µF	cycle number	I Range	|Ewe|/V	|I|/A	Ns	(Q-Qo)/mA.h	<Ece>/V	|Ece|/V	Phase(Zce)/deg	|Zce|/Ohm	Re(Zce)/Ohm	-Im(Zce)/Ohm	Phase(Zwe-ce)/deg	|Zwe-ce|/Ohm	Re(Zwe-ce)/Ohm	-Im(Zwe-ce)/Ohm	Re(Y)/Ohm-1	Im(Y)/Ohm-1	|Y|/Ohm-1	Phase(Y)/deg	Re(C)/nF	Im(C)/nF	|C|/nF	Phase(C)/deg	Re(M)	Im(M)	|M|	Phase(M)/deg	Re(Permittivity)	Im(Permittivity)	|Permittivity|	Phase(Permittivity)/deg	Re(Resistivity)/Ohm.cm	Im(Resistivity)/Ohm.cm	|Resistivity|/Ohm.cm	Phase(Resistivity)/deg	Re(Conductivity)/mS/cm	Im(Conductivity)/mS/cm	|Conductivity|/mS/cm	Phase(Conductivity)/deg	Tan(Delta)	Loss Angle(Delta)/deg	dq/mA.h	Pwe/W	Pce/W	Pwe-ce/W	<Ewe-Ece>/V	Rwe/Ohm	Rce/Ohm	Rwe-ce/Ohm		Ewe-Ece/V
1.00002e+06	0.961447	-0.257492	0.99533	14.9929	2.69355	3.78524	0.185321	-0.618086	-0.0413658	1	9	0.000217387	0.000218407	0	2.82963e-05	-0.000192374	0.000186836	5.13703	0.855448	0.852013	-0.0765952	10.4383	1.84398	1.81346	-0.334087	0.97049	-0.259914	1.00469	-14.9929	-41.3658	154.455	159.899	-104.993	0.0000000E+000	0.0000000E+000	0.0000000E+000	104.993	0.0000000E+000	0.0000000E+000	0.0000000E+000	-104.993	0.0000000E+000	0.0000000E+000	0.0000000E+000	14.9929	0.0000000E+000	0.0000000E+000	0.0000000E+000	-14.9929	3.73389	75.0071	2.82963e-05	0.000701483	-3.56509e-08	0.000701519	3.78543	20425.3	1.03806	20426.3
251206	0.87686	0.318565	0.932935	-19.9662	4.99155	3.78364	-0.0448955	1.9888	0.231892	1	9	0.00232682	0.00249409	0	2.19249e-05	-0.000249648	6.3024e-05	90.8263	0.0252694	-0.000364398	-0.0252667	-18.5016	0.924266	0.876495	0.293298	1.00746	0.366012	1.07189	19.9662	231.892	638.289	679.108	-70.0338	0.0000000E+000	0.0000000E+000	0.0000000E+000	70.0338	0.0000000E+000	0.0000000E+000	0.0000000E+000	-70.0338	0.0000000E+000	0.0000000E+000	0.0000000E+000	-19.9662	0.0000000E+000	0.0000000E+000	0.0000000E+000	19.9662	2.75253	70.0338	-7.31325e-06	-0.000169868	1.12081e-08	-0.000169879	3.78389	84276.6	5.56064	84282.1
63093.8	1.4382	0.746785	1.62053	-27.4405	7.28953	3.78339	-0.0574081	3.37783	0.717323	1	9	0.00528076	0.00325866	0	-2.05283e-05	-0.000345104	1.64286e-05	52.1254	0.00504152	0.00309517	-0.00397956	-27.2653	1.62145	1.4413	0.742806	0.547654	0.284368	0.617082	27.4405	717.323	1381.46	1556.6	-62.5595	0.0000000E+000	0.0000000E+000	0.0000000E+000	62.5595	0.0000000E+000	0.0000000E+000	0.0000000E+000	-62.5595	0.0000000E+000	0.0000000E+000	0.0000000E+000	-27.4405	0.0000000E+000	0.0000000E+000	0.0000000E+000	27.4405	1.92586	62.5595	-8.07974e-06	-0.000217197	1.98117e-08	-0.000217217	3.78374	65903.5	6.01142	65909.5
15847.7	2.24812	0.715944	2.35937	-17.6648	9.58755	3.78339	-0.0562909	14.0273	1.29164	1	9	0.00515802	0.00218619	0	-5.80027e-05	9.39943e-05	4.65644e-05	-84.0422	0.0212994	0.00221077	0.0211843	-18.137	2.36798	2.25033	0.737128	0.403858	0.128614	0.423843	17.6648	1291.64	4055.86	4256.56	-72.3352	0.0000000E+000	0.0000000E+000	0.0000000E+000	72.3352	0.0000000E+000	0.0000000E+000	0.0000000E+000	-72.3352	0.0000000E+000	0.0000000E+000	0.0000000E+000	-17.6648	0.0000000E+000	0.0000000E+000	0.0000000E+000	17.6648	3.14008	72.3352	-5.49381e-06	-0.00021297	-5.29102e-09	-0.000212965	3.78329	67211.4	1.6698	67209.7
3983.6	2.73779	0.742349	2.83665	-15.1709	11.682	3.78335	-0.0424377	53.8191	3.68587	1	9	0.00522796	0.001843	0	-9.16101e-05	-5.87355e-05	9.00426e-06	-20.9062	0.00488564	0.004564	0.00174338	-15.1807	2.84151	2.74236	0.744092	0.340243	0.0922563	0.352528	15.1709	3685.87	13593.5	14084.4	-74.8291	0.0000000E+000	0.0000000E+000	0.0000000E+000	74.8291	0.0000000E+000	0.0000000E+000	0.0000000E+000	-74.8291	0.0000000E+000	0.0000000E+000	0.0000000E+000	-15.1709	0.0000000E+000	0.0000000E+000	0.0000000E+000	15.1709	3.68801	74.8291	-2.64109e-06	-0.000160557	2.4926e-09	-0.000160559	3.78341	89150.7	1.38404	89152.1
1000.32	3.4389	1.15855	3.62881	-18.6184	14.5568	3.78336	-0.0488496	137.331	13.998	1	10	0.00527154	0.00145269	0	-0.000129708	0.000151268	5.22046e-06	39.4442	0.00359365	0.00277517	-0.00228314	-18.5702	3.63071	3.44168	1.15626	0.261151	0.0879801	0.275572	18.6184	13998	41550.1	43844.7	-71.3816	0.0000000E+000	0.0000000E+000	0.0000000E+000	71.3816	0.0000000E+000	0.0000000E+000	0.0000000E+000	-71.3816	0.0000000E+000	0.0000000E+000	0.0000000E+000	-18.6184	0.0000000E+000	0.0000000E+000	0.0000000E+000	18.6184	2.96829	71.3816	-7.19226e-06	-0.000184815	-7.38937e-09	-0.000184808	3.78321	77449.2	3.09661	77446.1
251.044	4.89876	1.45737	5.11095	-16.5676	17.2581	3.78337	-0.0476394	435.011	35.3701	1	10	0.00514841	0.00100733	0	-0.000164576	-9.69179e-05	7.70181e-06	139.32	0.00764576	-0.00579829	-0.00498373	-16.5325	5.10397	4.89297	1.45239	0.187535	0.0557913	0.195658	16.5676	35370.1	118892	124042	-73.4324	0.0000000E+000	0.0000000E+000	0.0000000E+000	73.4324	0.0000000E+000	0.0000000E+000	0.0000000E+000	-73.4324	0.0000000E+000	0.0000000E+000	0.0000000E+000	-16.5676	0.0000000E+000	0.0000000E+000	0.0000000E+000	16.5676	3.36137	73.4324	-6.44972e-06	-0.000180238	4.61711e-09	-0.000180242	3.78347	79416.8	2.0344	79418.8
63.0823	6.11874	0.840936	6.17626	-7.82549	19.9789	3.78336	-0.0453235	3000.2	55.6193	1	10	0.00511853	0.000828743	0	-0.000200228	-0.000249648	1.00512e-05	-77.6538	0.0121283	0.00259325	0.0118478	-7.93103	6.18045	6.12133	0.852784	0.160403	0.0220451	0.16191	7.82549	55619.3	404691	408496	-82.1745	0.0000000E+000	0.0000000E+000	0.0000000E+000	82.1745	0.0000000E+000	0.0000000E+000	0.0000000E+000	-82.1745	0.0000000E+000	0.0000000E+000	0.0000000E+000	-7.82549	0.0000000E+000	0.0000000E+000	0.0000000E+000	7.82549	7.2761	82.1745	-5.33527e-06	-0.000171475	1.13149e-08	-0.000171487	3.78361	83474.7	5.50813	83480.2
15.8576	6.46821	0.345087	6.47741	-3.05391	22.6371	3.78331	-0.0471405	29084	82.5486	1	10	0.00511327	0.000789401	0	-0.000237878	5.58118e-05	1.0832e-05	-39.1793	0.0137218	0.0106367	0.00866874	-3.12534	6.4885	6.47884	0.353756	0.154164	0.00822483	0.154383	3.05391	82548.7	1.54727e+06	1.54947e+06	-86.9461	0.0000000E+000	0.0000000E+000	0.0000000E+000	86.9461	0.0000000E+000	0.0000000E+000	0.0000000E+000	-86.9461	0.0000000E+000	0.0000000E+000	0.0000000E+000	-3.05391	0.0000000E+000	0.0000000E+000	0.0000000E+000	3.05391	18.7437	86.9461	-8.21914e-06	-0.000178347	-2.631e-09	-0.000178345	3.78326	80256.1	1.18395	80254.9
3.97785	6.59769	0.221656	6.60142	-1.92418	25.5503	3.78337	-0.0405706	180506	203.506	1	10	0.00511918	0.000775467	0	-0.000276014	-9.69179e-05	4.97144e-06	109.419	0.0064109	-0.00213142	-0.00604621	-1.87234	6.59909	6.59556	0.215609	0.151397	0.00508633	0.151483	1.92418	203505	6.05745e+06	6.06086e+06	-88.0758	0.0000000E+000	0.0000000E+000	0.0000000E+000	88.0758	0.0000000E+000	0.0000000E+000	0.0000000E+000	-88.0758	0.0000000E+000	0.0000000E+000	0.0000000E+000	-1.92418	0.0000000E+000	0.0000000E+000	0.0000000E+000	1.92418	29.7655	88.0758	-1.44803e-05	-0.000153493	3.93201e-09	-0.000153497	3.78347	93254.1	2.38887	93256.5
1.00469	6.76817	0.286994	6.77425	-2.42808	240.806	3.78337	-0.0232863	551968	990.687	1	11	0.00507523	0.000749194	0	-0.00458764	0.000265815	6.56482e-07	-4.07227	0.00087625	0.000874038	6.22267e-05	-2.4283	6.77512	6.76904	0.287056	0.147485	0.00625389	0.147618	2.42808	990687	2.33634e+07	2.33844e+07	-87.5719	0.0000000E+000	0.0000000E+000	0.0000000E+000	87.5719	0.0000000E+000	0.0000000E+000	0.0000000E+000	-87.5719	0.0000000E+000	0.0000000E+000	0.0000000E+000	-2.42808	0.0000000E+000	0.0000000E+000	0.0000000E+000	2.42808	23.583	87.5719	-0.00424416	-8.81005e-05	-6.18984e-09	-8.80943e-05	3.7831	162472	11.4151	162461
0.251173	7.01807	0.597848	7.04349	-4.8691	240.808	3.78337	-0.0232863	1.05988e+06	7635.93	1	11	0.00510488	0.000724766	0	-0.00458764	0.000265815	8.79922e-07	-4.69087	0.00121408	0.00121001	9.92869e-05	-4.86907	7.0447	7.01928	0.597948	0.141463	0.0120508	0.141975	4.8691	7.63594e+06	8.96373e+07	8.99619e+07	-85.1309	0.0000000E+000	0.0000000E+000	0.0000000E+000	85.1309	0.0000000E+000	0.0000000E+000	0.0000000E+000	-85.1309	0.0000000E+000	0.0000000E+000	0.0000000E+000	-4.8691	0.0000000E+000	0.0000000E+000	0.0000000E+000	4.8691	11.7389	85.1309	0.000000000000000E+000	-8.81005e-05	-6.18984e-09	-8.80943e-05	3.7831	162472	11.4151	162461
0.0602816	7.59596	1.205	7.69094	-9.01412	240.81	3.78337	-0.0232863	2.19103e+06	53785.3	1	11	0.00509469	0.000662428	0	-0.00458764	0.000265815	4.55745e-07	5.98944	0.000687992	0.000684236	-7.17886e-05	-9.0128	7.69161	7.59664	1.20493	0.128417	0.0203717	0.130023	9.01412	5.37853e+07	3.39046e+08	3.43286e+08	-80.9859	0.0000000E+000	0.0000000E+000	0.0000000E+000	80.9859	0.0000000E+000	0.0000000E+000	0.0000000E+000	-80.9859	0.0000000E+000	0.0000000E+000	0.0000000E+000	-9.01412	0.0000000E+000	0.0000000E+000	0.0000000E+000	9.01412	6.30369	80.9859	0.000000000000000E+000	-8.81005e-05	-6.18984e-09	-8.80943e-05	3.7831	162472	11.4151	162461
0.00796479	10.7179	2.45308	10.9951	-12.8916	20329.7	3.78337	0.000393688	8.1458e+06	405473	1	11	0.00508764	0.000462719	0	-0.0285945	-3.96442e-05	2.16619e-07	-118.022	0.000468144	-0.00021994	0.000413262	-12.894	10.995	10.7177	2.4535	0.0886573	0.0202916	0.0909498	12.8916	4.05473e+08	1.77158e+09	1.81739e+09	-77.1084	0.0000000E+000	0.0000000E+000	0.0000000E+000	77.1084	0.0000000E+000	0.0000000E+000	0.0000000E+000	-77.1084	0.0000000E+000	0.0000000E+000	0.0000000E+000	-12.8916	0.0000000E+000	0.0000000E+000	0.0000000E+000	12.8916	4.36917	77.1084	-0.0240069	1.48947e-06	-1.56075e-11	1.48948e-06	3.78341	9.61006e+06	100.7	9.61016e+06
0.0019912	12.6028	3.33259	13.0359	-14.8119	20329.7	3.78337	0.000393688	2.39842e+07	1.56748e+06	1	11	0.00510074	0.000391283	0	-0.0285945	-3.96442e-05	7.87398e-07	-31.0895	0.00201235	0.0017233	0.00103913	-14.8143	13.0379	12.6045	3.33363	0.0741619	0.0196108	0.076711	14.8119	1.56748e+09	5.92771e+09	6.13146e+09	-75.1881	0.0000000E+000	0.0000000E+000	0.0000000E+000	75.1881	0.0000000E+000	0.0000000E+000	0.0000000E+000	-75.1881	0.0000000E+000	0.0000000E+000	0.0000000E+000	-14.8119	0.0000000E+000	0.0000000E+000	0.0000000E+000	14.8119	3.78168	75.1881	0.000000000000000E+000	1.48947e-06	-1.56075e-11	1.48948e-06	3.78341	9.61006e+06	100.7	9.61016e+06
0.000497799	13.1486	7.26629	15.0228	-28.9263	20329.7	3.78337	0.000393688	4.40001e+07	1.02939e+07	1	11	0.00510029	0.000339504	0	-0.0285945	-3.96442e-05	4.75996e-07	53.9725	0.00140203	0.000824639	-0.00113387	-28.921	15.0229	13.1494	7.26515	0.058261	0.0321968	0.0665656	28.9263	1.02939e+10	1.86271e+10	2.12822e+10	-61.0737	0.0000000E+000	0.0000000E+000	0.0000000E+000	61.0737	0.0000000E+000	0.0000000E+000	0.0000000E+000	-61.0737	0.0000000E+000	0.0000000E+000	0.0000000E+000	-28.9263	0.0000000E+000	0.0000000E+000	0.0000000E+000	28.9263	1.80953	61.0737	0.000000000000000E+000	1.48947e-06	-1.56075e-11	1.48948e-06	3.78341	9.61006e+06	100.7	9.61016e+06
9.95598e-05	15.8528	36.6879	39.9664	-66.6308	20329.7	3.78337	0.000393688	4.35725e+07	3.67171e+07	1	11	0.00510066	0.000127624	0	-0.0285945	-3.96442e-05	6.22236e-07	79.9347	0.00487555	0.000852098	-0.00480051	-66.627	39.9624	15.8537	36.6831	0.00992468	0.0229685	0.025021	66.6308	3.67171e+10	1.58654e+10	3.99982e+10	-23.3692	0.0000000E+000	0.0000000E+000	0.0000000E+000	23.3692	0.0000000E+000	0.0000000E+000	0.0000000E+000	-23.3692	0.0000000E+000	0.0000000E+000	0.0000000E+000	-66.6308	0.0000000E+000	0.0000000E+000	0.0000000E+000	66.6308	0.4321	23.3692	0.000000000000000E+000	1.48947e-06	-1.56075e-11	1.48948e-06	3.78341	9.61006e+06	100.7	9.61016e+06