File: txt/17612_R291_UC85_SOC50_C07.mpt
EC-Lab ASCII FILE
Nb header lines : 64

Potentio Electrochemical Impedance Spectroscopy

Run on channel : 7 (SN 66126)
User :
CE vs. WE compliance from -10 V to 10 V
Electrode connection : standard
Potential control : Ewe
Ewe ctrl range : min = -10.00 V, max = 10.00 V
Safety Limits :
	Do not start on E overload
Acquisition started on : 09/17/2025 17:34:55.865
Loaded Setting File :  C:\Users\Celltest\OneDrive - store-dot.com\Documents\EC-Lab\Data\Michael\R290\17544_R290_UC82_50SOC.mps
Saved on :
	File : 17612_R291_UC85_SOC50_C07.mpr
	Directory : C:\Users\Celltest\OneDrive - store-dot.com\Documents\EC-Lab\Data\Gyutae\
	Host : 169.254.61.224
Device : VMP-3e (SN .003165)
Address : USB
EC-LAB for windows v11.62 (software)
Internet server v27.00 (firmware)
Command interpretor v12.03 (firmware)
Electrode material :
Initial state :
Electrolyte :
Comments :
Electrode surface area : 0.001 cm²
Characteristic mass : 0.001 g
Equivalent Weight : 0.000 g/eq.
Density : 0.000 g/cm3
Volume (V) : 0.001 cm³
Record Ece
Cycle Definition : Charge/Discharge alternance
Mode                Multi sine
E (V)               0.0000
vs.                 Eoc
tE (h:m:s)          0:00:0.0000
record              0
dI                  0.000
unit dI             mA
dt (s)              0.000
fi                  1.000
unit fi             MHz
ff                  0.100
unit ff             mHz
Nd                  10
Points              per decade
spacing             Logarithmic
Va (mV)             5.0
pw                  0.10
Na                  2
corr                0
E range min (V)     -10.000
E range max (V)     10.000
I Range             Auto
Bandwidth           5
nc cycles           0
goto Ns'            0
nr cycles           0
inc. cycle          0

freq/Hz	Re(Z)/Ohm	-Im(Z)/Ohm	|Z|/Ohm	Phase(Z)/deg	time/s	<Ewe>/V	<I>/mA	Cs/µF	Cp/µF	cycle number	I Range	|Ewe|/V	|I|/A	Ns	(Q-Qo)/mA.h	<Ece>/V	|Ece|/V	Phase(Zce)/deg	|Zce|/Ohm	Re(Zce)/Ohm	-Im(Zce)/Ohm	Phase(Zwe-ce)/deg	|Zwe-ce|/Ohm	Re(Zwe-ce)/Ohm	-Im(Zwe-ce)/Ohm	Re(Y)/Ohm-1	Im(Y)/Ohm-1	|Y|/Ohm-1	Phase(Y)/deg	Re(C)/nF	Im(C)/nF	|C|/nF	Phase(C)/deg	Re(M)	Im(M)	|M|	Phase(M)/deg	Re(Permittivity)	Im(Permittivity)	|Permittivity|	Phase(Permittivity)/deg	Re(Resistivity)/Ohm.cm	Im(Resistivity)/Ohm.cm	|Resistivity|/Ohm.cm	Phase(Resistivity)/deg	Re(Conductivity)/mS/cm	Im(Conductivity)/mS/cm	|Conductivity|/mS/cm	Phase(Conductivity)/deg	Tan(Delta)	Loss Angle(Delta)/deg	dq/mA.h	Pwe/W	Pce/W	Pwe-ce/W	<Ewe-Ece>/V	Rwe/Ohm	Rce/Ohm	Rwe-ce/Ohm		Ewe-Ece/V
1.00002e+06	2.5696	2.8939	3.87008	-48.397	2.23356	3.78294	-0.0709215	0.0549956	0.0307508	1	10	0.000229095	5.91965e-05	0	-3.00662e-05	-0.000441049	0.000197885	-63.0465	3.34285	1.5152	2.97973	-55.1834	7.15438	4.0848	5.87363	0.171564	0.193217	0.258393	48.397	30.7508	27.3047	41.1237	-41.603	0.0000000E+000	0.0000000E+000	0.0000000E+000	41.603	0.0000000E+000	0.0000000E+000	0.0000000E+000	-41.603	0.0000000E+000	0.0000000E+000	0.0000000E+000	-48.397	0.0000000E+000	0.0000000E+000	0.0000000E+000	48.397	0.887934	41.603	-3.00662e-05	-0.000268292	3.12799e-08	-0.000268323	3.78338	53339.8	6.21883	53346
251206	1.32599	0.356286	1.37303	-15.0398	4.93754	3.78308	0.0191467	1.77824	0.119738	1	9	0.0033475	0.00243805	0	-2.9699e-05	-0.000326596	4.89069e-05	101.308	0.0200599	-0.00393332	-0.0196704	-14.2848	1.36424	1.32206	0.336616	0.70337	0.188991	0.728318	15.0398	119.738	445.629	461.435	-74.9602	0.0000000E+000	0.0000000E+000	0.0000000E+000	74.9602	0.0000000E+000	0.0000000E+000	0.0000000E+000	-74.9602	0.0000000E+000	0.0000000E+000	0.0000000E+000	-15.0398	0.0000000E+000	0.0000000E+000	0.0000000E+000	15.0398	3.72171	74.9602	1.98917e-06	7.24334e-05	-6.25323e-09	7.24396e-05	3.78341	197584	17.0576	197601
63093.8	1.94743	0.694081	2.06742	-19.6165	7.23552	3.78316	0.0326261	3.63432	0.409623	1	9	0.005466	0.00264387	0	-3.63693e-05	-0.00026937	2.45767e-05	73.4585	0.00929573	0.00264659	-0.00891102	-19.3592	2.06695	1.95008	0.68517	0.455621	0.162387	0.483694	19.6165	409.623	1149.31	1220.12	-70.3835	0.0000000E+000	0.0000000E+000	0.0000000E+000	70.3835	0.0000000E+000	0.0000000E+000	0.0000000E+000	-70.3835	0.0000000E+000	0.0000000E+000	0.0000000E+000	-19.6165	0.0000000E+000	0.0000000E+000	0.0000000E+000	19.6165	2.80577	70.3835	1.8829e-06	0.00012343	-8.7885e-09	0.000123439	3.78343	115955	8.25627	115963
15847.7	2.57779	0.649443	2.65834	-14.1407	9.40953	3.78317	0.0366848	15.4637	0.922942	1	9	0.00490782	0.0018462	0	-1.64749e-05	-0.000250295	7.68182e-05	34.7891	0.0416089	0.0341717	-0.0237403	-13.4715	2.68586	2.61196	0.625703	0.364776	0.0919009	0.376175	14.1407	922.942	3663.37	3777.84	-75.8593	0.0000000E+000	0.0000000E+000	0.0000000E+000	75.8593	0.0000000E+000	0.0000000E+000	0.0000000E+000	-75.8593	0.0000000E+000	0.0000000E+000	0.0000000E+000	-14.1407	0.0000000E+000	0.0000000E+000	0.0000000E+000	14.1407	3.96923	75.8593	4.06563e-06	0.000138785	-9.18201e-09	0.000138794	3.78342	103126	6.82284	103133
3983.6	3.09032	0.791584	3.1901	-14.3674	11.1341	3.78289	-0.0495539	50.4716	3.10766	1	9	0.00469872	0.00147291	0	-5.65335e-06	-0.000193068	1.12448e-05	3.30218	0.00763442	0.00762174	-0.000439758	-14.3258	3.19737	3.09795	0.791144	0.303666	0.0777839	0.31347	14.3674	3107.66	12132.2	12523.9	-75.6326	0.0000000E+000	0.0000000E+000	0.0000000E+000	75.6326	0.0000000E+000	0.0000000E+000	0.0000000E+000	-75.6326	0.0000000E+000	0.0000000E+000	0.0000000E+000	-14.3674	0.0000000E+000	0.0000000E+000	0.0000000E+000	14.3674	3.90398	75.6326	-3.96865e-06	-0.000187457	9.56729e-09	-0.000187467	3.78308	76338.9	3.89612	76342.8
1000.32	3.89675	1.27529	4.10012	-18.1218	14.0069	3.78308	-0.032726	124.759	12.0697	1	10	0.00467951	0.00114131	0	-1.05535e-05	-0.000231219	5.80424e-06	-69.5328	0.00508559	0.00177828	0.00476455	-18.1773	4.1033	3.89853	1.28006	0.231797	0.0758606	0.243895	18.1218	12069.7	36879.9	38804.7	-71.8782	0.0000000E+000	0.0000000E+000	0.0000000E+000	71.8782	0.0000000E+000	0.0000000E+000	0.0000000E+000	-71.8782	0.0000000E+000	0.0000000E+000	0.0000000E+000	-18.1218	0.0000000E+000	0.0000000E+000	0.0000000E+000	18.1218	3.05557	71.8782	-4.00621e-06	-0.000123805	7.56688e-09	-0.000123813	3.78331	115599	7.0653	115606
251.044	5.47447	1.69278	5.73021	-17.1823	16.708	3.78307	-0.0324543	374.515	32.6836	1	10	0.00461446	0.000805286	0	-3.56133e-05	-0.000173993	1.01222e-05	3.10843	0.0125697	0.0125512	-0.000681598	-17.1388	5.742	5.48702	1.6921	0.166725	0.0515537	0.174514	17.1823	32683.6	105699	110637	-72.8177	0.0000000E+000	0.0000000E+000	0.0000000E+000	72.8177	0.0000000E+000	0.0000000E+000	0.0000000E+000	-72.8177	0.0000000E+000	0.0000000E+000	0.0000000E+000	-17.1823	0.0000000E+000	0.0000000E+000	0.0000000E+000	17.1823	3.23401	72.8177	-4.0905e-06	-0.000122777	5.64681e-09	-0.000122782	3.78325	116566	5.36117	116572
63.0823	7.01426	1.07737	7.09652	-8.73219	19.429	3.78309	-0.0275439	2341.8	53.9741	1	10	0.00460861	0.000649419	0	-5.97068e-05	-0.000154917	4.8922e-06	41.8725	0.0075332	0.00560946	-0.00502823	-8.68522	7.1013	7.01987	1.07234	0.139281	0.021393	0.140914	8.73219	53974.1	351402	355523	-81.2678	0.0000000E+000	0.0000000E+000	0.0000000E+000	81.2678	0.0000000E+000	0.0000000E+000	0.0000000E+000	-81.2678	0.0000000E+000	0.0000000E+000	0.0000000E+000	-8.73219	0.0000000E+000	0.0000000E+000	0.0000000E+000	8.73219	6.51057	81.2678	-3.30501e-06	-0.000104201	4.26704e-09	-0.000104205	3.78324	137347	5.62437	137353
15.8576	7.50918	0.462242	7.52339	-3.52251	22.0871	3.78305	-0.0359462	21712.7	81.9644	1	10	0.00460246	0.000611754	0	-7.81087e-05	-0.000173993	2.91685e-05	33.1441	0.0476801	0.0399225	-0.0260689	-3.30677	7.56169	7.5491	0.436173	0.132668	0.00816662	0.132919	3.52251	81964.4	1.33152e+06	1.33404e+06	-86.4775	0.0000000E+000	0.0000000E+000	0.0000000E+000	86.4775	0.0000000E+000	0.0000000E+000	0.0000000E+000	-86.4775	0.0000000E+000	0.0000000E+000	0.0000000E+000	-3.52251	0.0000000E+000	0.0000000E+000	0.0000000E+000	3.52251	16.2451	86.4775	-2.06808e-06	-0.000135986	6.25438e-09	-0.000135993	3.78323	105242	4.84037	105247
3.97785	7.69478	0.290622	7.70026	-2.16296	25.0003	3.78312	-0.0281154	137671	196.105	1	10	0.0046077	0.000598382	0	-0.000108261	-9.76912e-05	4.10062e-06	-12.4587	0.00685285	0.00669148	0.00147841	-2.17207	7.707	7.70147	0.2921	0.129773	0.00490137	0.129866	2.16296	196105	5.19226e+06	5.19596e+06	-87.837	0.0000000E+000	0.0000000E+000	0.0000000E+000	87.837	0.0000000E+000	0.0000000E+000	0.0000000E+000	-87.837	0.0000000E+000	0.0000000E+000	0.0000000E+000	-2.16296	0.0000000E+000	0.0000000E+000	0.0000000E+000	2.16296	26.4769	87.837	-7.04026e-06	-0.000106364	2.74663e-09	-0.000106367	3.78321	134557	3.47465	134560
1.00469	7.91885	0.357619	7.92692	-2.58575	240.175	3.78308	-0.0117707	442961	901.568	1	11	0.00505791	0.000638068	0	-0.00328117	3.58368e-05	6.13341e-07	3.48298	0.000961247	0.000959471	-5.83977e-05	-2.58501	7.92787	7.91981	0.357561	0.126024	0.00569131	0.126152	2.58575	901567	1.99636e+07	1.9984e+07	-87.4143	0.0000000E+000	0.0000000E+000	0.0000000E+000	87.4143	0.0000000E+000	0.0000000E+000	0.0000000E+000	-87.4143	0.0000000E+000	0.0000000E+000	0.0000000E+000	-2.58575	0.0000000E+000	0.0000000E+000	0.0000000E+000	2.58575	22.1432	87.4143	-0.00312124	-4.45294e-05	-4.21823e-10	-4.4529e-05	3.78305	321399	3.04458	321396
0.251173	8.21342	0.7043	8.24356	-4.90112	240.18	3.78308	-0.0117707	899682	6567.11	1	11	0.00508818	0.000617231	0	-0.00328117	3.58368e-05	5.40692e-07	-32.8688	0.000875995	0.000735762	0.000475417	-4.90397	8.24433	8.21416	0.704775	0.120863	0.010364	0.121307	4.90112	6.56711e+06	7.65845e+07	7.68655e+07	-85.0989	0.0000000E+000	0.0000000E+000	0.0000000E+000	85.0989	0.0000000E+000	0.0000000E+000	0.0000000E+000	-85.0989	0.0000000E+000	0.0000000E+000	0.0000000E+000	-4.90112	0.0000000E+000	0.0000000E+000	0.0000000E+000	4.90112	11.6618	85.0989	0.000000000000000E+000	-4.45294e-05	-4.21823e-10	-4.4529e-05	3.78305	321399	3.04458	321396
0.0602816	8.84198	1.48642	8.96605	-9.54271	240.184	3.78308	-0.0117707	1.77621e+06	48817.3	1	11	0.0050764	0.00056618	0	-0.00328117	3.58368e-05	4.48051e-07	84.1352	0.000791358	8.0862e-05	-0.000787216	-9.53767	8.966	8.84206	1.48563	0.109988	0.0184901	0.111532	9.54271	4.88173e+07	2.9039e+08	2.94465e+08	-80.4573	0.0000000E+000	0.0000000E+000	0.0000000E+000	80.4573	0.0000000E+000	0.0000000E+000	0.0000000E+000	-80.4573	0.0000000E+000	0.0000000E+000	0.0000000E+000	-9.54271	0.0000000E+000	0.0000000E+000	0.0000000E+000	9.54271	5.94852	80.4573	0.000000000000000E+000	-4.45294e-05	-4.21823e-10	-4.4529e-05	3.78305	321399	3.04458	321396
0.00796479	13.5295	3.82521	14.0599	-15.7873	20329.1	3.78308	0.000540594	5.22385e+06	386669	1	11	0.00507164	0.000360717	0	-0.00722516	-0.000212144	3.76259e-07	-40.0186	0.00104309	0.000798833	0.000670742	-15.789	14.0608	13.5303	3.82588	0.0684416	0.0193506	0.0711245	15.7873	3.86669e+08	1.36762e+09	1.42123e+09	-74.2127	0.0000000E+000	0.0000000E+000	0.0000000E+000	74.2127	0.0000000E+000	0.0000000E+000	0.0000000E+000	-74.2127	0.0000000E+000	0.0000000E+000	0.0000000E+000	-15.7873	0.0000000E+000	0.0000000E+000	0.0000000E+000	15.7873	3.53693	74.2127	-0.00394399	2.04511e-06	-1.14684e-10	2.04523e-06	3.7833	6.99802e+06	392.427	6.99841e+06
0.0019912	17.0259	4.98203	17.7399	-16.3102	20329.1	3.78308	0.000540594	1.60435e+07	1.26535e+06	1	11	0.00508318	0.00028654	0	-0.00722516	-0.000212144	1.46479e-06	67.849	0.005112	0.00192747	-0.0047347	-16.2938	17.7404	17.0279	4.97729	0.0541016	0.0158309	0.0563702	16.3102	1.26535e+09	4.3243e+09	4.50563e+09	-73.6898	0.0000000E+000	0.0000000E+000	0.0000000E+000	73.6898	0.0000000E+000	0.0000000E+000	0.0000000E+000	-73.6898	0.0000000E+000	0.0000000E+000	0.0000000E+000	-16.3102	0.0000000E+000	0.0000000E+000	0.0000000E+000	16.3102	3.41747	73.6898	0.000000000000000E+000	2.04511e-06	-1.14684e-10	2.04523e-06	3.7833	6.99802e+06	392.427	6.99841e+06
0.000497799	19.0288	8.28753	20.7552	-23.5344	20329.1	3.78308	0.000540594	3.85781e+07	6.15088e+06	1	11	0.00508123	0.000244817	0	-0.00722516	-0.000212144	2.21852e-06	-80.0485	0.00906194	0.00156604	0.0089256	-23.5552	20.7602	19.0304	8.29645	0.0441731	0.0192385	0.0481807	23.5344	6.15088e+09	1.41229e+10	1.54042e+10	-66.4656	0.0000000E+000	0.0000000E+000	0.0000000E+000	66.4656	0.0000000E+000	0.0000000E+000	0.0000000E+000	-66.4656	0.0000000E+000	0.0000000E+000	0.0000000E+000	-23.5344	0.0000000E+000	0.0000000E+000	0.0000000E+000	23.5344	2.29608	66.4656	0.000000000000000E+000	2.04511e-06	-1.14684e-10	2.04523e-06	3.7833	6.99802e+06	392.427	6.99841e+06
9.95598e-05	22.5338	36.1969	42.6379	-58.0963	20329.1	3.78308	0.000540594	4.41636e+07	3.18285e+07	1	11	0.00508765	0.000119322	0	-0.00722516	-0.000212144	4.95815e-06	27.4618	0.0415527	0.0368704	-0.0191623	-58.0406	42.6412	22.5707	36.1778	0.0123949	0.0199104	0.0234533	58.0963	3.18285e+10	1.98143e+10	3.74921e+10	-31.9037	0.0000000E+000	0.0000000E+000	0.0000000E+000	31.9037	0.0000000E+000	0.0000000E+000	0.0000000E+000	-31.9037	0.0000000E+000	0.0000000E+000	0.0000000E+000	-58.0963	0.0000000E+000	0.0000000E+000	0.0000000E+000	58.0963	0.622535	31.9037	0.000000000000000E+000	2.04511e-06	-1.14684e-10	2.04523e-06	3.7833	6.99802e+06	392.427	6.99841e+06