File: txt/17611_R291_UC85_SOC50_C06.mpt
EC-Lab ASCII FILE
Nb header lines : 64

Potentio Electrochemical Impedance Spectroscopy

Run on channel : 6 (SN 65795)
User :
CE vs. WE compliance from -10 V to 10 V
Electrode connection : standard
Potential control : Ewe
Ewe ctrl range : min = -10.00 V, max = 10.00 V
Safety Limits :
	Do not start on E overload
Acquisition started on : 09/17/2025 17:34:42.000
Loaded Setting File :  C:\Users\Celltest\OneDrive - store-dot.com\Documents\EC-Lab\Data\Michael\R290\17544_R290_UC82_50SOC.mps
Saved on :
	File : 17611_R291_UC85_SOC50_C06.mpr
	Directory : C:\Users\Celltest\OneDrive - store-dot.com\Documents\EC-Lab\Data\Gyutae\
	Host : 169.254.61.224
Device : VMP-3e (SN .003165)
Address : USB
EC-LAB for windows v11.62 (software)
Internet server v27.00 (firmware)
Command interpretor v12.03 (firmware)
Electrode material :
Initial state :
Electrolyte :
Comments :
Electrode surface area : 0.001 cm²
Characteristic mass : 0.001 g
Equivalent Weight : 0.000 g/eq.
Density : 0.000 g/cm3
Volume (V) : 0.001 cm³
Record Ece
Cycle Definition : Charge/Discharge alternance
Mode                Multi sine
E (V)               0.0000
vs.                 Eoc
tE (h:m:s)          0:00:0.0000
record              0
dI                  0.000
unit dI             mA
dt (s)              0.000
fi                  1.000
unit fi             MHz
ff                  0.100
unit ff             mHz
Nd                  10
Points              per decade
spacing             Logarithmic
Va (mV)             5.0
pw                  0.10
Na                  2
corr                0
E range min (V)     -10.000
E range max (V)     10.000
I Range             Auto
Bandwidth           5
nc cycles           0
goto Ns'            0
nr cycles           0
inc. cycle          0

freq/Hz	Re(Z)/Ohm	-Im(Z)/Ohm	|Z|/Ohm	Phase(Z)/deg	time/s	<Ewe>/V	<I>/mA	Cs/µF	Cp/µF	cycle number	I Range	|Ewe|/V	|I|/A	Ns	(Q-Qo)/mA.h	<Ece>/V	|Ece|/V	Phase(Zce)/deg	|Zce|/Ohm	Re(Zce)/Ohm	-Im(Zce)/Ohm	Phase(Zwe-ce)/deg	|Zwe-ce|/Ohm	Re(Zwe-ce)/Ohm	-Im(Zwe-ce)/Ohm	Re(Y)/Ohm-1	Im(Y)/Ohm-1	|Y|/Ohm-1	Phase(Y)/deg	Re(C)/nF	Im(C)/nF	|C|/nF	Phase(C)/deg	Re(M)	Im(M)	|M|	Phase(M)/deg	Re(Permittivity)	Im(Permittivity)	|Permittivity|	Phase(Permittivity)/deg	Re(Resistivity)/Ohm.cm	Im(Resistivity)/Ohm.cm	|Resistivity|/Ohm.cm	Phase(Resistivity)/deg	Re(Conductivity)/mS/cm	Im(Conductivity)/mS/cm	|Conductivity|/mS/cm	Phase(Conductivity)/deg	Tan(Delta)	Loss Angle(Delta)/deg	dq/mA.h	Pwe/W	Pce/W	Pwe-ce/W	<Ewe-Ece>/V	Rwe/Ohm	Rce/Ohm	Rwe-ce/Ohm		Ewe-Ece/V
1.00002e+06	2.08073	2.91343	3.58015	-54.4661	2.23453	3.78299	0.00188122	0.054627	0.0361754	1	10	0.000213024	5.95013e-05	0	-1.07753e-05	-3.85071e-05	0.000197402	-61.5861	3.31761	1.57864	2.91795	-57.8905	6.88447	3.65937	5.83138	0.162335	0.227301	0.279318	54.4661	36.1754	25.8359	44.454	-35.5339	0.0000000E+000	0.0000000E+000	0.0000000E+000	35.5339	0.0000000E+000	0.0000000E+000	0.0000000E+000	-35.5339	0.0000000E+000	0.0000000E+000	0.0000000E+000	-54.4661	0.0000000E+000	0.0000000E+000	0.0000000E+000	54.4661	0.714185	35.5339	-1.07753e-05	7.11665e-06	-7.24403e-11	7.11672e-06	3.78303	2.01092e+06	20.4692	2.01094e+06
251206	1.20088	0.325014	1.24408	-15.1441	4.93652	3.78281	0.0304264	1.94934	0.133044	1	9	0.00295924	0.00237866	0	1.08932e-05	1.87871e-05	6.99055e-05	68.5839	0.0293887	0.0107309	-0.0273595	-13.8025	1.24763	1.21161	0.297654	0.775892	0.209993	0.803807	15.1441	133.044	491.576	509.262	-74.8559	0.0000000E+000	0.0000000E+000	0.0000000E+000	74.8559	0.0000000E+000	0.0000000E+000	0.0000000E+000	-74.8559	0.0000000E+000	0.0000000E+000	0.0000000E+000	-15.1441	0.0000000E+000	0.0000000E+000	0.0000000E+000	15.1441	3.69484	74.8559	2.19938e-06	0.000115097	5.71622e-10	0.000115096	3.78279	124327	0.61746	124326
63093.8	1.77316	0.574661	1.86396	-17.9569	7.11052	3.78268	0.0275209	4.38957	0.417227	1	9	0.00537701	0.00288473	0	-2.42976e-07	0.000267062	2.39892e-05	70.5699	0.00831593	0.00276634	-0.00784232	-17.7014	1.86419	1.77593	0.566818	0.510359	0.165401	0.536493	17.9569	417.227	1287.39	1353.31	-72.0431	0.0000000E+000	0.0000000E+000	0.0000000E+000	72.0431	0.0000000E+000	0.0000000E+000	0.0000000E+000	-72.0431	0.0000000E+000	0.0000000E+000	0.0000000E+000	-17.9569	0.0000000E+000	0.0000000E+000	0.0000000E+000	17.9569	3.08558	72.0431	-2.24818e-06	0.000104103	7.34977e-09	0.000104095	3.78241	137448	9.70395	137438
15847.7	2.27498	0.546567	2.33971	-13.5094	9.29054	3.78269	0.0325496	18.3743	1.0027	1	9	0.00543095	0.0023212	0	3.13057e-06	0.000247963	5.69526e-05	-30.5233	0.0245358	0.0211357	0.0124614	-13.6834	2.36319	2.29611	0.559029	0.415577	0.0998431	0.427403	13.5094	1002.7	4173.56	4292.32	-76.4906	0.0000000E+000	0.0000000E+000	0.0000000E+000	76.4906	0.0000000E+000	0.0000000E+000	0.0000000E+000	-76.4906	0.0000000E+000	0.0000000E+000	0.0000000E+000	-13.5094	0.0000000E+000	0.0000000E+000	0.0000000E+000	13.5094	4.1623	76.4906	7.34317e-07	0.000123125	8.07112e-09	0.000123117	3.78244	116213	7.61802	116205
3983.6	2.69684	0.682667	2.7819	-14.2052	11.015	3.78253	-0.00142235	58.5242	3.52428	1	9	0.00519631	0.0018679	0	1.45309e-05	-0.000229487	5.36854e-06	-32.2503	0.0028741	0.0024307	0.00153367	-14.2236	2.78463	2.69927	0.684201	0.348475	0.0882117	0.359467	14.2052	3524.28	13922.5	14361.6	-75.7948	0.0000000E+000	0.0000000E+000	0.0000000E+000	75.7948	0.0000000E+000	0.0000000E+000	0.0000000E+000	-75.7948	0.0000000E+000	0.0000000E+000	0.0000000E+000	-14.2052	0.0000000E+000	0.0000000E+000	0.0000000E+000	14.2052	3.95044	75.7948	1.70115e-06	-5.38007e-06	3.26411e-10	-5.3804e-06	3.78276	2.65935e+06	161.344	2.65951e+06
1000.32	3.39398	1.12289	3.57491	-18.3067	13.8888	3.78264	-0.0304839	141.691	13.9794	1	10	0.00516043	0.00144351	0	2.97787e-05	0.000152473	3.05998e-06	-29.1122	0.00211982	0.00185202	0.00103134	-18.3131	3.577	3.39583	1.12392	0.26557	0.0878632	0.279727	18.3067	13979.4	42253.2	44505.7	-71.6933	0.0000000E+000	0.0000000E+000	0.0000000E+000	71.6933	0.0000000E+000	0.0000000E+000	0.0000000E+000	-71.6933	0.0000000E+000	0.0000000E+000	0.0000000E+000	-18.3067	0.0000000E+000	0.0000000E+000	0.0000000E+000	18.3067	3.02254	71.6933	-2.39039e-06	-0.00011531	-4.64798e-09	-0.000115305	3.78248	124086	5.00177	124081
251.044	4.8115	1.4639	5.02927	-16.9224	16.59	3.78262	-0.0312628	433.07	36.692	1	10	0.0050783	0.00100975	0	5.98333e-06	-0.000133997	7.13474e-06	-61.7973	0.00706585	0.00333926	0.006227	-16.9791	5.03428	4.81484	1.47013	0.190226	0.0578764	0.198836	16.9224	36692	120598	126056	-73.0776	0.0000000E+000	0.0000000E+000	0.0000000E+000	73.0776	0.0000000E+000	0.0000000E+000	0.0000000E+000	-73.0776	0.0000000E+000	0.0000000E+000	0.0000000E+000	-16.9224	0.0000000E+000	0.0000000E+000	0.0000000E+000	16.9224	3.28677	73.0776	-3.15495e-06	-0.000118255	4.18912e-09	-0.000118259	3.78275	120994	4.28616	120999
63.0823	6.09571	0.900057	6.1618	-8.39927	19.3089	3.78263	-0.0280579	2803.13	59.8091	1	10	0.00505724	0.00082074	0	-1.49234e-05	0.000228865	1.25194e-05	13.6129	0.0152538	0.0148253	-0.00359016	-8.34623	6.17595	6.11054	0.896467	0.16055	0.0237058	0.16229	8.39927	59809.2	405062	409454	-81.6007	0.0000000E+000	0.0000000E+000	0.0000000E+000	81.6007	0.0000000E+000	0.0000000E+000	0.0000000E+000	-81.6007	0.0000000E+000	0.0000000E+000	0.0000000E+000	-8.39927	0.0000000E+000	0.0000000E+000	0.0000000E+000	8.39927	6.77258	81.6007	-3.73036e-06	-0.000106133	-6.42149e-09	-0.000106126	3.7824	134815	8.15689	134807
15.8576	6.48942	0.362106	6.49952	-3.19376	21.967	3.78265	-0.0296044	27717.1	86.0314	1	10	0.00504735	0.000776573	0	-2.99677e-05	0.000190669	2.36074e-05	-120.531	0.0303994	-0.0154431	0.0261846	-3.43232	6.48562	6.47398	0.388291	0.153619	0.00857183	0.153858	3.19376	86031.3	1.5418e+06	1.54419e+06	-86.8062	0.0000000E+000	0.0000000E+000	0.0000000E+000	86.8062	0.0000000E+000	0.0000000E+000	0.0000000E+000	-86.8062	0.0000000E+000	0.0000000E+000	0.0000000E+000	-3.19376	0.0000000E+000	0.0000000E+000	0.0000000E+000	3.19376	17.9213	86.8062	-1.51265e-07	-0.000111983	-5.64466e-09	-0.000111978	3.78246	127773	6.44057	127767
3.97785	6.66034	0.246391	6.66489	-2.11862	24.8803	3.78263	-0.0275716	162385	221.927	1	10	0.0050626	0.000759592	0	-5.54358e-05	0.000228865	5.1579e-06	-96.0054	0.00679035	-0.000710417	0.00675309	-2.17686	6.66444	6.65963	0.253144	0.149937	0.00554675	0.15004	2.11862	221927	5.99904e+06	6.00314e+06	-87.8814	0.0000000E+000	0.0000000E+000	0.0000000E+000	87.8814	0.0000000E+000	0.0000000E+000	0.0000000E+000	-87.8814	0.0000000E+000	0.0000000E+000	0.0000000E+000	-2.11862	0.0000000E+000	0.0000000E+000	0.0000000E+000	2.11862	27.0316	87.8814	-6.76842e-07	-0.000104293	-6.31019e-09	-0.000104287	3.7824	137193	8.30077	137185
1.00469	6.83798	0.305213	6.84479	-2.5557	240.136	3.78264	-0.0133674	519019	1031.98	1	11	0.00500506	0.000731222	0	-0.00364625	5.69831e-05	6.39676e-07	-10.7457	0.000874805	0.000859464	0.000163108	-2.55674	6.84565	6.83884	0.305376	0.145951	0.00651453	0.146097	2.5557	1.03198e+06	2.31203e+07	2.31434e+07	-87.4443	0.0000000E+000	0.0000000E+000	0.0000000E+000	87.4443	0.0000000E+000	0.0000000E+000	0.0000000E+000	-87.4443	0.0000000E+000	0.0000000E+000	0.0000000E+000	-2.5557	0.0000000E+000	0.0000000E+000	0.0000000E+000	2.5557	22.404	87.4443	-0.00354303	-5.05641e-05	-7.61715e-10	-5.05633e-05	3.78259	282976	4.26285	282971
0.251173	7.09068	0.616129	7.1174	-4.96611	240.14	3.78264	-0.0133674	1.02843e+06	7706.82	1	11	0.00503255	0.000707078	0	-0.00364625	5.69831e-05	6.26157e-07	-26.1348	0.000885557	0.000795018	0.000390074	-4.96869	7.11822	7.09147	0.616519	0.139973	0.0121627	0.140501	4.96611	7.70682e+06	8.86935e+07	8.90277e+07	-85.0339	0.0000000E+000	0.0000000E+000	0.0000000E+000	85.0339	0.0000000E+000	0.0000000E+000	0.0000000E+000	-85.0339	0.0000000E+000	0.0000000E+000	0.0000000E+000	-4.96611	0.0000000E+000	0.0000000E+000	0.0000000E+000	4.96611	11.5084	85.0339	0.000000000000000E+000	-5.05641e-05	-7.61715e-10	-5.05633e-05	3.78259	282976	4.26285	282971
0.0602816	7.65144	1.28405	7.75844	-9.52651	240.144	3.78264	-0.0133674	2.05614e+06	56320.9	1	11	0.00502472	0.000647646	0	-0.00364625	5.69831e-05	8.26762e-07	6.85343	0.00127656	0.00126744	-0.000152332	-9.52386	7.75966	7.65271	1.2839	0.127114	0.0213321	0.128892	9.52651	5.63209e+07	3.35606e+08	3.40299e+08	-80.4735	0.0000000E+000	0.0000000E+000	0.0000000E+000	80.4735	0.0000000E+000	0.0000000E+000	0.0000000E+000	-80.4735	0.0000000E+000	0.0000000E+000	0.0000000E+000	-9.52651	0.0000000E+000	0.0000000E+000	0.0000000E+000	9.52651	5.95882	80.4735	0.000000000000000E+000	-5.05641e-05	-7.61715e-10	-5.05633e-05	3.78259	282976	4.26285	282971
0.00796479	11.5321	3.24061	11.9787	-15.6958	20329	3.78266	0.00153185	6.16623e+06	451283	1	11	0.005018	0.000418908	0	-0.00640872	-9.58012e-05	2.00674e-07	-80.3023	0.00047904	8.06941e-05	0.000472195	-15.6979	11.979	11.5322	3.24108	0.0803683	0.0225841	0.0834812	15.6958	4.51283e+08	1.60595e+09	1.66815e+09	-74.3042	0.0000000E+000	0.0000000E+000	0.0000000E+000	74.3042	0.0000000E+000	0.0000000E+000	0.0000000E+000	-74.3042	0.0000000E+000	0.0000000E+000	0.0000000E+000	-15.6958	0.0000000E+000	0.0000000E+000	0.0000000E+000	15.6958	3.55862	74.3042	-0.00276247	5.79446e-06	-1.46753e-10	5.79461e-06	3.78276	2.46934e+06	62.5396	2.46941e+06
0.0019912	14.448	4.31505	15.0787	-16.6288	20329	3.78266	0.00153185	1.85234e+07	1.51693e+06	1	11	0.0050306	0.000333624	0	-0.00640872	-9.58012e-05	7.44101e-07	-41.1723	0.00223036	0.00167886	0.0014683	-16.6323	15.0807	14.4497	4.31651	0.0635454	0.0189784	0.0663189	16.6288	1.51693e+09	5.07914e+09	5.30083e+09	-73.3712	0.0000000E+000	0.0000000E+000	0.0000000E+000	73.3712	0.0000000E+000	0.0000000E+000	0.0000000E+000	-73.3712	0.0000000E+000	0.0000000E+000	0.0000000E+000	-16.6288	0.0000000E+000	0.0000000E+000	0.0000000E+000	16.6288	3.34829	73.3712	0.000000000000000E+000	5.79446e-06	-1.46753e-10	5.79461e-06	3.78276	2.46934e+06	62.5396	2.46941e+06
0.000497799	16.0212	7.53763	17.7058	-25.196	20329	3.78266	0.00153185	4.24161e+07	7.68726e+06	1	11	0.00503389	0.000284308	0	-0.00640872	-9.58012e-05	1.2493e-06	87.8512	0.00439419	0.000164757	-0.0043911	-25.1829	17.704	16.0213	7.53324	0.0511052	0.0240439	0.0564788	25.196	7.68726e+09	1.63392e+10	1.80572e+10	-64.804	0.0000000E+000	0.0000000E+000	0.0000000E+000	64.804	0.0000000E+000	0.0000000E+000	0.0000000E+000	-64.804	0.0000000E+000	0.0000000E+000	0.0000000E+000	-25.196	0.0000000E+000	0.0000000E+000	0.0000000E+000	25.196	2.12549	64.804	0.000000000000000E+000	5.79446e-06	-1.46753e-10	5.79461e-06	3.78276	2.46934e+06	62.5396	2.46941e+06
9.95598e-05	19.0894	34.0187	39.0087	-60.7013	20329	3.78266	0.00153185	4.69914e+07	3.57381e+07	1	11	0.00502169	0.000128733	0	-0.00640872	-9.58012e-05	1.1185e-05	-96.4194	0.0868854	-0.00971426	0.0863406	-60.7756	39.0793	19.0797	34.105	0.012545	0.0223561	0.0256353	60.7013	3.57381e+10	2.00542e+10	4.09803e+10	-29.2987	0.0000000E+000	0.0000000E+000	0.0000000E+000	29.2987	0.0000000E+000	0.0000000E+000	0.0000000E+000	-29.2987	0.0000000E+000	0.0000000E+000	0.0000000E+000	-60.7013	0.0000000E+000	0.0000000E+000	0.0000000E+000	60.7013	0.561144	29.2987	0.000000000000000E+000	5.79446e-06	-1.46753e-10	5.79461e-06	3.78276	2.46934e+06	62.5396	2.46941e+06