File: txt/17613_R291_UC85_SOC50_C08.mpt
EC-Lab ASCII FILE
Nb header lines : 64

Potentio Electrochemical Impedance Spectroscopy

Run on channel : 8 (SN 65398)
User :
CE vs. WE compliance from -10 V to 10 V
Electrode connection : standard
Potential control : Ewe
Ewe ctrl range : min = -10.00 V, max = 10.00 V
Safety Limits :
	Do not start on E overload
Acquisition started on : 09/17/2025 17:35:06.760
Loaded Setting File :  C:\Users\Celltest\OneDrive - store-dot.com\Documents\EC-Lab\Data\Michael\R290\17544_R290_UC82_50SOC.mps
Saved on :
	File : 17613_R291_UC85_SOC50_C08.mpr
	Directory : C:\Users\Celltest\OneDrive - store-dot.com\Documents\EC-Lab\Data\Gyutae\
	Host : 169.254.61.224
Device : VMP-3e (SN .003165)
Address : USB
EC-LAB for windows v11.62 (software)
Internet server v27.00 (firmware)
Command interpretor v12.03 (firmware)
Electrode material :
Initial state :
Electrolyte :
Comments :
Electrode surface area : 0.001 cm²
Characteristic mass : 0.001 g
Equivalent Weight : 0.000 g/eq.
Density : 0.000 g/cm3
Volume (V) : 0.001 cm³
Record Ece
Cycle Definition : Charge/Discharge alternance
Mode                Multi sine
E (V)               0.0000
vs.                 Eoc
tE (h:m:s)          0:00:0.0000
record              0
dI                  0.000
unit dI             mA
dt (s)              0.000
fi                  1.000
unit fi             MHz
ff                  0.100
unit ff             mHz
Nd                  10
Points              per decade
spacing             Logarithmic
Va (mV)             5.0
pw                  0.10
Na                  2
corr                0
E range min (V)     -10.000
E range max (V)     10.000
I Range             Auto
Bandwidth           5
nc cycles           0
goto Ns'            0
nr cycles           0
inc. cycle          0

freq/Hz	Re(Z)/Ohm	-Im(Z)/Ohm	|Z|/Ohm	Phase(Z)/deg	time/s	<Ewe>/V	<I>/mA	Cs/µF	Cp/µF	cycle number	I Range	|Ewe|/V	|I|/A	Ns	(Q-Qo)/mA.h	<Ece>/V	|Ece|/V	Phase(Zce)/deg	|Zce|/Ohm	Re(Zce)/Ohm	-Im(Zce)/Ohm	Phase(Zwe-ce)/deg	|Zwe-ce|/Ohm	Re(Zwe-ce)/Ohm	-Im(Zwe-ce)/Ohm	Re(Y)/Ohm-1	Im(Y)/Ohm-1	|Y|/Ohm-1	Phase(Y)/deg	Re(C)/nF	Im(C)/nF	|C|/nF	Phase(C)/deg	Re(M)	Im(M)	|M|	Phase(M)/deg	Re(Permittivity)	Im(Permittivity)	|Permittivity|	Phase(Permittivity)/deg	Re(Resistivity)/Ohm.cm	Im(Resistivity)/Ohm.cm	|Resistivity|/Ohm.cm	Phase(Resistivity)/deg	Re(Conductivity)/mS/cm	Im(Conductivity)/mS/cm	|Conductivity|/mS/cm	Phase(Conductivity)/deg	Tan(Delta)	Loss Angle(Delta)/deg	dq/mA.h	Pwe/W	Pce/W	Pwe-ce/W	<Ewe-Ece>/V	Rwe/Ohm	Rce/Ohm	Rwe-ce/Ohm		Ewe-Ece/V
1.00002e+06	2.49958	2.7224	3.69586	-47.4433	1.77353	3.78386	-0.0619707	0.0584602	0.03172	1	10	0.000249128	6.74074e-05	0	-3.51429e-05	8.26613e-05	0.00019466	-66.5912	2.88782	1.1473	2.65013	-55.8313	6.49336	3.64688	5.37253	0.182994	0.199306	0.270573	47.4433	31.72	29.1239	43.0623	-42.5567	0.0000000E+000	0.0000000E+000	0.0000000E+000	42.5567	0.0000000E+000	0.0000000E+000	0.0000000E+000	-42.5567	0.0000000E+000	0.0000000E+000	0.0000000E+000	-47.4433	0.0000000E+000	0.0000000E+000	0.0000000E+000	47.4433	0.918154	42.5567	-3.51429e-05	-0.000234489	-5.12258e-09	-0.000234483	3.78378	61059	1.33388	61057.6
251206	1.45926	0.310657	1.49196	-12.018	4.47756	3.78343	-0.0818425	2.03943	0.0884205	1	9	0.00405097	0.00271519	0	-9.08409e-05	-8.91312e-05	7.42302e-05	101.903	0.0273388	-0.00563881	-0.026751	-11.0512	1.48109	1.45363	0.283906	0.655566	0.139561	0.670257	12.018	88.4206	415.343	424.65	-77.9819	0.0000000E+000	0.0000000E+000	0.0000000E+000	77.9819	0.0000000E+000	0.0000000E+000	0.0000000E+000	-77.9819	0.0000000E+000	0.0000000E+000	0.0000000E+000	-12.018	0.0000000E+000	0.0000000E+000	0.0000000E+000	12.018	4.69735	77.9819	-5.85126e-06	-0.000309646	7.29472e-09	-0.000309653	3.78352	46228.2	1.08906	46229.3
63093.8	1.94945	0.481529	2.00804	-13.8748	6.77756	3.78341	-0.0492533	5.23855	0.301239	1	9	0.00540231	0.00269034	0	-0.000123276	-1.2779e-05	3.18561e-05	82.3542	0.0118409	0.00157542	-0.0117357	-13.5387	2.00679	1.95102	0.469793	0.483468	0.11942	0.497998	13.8748	301.239	1219.55	1256.21	-76.1252	0.0000000E+000	0.0000000E+000	0.0000000E+000	76.1252	0.0000000E+000	0.0000000E+000	0.0000000E+000	-76.1252	0.0000000E+000	0.0000000E+000	0.0000000E+000	-13.8748	0.0000000E+000	0.0000000E+000	0.0000000E+000	13.8748	4.04846	76.1252	-3.07871e-06	-0.000186346	6.29406e-10	-0.000186346	3.78343	76815.4	0.259454	76815.6
15847.7	2.35485	0.520494	2.41169	-12.4637	8.95755	3.78342	-0.0441195	19.2947	0.898728	1	9	0.00504594	0.00209229	0	-0.00015107	-0.000280012	7.42996e-05	28.4978	0.0355112	0.0312085	-0.0169433	-11.9168	2.43861	2.38606	0.50355	0.404876	0.0894899	0.414648	12.4637	898.729	4066.08	4164.22	-77.5363	0.0000000E+000	0.0000000E+000	0.0000000E+000	77.5363	0.0000000E+000	0.0000000E+000	0.0000000E+000	-77.5363	0.0000000E+000	0.0000000E+000	0.0000000E+000	-12.4637	0.0000000E+000	0.0000000E+000	0.0000000E+000	12.4637	4.52426	77.5363	-4.13549e-06	-0.000166922	1.2354e-08	-0.000166935	3.7837	85754	6.34667	85760.3
3983.6	2.82282	0.764213	2.92444	-15.1484	10.6821	3.78311	-0.12403	52.2793	3.57005	1	9	0.00469655	0.00160597	0	-0.000178754	6.35733e-05	4.14925e-06	-55.3593	0.00258365	0.00146862	0.00212565	-15.181	2.92641	2.82429	0.766339	0.330064	0.0893573	0.341946	15.1484	3570.05	13186.9	13661.6	-74.8516	0.0000000E+000	0.0000000E+000	0.0000000E+000	74.8516	0.0000000E+000	0.0000000E+000	0.0000000E+000	-74.8516	0.0000000E+000	0.0000000E+000	0.0000000E+000	-15.1484	0.0000000E+000	0.0000000E+000	0.0000000E+000	15.1484	3.69376	74.8516	-8.9632e-06	-0.000469219	-7.88498e-09	-0.000469211	3.78305	30501.6	0.512564	30501.1
1000.32	3.63099	1.22627	3.83247	-18.661	13.5559	3.78336	-0.0692469	129.746	13.2834	1	10	0.00468583	0.00122266	0	-0.00020058	-1.2779e-05	8.6545e-06	-39.0859	0.0070784	0.00549427	0.00446282	-18.6979	3.83911	3.63649	1.23073	0.247211	0.0834886	0.260928	18.661	13283.4	39332.2	41514.7	-71.339	0.0000000E+000	0.0000000E+000	0.0000000E+000	71.339	0.0000000E+000	0.0000000E+000	0.0000000E+000	-71.339	0.0000000E+000	0.0000000E+000	0.0000000E+000	-18.661	0.0000000E+000	0.0000000E+000	0.0000000E+000	18.661	2.96101	71.339	-7.48138e-06	-0.000261986	8.84903e-10	-0.000261987	3.78338	54635.9	0.184542	54636.1
251.044	5.1502	1.55557	5.37999	-16.8065	16.257	3.78336	-0.0672604	407.549	34.0719	1	10	0.00462446	0.000859566	0	-0.000250799	0.000407158	1.11678e-05	-21.5473	0.0129924	0.0120844	0.0047717	-16.8179	5.39294	5.16228	1.56034	0.177934	0.0537436	0.185874	16.8065	34071.9	112805	117839	-73.1935	0.0000000E+000	0.0000000E+000	0.0000000E+000	73.1935	0.0000000E+000	0.0000000E+000	0.0000000E+000	-73.1935	0.0000000E+000	0.0000000E+000	0.0000000E+000	-16.8065	0.0000000E+000	0.0000000E+000	0.0000000E+000	16.8065	3.3108	73.1935	-7.58338e-06	-0.00025447	-2.73856e-08	-0.000254443	3.78295	56249.4	6.05346	56243.3
63.0823	6.50011	0.96524	6.57139	-8.44646	18.9779	3.7834	-0.0605087	2613.83	56.394	1	10	0.00460573	0.000700876	0	-0.000297149	-5.09551e-05	6.28675e-06	34.058	0.00896986	0.00743127	-0.0050234	-8.39367	6.57801	6.50755	0.960216	0.150524	0.0223522	0.152175	8.44646	56394	379769	383933	-81.5535	0.0000000E+000	0.0000000E+000	0.0000000E+000	81.5535	0.0000000E+000	0.0000000E+000	0.0000000E+000	-81.5535	0.0000000E+000	0.0000000E+000	0.0000000E+000	-8.44646	0.0000000E+000	0.0000000E+000	0.0000000E+000	8.44646	6.7342	81.5535	-7.98493e-06	-0.000228928	3.08322e-09	-0.000228931	3.78345	62526.5	0.842112	62527.3
15.8576	6.95231	0.426833	6.9654	-3.51323	21.636	3.78339	-0.0670038	23514	88.2976	1	10	0.00461909	0.000663149	0	-0.000340077	0.000139925	1.28486e-05	-34.2167	0.0193751	0.0160216	0.0108951	-3.59441	6.98207	6.96833	0.437728	0.143297	0.00879762	0.143567	3.51323	88297.6	1.4382e+06	1.44091e+06	-86.4868	0.0000000E+000	0.0000000E+000	0.0000000E+000	86.4868	0.0000000E+000	0.0000000E+000	0.0000000E+000	-86.4868	0.0000000E+000	0.0000000E+000	0.0000000E+000	-3.51323	0.0000000E+000	0.0000000E+000	0.0000000E+000	3.51323	16.2881	86.4868	-5.83811e-06	-0.000253502	-9.37553e-09	-0.000253492	3.78325	56465.4	2.08832	56463.3
3.97785	7.12949	0.276212	7.13484	-2.21866	24.5493	3.7834	-0.0630829	144853	217.093	1	10	0.00461196	0.0006464	0	-0.000387266	-5.09551e-05	6.00115e-06	85.1928	0.00928396	0.000778017	-0.0092513	-2.14418	7.13526	7.13026	0.266961	0.140052	0.00542594	0.140157	2.21866	217094	5.60353e+06	5.60774e+06	-87.7813	0.0000000E+000	0.0000000E+000	0.0000000E+000	87.7813	0.0000000E+000	0.0000000E+000	0.0000000E+000	-87.7813	0.0000000E+000	0.0000000E+000	0.0000000E+000	-2.21866	0.0000000E+000	0.0000000E+000	0.0000000E+000	2.21866	25.8116	87.7813	-2.4014e-06	-0.000238668	3.21439e-09	-0.000238671	3.78345	59975	0.807748	59975.8
1.00469	7.32874	0.354799	7.33733	-2.77164	239.726	3.7834	-0.0299262	446482	1043.98	1	11	0.00519834	0.000708479	0	-0.00504052	0.000178102	9.80077e-07	-9.39166	0.00138335	0.00136481	0.000225739	-2.77288	7.3387	7.33011	0.355025	0.13613	0.00659032	0.136289	2.77164	1.04398e+06	2.15645e+07	2.15898e+07	-87.2284	0.0000000E+000	0.0000000E+000	0.0000000E+000	87.2284	0.0000000E+000	0.0000000E+000	0.0000000E+000	-87.2284	0.0000000E+000	0.0000000E+000	0.0000000E+000	-2.77164	0.0000000E+000	0.0000000E+000	0.0000000E+000	2.77164	20.656	87.2284	-0.00457618	-0.000113223	-5.32991e-09	-0.000113218	3.78322	126424	5.95135	126418
0.251173	7.62162	0.721414	7.65569	-5.40714	239.731	3.7834	-0.0299262	878338	7799.42	1	11	0.00522519	0.000682523	0	-0.00504052	0.000178102	1.36529e-06	-4.66459	0.00200036	0.00199374	0.000162674	-5.40695	7.65769	7.62362	0.721577	0.130041	0.0123088	0.130622	5.40714	7.79942e+06	8.23996e+07	8.27679e+07	-84.5929	0.0000000E+000	0.0000000E+000	0.0000000E+000	84.5929	0.0000000E+000	0.0000000E+000	0.0000000E+000	-84.5929	0.0000000E+000	0.0000000E+000	0.0000000E+000	-5.40714	0.0000000E+000	0.0000000E+000	0.0000000E+000	5.40714	10.5648	84.5929	0.000000000000000E+000	-0.000113223	-5.32991e-09	-0.000113218	3.78322	126424	5.95135	126418
0.0602816	8.30088	1.52815	8.44037	-10.4311	239.736	3.7834	-0.0299262	1.7277e+06	56634.1	1	11	0.00521798	0.000618217	0	-0.00504052	0.000178102	9.72522e-07	-20.2145	0.00157311	0.00147621	0.000543566	-10.4329	8.44192	8.30236	1.5287	0.11652	0.0214508	0.118478	10.4311	5.66341e+07	3.07635e+08	3.12805e+08	-79.5689	0.0000000E+000	0.0000000E+000	0.0000000E+000	79.5689	0.0000000E+000	0.0000000E+000	0.0000000E+000	-79.5689	0.0000000E+000	0.0000000E+000	0.0000000E+000	-10.4311	0.0000000E+000	0.0000000E+000	0.0000000E+000	10.4311	5.43198	79.5689	0.000000000000000E+000	-0.000113223	-5.32991e-09	-0.000113218	3.78322	126424	5.95135	126418
0.00796479	12.885	4.02427	13.4988	-17.3448	20328.7	3.7834	0.000736236	4.96545e+06	441309	1	11	0.00521167	0.000386084	0	-0.0162041	-0.000165483	4.89072e-07	-58.1717	0.00126675	0.000668052	0.00107627	-17.3483	13.4998	12.8857	4.02535	0.0707121	0.022085	0.0740807	17.3448	4.41309e+08	1.41299e+09	1.4803e+09	-72.6552	0.0000000E+000	0.0000000E+000	0.0000000E+000	72.6552	0.0000000E+000	0.0000000E+000	0.0000000E+000	-72.6552	0.0000000E+000	0.0000000E+000	0.0000000E+000	-17.3448	0.0000000E+000	0.0000000E+000	0.0000000E+000	17.3448	3.20182	72.6552	-0.0111635	2.78548e-06	-1.21835e-10	2.7856e-06	3.78357	5.13884e+06	224.769	5.13907e+06
0.0019912	16.842	5.59583	17.7473	-18.3793	20328.7	3.7834	0.000736236	1.42837e+07	1.42006e+06	1	11	0.00522657	0.0002945	0	-0.0162041	-0.000165483	1.4676e-06	-82.5408	0.00498337	0.000646945	0.0049412	-18.3938	17.7495	16.8427	5.60077	0.0534724	0.0177664	0.0563466	18.3793	1.42006e+09	4.27401e+09	4.50374e+09	-71.6207	0.0000000E+000	0.0000000E+000	0.0000000E+000	71.6207	0.0000000E+000	0.0000000E+000	0.0000000E+000	-71.6207	0.0000000E+000	0.0000000E+000	0.0000000E+000	-18.3793	0.0000000E+000	0.0000000E+000	0.0000000E+000	18.3793	3.00974	71.6207	0.000000000000000E+000	2.78548e-06	-1.21835e-10	2.7856e-06	3.78357	5.13884e+06	224.769	5.13907e+06
0.000497799	19.7812	8.65139	21.5903	-23.6224	20328.7	3.7834	0.000736236	3.69556e+07	5.93382e+06	1	11	0.00522716	0.000242107	0	-0.0162041	-0.000165483	2.61485e-06	-80.1225	0.0108004	0.00185272	0.0106403	-23.6463	21.5963	19.783	8.66203	0.042436	0.0185596	0.0463171	23.6224	5.93382e+09	1.35675e+10	1.48084e+10	-66.3776	0.0000000E+000	0.0000000E+000	0.0000000E+000	66.3776	0.0000000E+000	0.0000000E+000	0.0000000E+000	-66.3776	0.0000000E+000	0.0000000E+000	0.0000000E+000	-23.6224	0.0000000E+000	0.0000000E+000	0.0000000E+000	23.6224	2.28647	66.3776	0.000000000000000E+000	2.78548e-06	-1.21835e-10	2.7856e-06	3.78357	5.13884e+06	224.769	5.13907e+06
9.95598e-05	24.1194	35.2736	42.7314	-55.6364	20328.7	3.7834	0.000736236	4.53196e+07	3.0881e+07	1	11	0.00522237	0.000122214	0	-0.0162041	-0.000165483	4.53569e-06	4.94698	0.0371127	0.0369744	-0.00320037	-55.5931	42.7496	24.1564	35.2704	0.0132091	0.0193177	0.023402	55.6364	3.0881e+10	2.11159e+10	3.74101e+10	-34.3636	0.0000000E+000	0.0000000E+000	0.0000000E+000	34.3636	0.0000000E+000	0.0000000E+000	0.0000000E+000	-34.3636	0.0000000E+000	0.0000000E+000	0.0000000E+000	-55.6364	0.0000000E+000	0.0000000E+000	0.0000000E+000	55.6364	0.683782	34.3636	0.000000000000000E+000	2.78548e-06	-1.21835e-10	2.7856e-06	3.78357	5.13884e+06	224.769	5.13907e+06