File: txt/17610_R291_UC85_SOC50_C06.mpt
EC-Lab ASCII FILE
Nb header lines : 64

Potentio Electrochemical Impedance Spectroscopy

Run on channel : 6 (SN 65795)
User :
CE vs. WE compliance from -10 V to 10 V
Electrode connection : standard
Potential control : Ewe
Ewe ctrl range : min = -10.00 V, max = 10.00 V
Safety Limits :
	Do not start on E overload
Acquisition started on : 09/17/2025 17:34:25.932
Loaded Setting File :  C:\Users\Celltest\OneDrive - store-dot.com\Documents\EC-Lab\Data\Michael\R290\17544_R290_UC82_50SOC.mps
Saved on :
	File : 17610_R291_UC85_SOC50_C06.mpr
	Directory : C:\Users\Celltest\OneDrive - store-dot.com\Documents\EC-Lab\Data\Gyutae\
	Host : 169.254.61.224
Device : VMP-3e (SN .003165)
Address : USB
EC-LAB for windows v11.62 (software)
Internet server v27.00 (firmware)
Command interpretor v12.03 (firmware)
Electrode material :
Initial state :
Electrolyte :
Comments :
Electrode surface area : 0.001 cm²
Characteristic mass : 0.001 g
Equivalent Weight : 0.000 g/eq.
Density : 0.000 g/cm3
Volume (V) : 0.001 cm³
Record Ece
Cycle Definition : Charge/Discharge alternance
Mode                Multi sine
E (V)               0.0000
vs.                 Eoc
tE (h:m:s)          0:00:0.0000
record              0
dI                  0.000
unit dI             mA
dt (s)              0.000
fi                  1.000
unit fi             MHz
ff                  0.100
unit ff             mHz
Nd                  10
Points              per decade
spacing             Logarithmic
Va (mV)             5.0
pw                  0.10
Na                  2
corr                0
E range min (V)     -10.000
E range max (V)     10.000
I Range             Auto
Bandwidth           5
nc cycles           0
goto Ns'            0
nr cycles           0
inc. cycle          0

freq/Hz	Re(Z)/Ohm	-Im(Z)/Ohm	|Z|/Ohm	Phase(Z)/deg	time/s	<Ewe>/V	<I>/mA	Cs/µF	Cp/µF	cycle number	I Range	|Ewe|/V	|I|/A	Ns	(Q-Qo)/mA.h	<Ece>/V	|Ece|/V	Phase(Zce)/deg	|Zce|/Ohm	Re(Zce)/Ohm	-Im(Zce)/Ohm	Phase(Zwe-ce)/deg	|Zwe-ce|/Ohm	Re(Zwe-ce)/Ohm	-Im(Zwe-ce)/Ohm	Re(Y)/Ohm-1	Im(Y)/Ohm-1	|Y|/Ohm-1	Phase(Y)/deg	Re(C)/nF	Im(C)/nF	|C|/nF	Phase(C)/deg	Re(M)	Im(M)	|M|	Phase(M)/deg	Re(Permittivity)	Im(Permittivity)	|Permittivity|	Phase(Permittivity)/deg	Re(Resistivity)/Ohm.cm	Im(Resistivity)/Ohm.cm	|Resistivity|/Ohm.cm	Phase(Resistivity)/deg	Re(Conductivity)/mS/cm	Im(Conductivity)/mS/cm	|Conductivity|/mS/cm	Phase(Conductivity)/deg	Tan(Delta)	Loss Angle(Delta)/deg	dq/mA.h	Pwe/W	Pce/W	Pwe-ce/W	<Ewe-Ece>/V	Rwe/Ohm	Rce/Ohm	Rwe-ce/Ohm		Ewe-Ece/V
1.00002e+06	2.11322	2.93248	3.61457	-54.2225	2.23355	3.78299	-0.00792335	0.0542722	0.0357218	1	10	0.000213151	5.897e-05	0	-1.74511e-05	0.000228865	0.000201787	-60.1827	3.42185	1.70147	2.96885	-57.1209	7.02692	3.81469	5.90133	0.161745	0.224451	0.276658	54.2225	35.7218	25.7421	44.0307	-35.7775	0.0000000E+000	0.0000000E+000	0.0000000E+000	35.7775	0.0000000E+000	0.0000000E+000	0.0000000E+000	-35.7775	0.0000000E+000	0.0000000E+000	0.0000000E+000	-54.2225	0.0000000E+000	0.0000000E+000	0.0000000E+000	54.2225	0.720626	35.7775	-1.74511e-05	-2.9974e-05	-1.81338e-09	-2.99722e-05	3.78277	477449	28.8849	477420
630957	0.724008	0.0182495	0.724238	-1.4439	3.40456	3.78281	0.0189533	13.822	0.00877624	1	9	0.000230696	0.000318536	0	-1.61975e-05	0.000228865	0.000110016	-92.0003	0.345378	-0.0120553	0.345168	-27.0421	0.799343	0.711953	0.363418	1.38032	0.0347927	1.38076	1.4439	8.77623	348.178	348.289	-88.5561	0.0000000E+000	0.0000000E+000	0.0000000E+000	88.5561	0.0000000E+000	0.0000000E+000	0.0000000E+000	-88.5561	0.0000000E+000	0.0000000E+000	0.0000000E+000	-1.4439	0.0000000E+000	0.0000000E+000	0.0000000E+000	1.4439	39.6728	88.5561	1.70869e-06	7.16969e-05	4.33776e-09	7.16926e-05	3.78258	199586	12.0752	199574
398103	1.03002	0.114937	1.03641	-6.36716	4.17052	3.78291	0.0373548	3.47827	0.0427781	1	9	0.000919075	0.000886786	0	-6.6464e-06	7.60812e-05	3.01049e-05	142	0.0339483	-0.0267517	-0.0209006	-5.35472	1.00766	1.00327	0.0940367	0.958917	0.107003	0.964868	6.36716	42.7781	383.359	385.738	-83.6328	0.0000000E+000	0.0000000E+000	0.0000000E+000	83.6328	0.0000000E+000	0.0000000E+000	0.0000000E+000	-83.6328	0.0000000E+000	0.0000000E+000	0.0000000E+000	-6.36716	0.0000000E+000	0.0000000E+000	0.0000000E+000	6.36716	8.96156	83.6328	5.4151e-06	0.00014131	2.842e-09	0.000141307	3.78284	101270	2.03672	101268
251206	1.19647	0.324192	1.23962	-15.1606	4.93756	3.78281	0.0226784	1.95428	0.133665	1	9	0.00295827	0.00238644	0	1.34804e-06	0.000209767	7.20768e-05	70.757	0.0302026	0.00995403	-0.0285152	-13.7709	1.24213	1.20643	0.295677	0.778625	0.210973	0.806701	15.1606	133.665	493.308	511.096	-74.8394	0.0000000E+000	0.0000000E+000	0.0000000E+000	74.8394	0.0000000E+000	0.0000000E+000	0.0000000E+000	-74.8394	0.0000000E+000	0.0000000E+000	0.0000000E+000	-15.1606	0.0000000E+000	0.0000000E+000	0.0000000E+000	15.1606	3.69063	74.8394	4.42227e-06	8.57879e-05	4.75719e-09	8.57832e-05	3.7826	166802	9.24966	166793
158486	1.36655	0.463067	1.44287	-18.7194	5.57955	3.78274	0.0161224	2.16863	0.223366	1	9	0.00534648	0.00370544	0	-2.58974e-06	0.000343454	7.66757e-05	72.8775	0.0206927	0.00609225	-0.0197756	-17.8978	1.44244	1.37264	0.443292	0.6564	0.222427	0.693062	18.7194	223.366	659.17	695.987	-71.2806	0.0000000E+000	0.0000000E+000	0.0000000E+000	71.2806	0.0000000E+000	0.0000000E+000	0.0000000E+000	-71.2806	0.0000000E+000	0.0000000E+000	0.0000000E+000	-18.7194	0.0000000E+000	0.0000000E+000	0.0000000E+000	18.7194	2.95108	71.2806	-2.89343e-06	6.09869e-05	5.53731e-09	6.09814e-05	3.7824	234626	21.3029	234605
100004	1.55954	0.543876	1.65166	-19.2257	6.34556	3.78268	0.0156382	2.9262	0.317295	1	9	0.00541277	0.00327717	0	1.41632e-05	0.00028616	5.22182e-05	85.94	0.0159339	0.00112815	-0.0158939	-18.6909	1.64756	1.56067	0.527982	0.571686	0.19937	0.605453	19.2257	317.295	909.832	963.572	-70.7743	0.0000000E+000	0.0000000E+000	0.0000000E+000	70.7743	0.0000000E+000	0.0000000E+000	0.0000000E+000	-70.7743	0.0000000E+000	0.0000000E+000	0.0000000E+000	-19.2257	0.0000000E+000	0.0000000E+000	0.0000000E+000	19.2257	2.86746	70.7743	1.03786e-05	5.91543e-05	4.47501e-09	5.91498e-05	3.7824	241888	18.2988	241870
63093.8	1.77061	0.574984	1.86163	-17.9906	7.11352	3.78268	0.0195867	4.3871	0.418506	1	9	0.00536025	0.00287933	0	1.82675e-05	0.000247963	2.88668e-05	73.6932	0.0100255	0.00281497	-0.0096222	-17.6821	1.86136	1.77343	0.565362	0.5109	0.165909	0.537164	17.9906	418.506	1288.75	1355	-72.0094	0.0000000E+000	0.0000000E+000	0.0000000E+000	72.0094	0.0000000E+000	0.0000000E+000	0.0000000E+000	-72.0094	0.0000000E+000	0.0000000E+000	0.0000000E+000	-17.9906	0.0000000E+000	0.0000000E+000	0.0000000E+000	17.9906	3.07941	72.0094	6.40429e-08	7.40901e-05	4.85678e-09	7.40852e-05	3.78243	193125	12.6598	193113
39814.1	1.96882	0.570781	2.04989	-16.1674	7.87953	3.78268	0.0141109	7.00348	0.542989	1	9	0.00527948	0.00257549	0	2.88038e-05	0.000171571	1.98019e-05	28.2279	0.00768857	0.00677419	-0.00363655	-16.0174	2.05539	1.9756	0.567145	0.468538	0.135834	0.48783	16.1674	542.989	1872.96	1950.08	-73.8326	0.0000000E+000	0.0000000E+000	0.0000000E+000	73.8326	0.0000000E+000	0.0000000E+000	0.0000000E+000	-73.8326	0.0000000E+000	0.0000000E+000	0.0000000E+000	-16.1674	0.0000000E+000	0.0000000E+000	0.0000000E+000	16.1674	3.44935	73.8326	-1.56101e-07	5.3377e-05	2.42103e-09	5.33746e-05	3.78251	268068	12.1588	268056
25116.9	2.14258	0.554309	2.21312	-14.505	8.64753	3.78268	0.0215236	11.4315	0.717127	1	9	0.00512638	0.00231636	0	2.81444e-05	0.000152473	4.66839e-06	-155.006	0.0020154	-0.00182666	0.000851561	-14.5382	2.21157	2.14075	0.555161	0.437448	0.113173	0.451851	14.505	717.127	2771.92	2863.18	-75.495	0.0000000E+000	0.0000000E+000	0.0000000E+000	75.495	0.0000000E+000	0.0000000E+000	0.0000000E+000	-75.495	0.0000000E+000	0.0000000E+000	0.0000000E+000	-14.505	0.0000000E+000	0.0000000E+000	0.0000000E+000	14.505	3.86531	75.495	2.72403e-06	8.14169e-05	3.28178e-09	8.14136e-05	3.78252	175745	7.08399	175738
15847.7	2.2746	0.535393	2.33676	-13.2451	9.41553	3.78267	0.0185064	18.7578	0.984689	1	9	0.00511342	0.00218825	0	3.05697e-05	3.78851e-05	8.16297e-05	-10.8755	0.0373036	0.0366336	0.00703824	-13.2079	2.37403	2.31123	0.542431	0.416559	0.0980493	0.427943	13.2451	984.689	4183.42	4297.74	-76.7549	0.0000000E+000	0.0000000E+000	0.0000000E+000	76.7549	0.0000000E+000	0.0000000E+000	0.0000000E+000	-76.7549	0.0000000E+000	0.0000000E+000	0.0000000E+000	-13.2451	0.0000000E+000	0.0000000E+000	0.0000000E+000	13.2451	4.24847	76.7549	1.37524e-06	7.00036e-05	7.01116e-10	7.00029e-05	3.78264	204398	2.04714	204396
10002.2	2.40213	0.558508	2.46621	-13.089	9.93355	3.78267	0.0187671	28.4901	1.46115	1	9	0.00532704	0.00216001	0	3.27391e-05	0.000438944	4.88599e-06	10.1377	0.00226202	0.0022267	-0.00039815	-13.0683	2.46829	2.40436	0.55811	0.394946	0.0918269	0.405481	13.089	1461.15	6284.36	6451.99	-76.911	0.0000000E+000	0.0000000E+000	0.0000000E+000	76.911	0.0000000E+000	0.0000000E+000	0.0000000E+000	-76.911	0.0000000E+000	0.0000000E+000	0.0000000E+000	-13.089	0.0000000E+000	0.0000000E+000	0.0000000E+000	13.089	4.30098	76.911	2.17738e-06	7.09899e-05	8.23772e-09	7.09817e-05	3.78223	201558	23.389	201535