File: txt/17687_R288_UA670_SOC00_C02.mpt
EC-Lab ASCII FILE

Nb header lines : 63

Potentio Electrochemical Impedance Spectroscopy

Run on channel : 2 (SN 66139)
User :
CE vs. WE compliance from -10 V to 10 V
Electrode connection : standard
Potential control : Ewe
Ewe ctrl range : min = -10.00 V, max = 10.00 V
Safety Limits :
	Do not start on E overload
Acquisition started on : 09/22/2025 08:43:39.321
Loaded Setting File :  C:\Users\Celltest\OneDrive - store-dot.com\Documents\EC-Lab\Data\Gyutae\17737_R277_UA674_SOC00_C01.mpr
Saved on :
	File : 17687_R288_UA670_SOC00_C02.mpr
	Directory : C:\Users\Celltest\OneDrive - store-dot.com\Documents\EC-Lab\Data\Charmaine\
	Host : 169.254.61.224
Device : VMP-3e (SN .003165)
Address : USB
EC-LAB for windows v11.62 (software)
Internet server v27.00 (firmware)
Command interpretor v12.03 (firmware)
Electrode material :
Initial state :
Electrolyte :
Comments :
Electrode surface area : 0.001 cm²
Characteristic mass : 0.001 g
Equivalent Weight : 0.000 g/eq.
Density : 0.000 g/cm3
Volume (V) : 0.001 cm³
Cycle Definition : Charge/Discharge alternance
Mode                Single sine
E (V)               0.0000
vs.                 Eoc
tE (h:m:s)          0:00:0.0000
record              0
dI                  0.000
unit dI             mA
dt (s)              0.000
fi                  100.000
unit fi             kHz
ff                  10.000
unit ff             mHz
Nd                  6
Points              per decade
spacing             Logarithmic
Va (mV)             5.0
pw                  0.10
Na                  2
corr                0
E range min (V)     -10.000
E range max (V)     10.000
I Range             Auto
Bandwidth           5
nc cycles           0
goto Ns'            0
nr cycles           0
inc. cycle          0

freq/Hz	Re(Z)/Ohm	-Im(Z)/Ohm	|Z|/Ohm	Phase(Z)/deg	time/s	<Ewe>/V	<I>/mA	Cs/µF	Cp/µF	cycle number	I Range	|Ewe|/V	|I|/A	Ns	(Q-Qo)/mA.h	Re(Y)/Ohm-1	Im(Y)/Ohm-1	|Y|/Ohm-1	Phase(Y)/deg	Re(C)/nF	Im(C)/nF	|C|/nF	Phase(C)/deg	Re(M)	Im(M)	|M|	Phase(M)/deg	Re(Permittivity)	Im(Permittivity)	|Permittivity|	Phase(Permittivity)/deg	Re(Resistivity)/Ohm.cm	Im(Resistivity)/Ohm.cm	|Resistivity|/Ohm.cm	Phase(Resistivity)/deg	Re(Conductivity)/mS/cm	Im(Conductivity)/mS/cm	|Conductivity|/mS/cm	Phase(Conductivity)/deg	Tan(Delta)	Loss Angle(Delta)/deg	dq/mA.h	Pwe/W	Rwe/Ohm
100004	0.917872	0.182181	0.935777	-11.2262	1.70549	0.270324	-0.0198683	8.73579	0.331101	1	9	0.00465217	0.00497145	0	-8.31138e-06	1.04818	0.208045	1.06863	11.2262	331.101	1668.17	1700.71	-78.7738	0.0000000E+000	0.0000000E+000	0.0000000E+000	78.7738	0.0000000E+000	0.0000000E+000	0.0000000E+000	-78.7738	0.0000000E+000	0.0000000E+000	0.0000000E+000	-11.2262	0.0000000E+000	0.0000000E+000	0.0000000E+000	11.2262	5.03826	78.7738	-8.31138e-06	-5.37089e-06	13605.8
46420.4	1.01356	0.238522	1.04125	-13.2425	2.7205	0.270323	-0.0209485	14.3742	0.754281	1	9	0.00506484	0.00486421	0	-7.28685e-06	0.934851	0.219999	0.960388	13.2425	754.281	3205.19	3292.75	-76.7575	0.0000000E+000	0.0000000E+000	0.0000000E+000	76.7575	0.0000000E+000	0.0000000E+000	0.0000000E+000	-76.7575	0.0000000E+000	0.0000000E+000	0.0000000E+000	-13.2425	0.0000000E+000	0.0000000E+000	0.0000000E+000	13.2425	4.24933	76.7575	6.04228e-06	-5.66285e-06	12904.2
21544.7	1.13338	0.315989	1.1766	-15.5786	3.59549	0.270321	-0.0146167	23.378	1.68613	1	9	0.00546004	0.00464051	0	-1.52597e-05	0.818681	0.228251	0.849904	15.5786	1686.13	6047.76	6278.41	-74.4214	0.0000000E+000	0.0000000E+000	0.0000000E+000	74.4214	0.0000000E+000	0.0000000E+000	0.0000000E+000	-74.4214	0.0000000E+000	0.0000000E+000	0.0000000E+000	-15.5786	0.0000000E+000	0.0000000E+000	0.0000000E+000	15.5786	3.58676	74.4214	-3.66494e-06	-3.95118e-06	18494
10002.2	1.28898	0.41335	1.35363	-17.7801	4.47049	0.27032	-0.0165163	38.4951	3.58956	1	9	0.00505442	0.00373397	0	-1.75197e-05	0.703468	0.225589	0.738754	17.7801	3589.56	11193.5	11755	-72.2199	0.0000000E+000	0.0000000E+000	0.0000000E+000	72.2199	0.0000000E+000	0.0000000E+000	0.0000000E+000	-72.2199	0.0000000E+000	0.0000000E+000	0.0000000E+000	-17.7801	0.0000000E+000	0.0000000E+000	0.0000000E+000	17.7801	3.11836	72.2199	5.62676e-07	-4.46468e-06	16366.9
4641.49	1.49711	0.548924	1.59457	-20.1357	5.3187	0.270281	-0.0271686	62.467	7.40265	1	9	0.00497615	0.00312068	0	-2.57811e-05	0.588797	0.215886	0.627128	20.1357	7402.65	20189.7	21504	-69.8643	0.0000000E+000	0.0000000E+000	0.0000000E+000	69.8643	0.0000000E+000	0.0000000E+000	0.0000000E+000	-69.8643	0.0000000E+000	0.0000000E+000	0.0000000E+000	-20.1357	0.0000000E+000	0.0000000E+000	0.0000000E+000	20.1357	2.72736	69.8643	-3.28007e-06	-7.34316e-06	9948.3
2155.69	1.77063	0.719494	1.91123	-22.1143	6.25267	0.270285	-0.0247662	102.614	14.5423	1	9	0.00480322	0.00251315	0	-3.22077e-05	0.484731	0.19697	0.523222	22.1143	14542.3	35787.8	38629.6	-67.8857	0.0000000E+000	0.0000000E+000	0.0000000E+000	67.8857	0.0000000E+000	0.0000000E+000	0.0000000E+000	-67.8857	0.0000000E+000	0.0000000E+000	0.0000000E+000	-22.1143	0.0000000E+000	0.0000000E+000	0.0000000E+000	22.1143	2.46094	67.8857	-5.37503e-06	-6.69395e-06	10913.5
1000.32	2.10854	0.960792	2.31713	-24.4972	7.18869	0.270288	-0.0253436	165.597	28.4716	1	9	0.00472525	0.00203927	0	-3.84106e-05	0.39272	0.17895	0.431569	24.4972	28471.6	62483.3	68664.4	-65.5028	0.0000000E+000	0.0000000E+000	0.0000000E+000	65.5028	0.0000000E+000	0.0000000E+000	0.0000000E+000	-65.5028	0.0000000E+000	0.0000000E+000	0.0000000E+000	-24.4972	0.0000000E+000	0.0000000E+000	0.0000000E+000	24.4972	2.19459	65.5028	-1.54136e-06	-6.85006e-06	10664.9
463.961	2.56032	1.31741	2.87938	-27.2281	8.12322	0.270292	-0.0215445	260.386	54.5085	1	9	0.00468717	0.00162784	0	-4.30655e-05	0.308814	0.158901	0.347298	27.2281	54508.5	105934	119135	-62.7719	0.0000000E+000	0.0000000E+000	0.0000000E+000	62.7719	0.0000000E+000	0.0000000E+000	0.0000000E+000	-62.7719	0.0000000E+000	0.0000000E+000	0.0000000E+000	-27.2281	0.0000000E+000	0.0000000E+000	0.0000000E+000	27.2281	1.94344	62.7719	-3.14009e-06	-5.8233e-06	12545.7
215.345	3.22663	1.85132	3.72002	-29.8455	9.31041	0.270313	-0.0287733	399.214	98.8729	1	10	0.00469265	0.00126146	0	-5.22659e-05	0.233163	0.13378	0.268816	29.8455	98872.9	172324	198674	-60.1545	0.0000000E+000	0.0000000E+000	0.0000000E+000	60.1545	0.0000000E+000	0.0000000E+000	0.0000000E+000	-60.1545	0.0000000E+000	0.0000000E+000	0.0000000E+000	-29.8455	0.0000000E+000	0.0000000E+000	0.0000000E+000	29.8455	1.74288	60.1544	-2.32041e-06	-7.77781e-06	9394.58
100.032	4.31292	2.55233	5.01155	-30.6165	10.2417	0.270316	-0.0285237	623.368	161.686	1	10	0.00468099	0.00093404	0	-6.06031e-05	0.171722	0.101623	0.199539	30.6165	161686	273217	317475	-59.3835	0.0000000E+000	0.0000000E+000	0.0000000E+000	59.3835	0.0000000E+000	0.0000000E+000	0.0000000E+000	-59.3835	0.0000000E+000	0.0000000E+000	0.0000000E+000	-30.6165	0.0000000E+000	0.0000000E+000	0.0000000E+000	30.6165	1.6898	59.3835	-4.31133e-06	-7.71043e-06	9476.88
46.4415	5.96753	3.05628	6.70464	-27.1194	11.1745	0.27031	-0.0299077	1121.3	233	1	10	0.00466393	0.000695627	0	-6.83257e-05	0.132753	0.0679896	0.14915	27.1194	233000	454943	511138	-62.8806	0.0000000E+000	0.0000000E+000	0.0000000E+000	62.8806	0.0000000E+000	0.0000000E+000	0.0000000E+000	-62.8806	0.0000000E+000	0.0000000E+000	0.0000000E+000	-27.1194	0.0000000E+000	0.0000000E+000	0.0000000E+000	27.1194	1.95254	62.8806	-3.88906e-06	-8.08434e-06	9038.15
21.5517	7.80582	2.89415	8.32508	-20.3432	12.0603	0.270294	-0.0338862	2551.63	308.377	1	10	0.00466395	0.000560229	0	-7.55589e-05	0.112627	0.0417584	0.120119	20.3432	308377	831726	887054	-69.6568	0.0000000E+000	0.0000000E+000	0.0000000E+000	69.6568	0.0000000E+000	0.0000000E+000	0.0000000E+000	-69.6568	0.0000000E+000	0.0000000E+000	0.0000000E+000	-20.3432	0.0000000E+000	0.0000000E+000	0.0000000E+000	20.3432	2.69711	69.6568	-3.72626e-06	-9.15923e-06	7976.51
10.0032	9.20691	2.35298	9.50282	-14.336	13.0067	0.270307	-0.0273317	6761.81	414.566	1	10	0.00466166	0.000490555	0	-8.59793e-05	0.101955	0.0260563	0.105232	14.336	414566	1.62214e+06	1.67428e+06	-75.664	0.0000000E+000	0.0000000E+000	0.0000000E+000	75.664	0.0000000E+000	0.0000000E+000	0.0000000E+000	-75.664	0.0000000E+000	0.0000000E+000	0.0000000E+000	-14.336	0.0000000E+000	0.0000000E+000	0.0000000E+000	14.336	3.91287	75.664	-6.39749e-06	-7.38796e-06	9889.89
4.63925	10.178	1.83042	10.3413	-10.1951	14.1363	0.270328	-0.0170372	18742.3	587.182	1	11	0.00466334	0.000450943	0	-9.14167e-05	0.0951729	0.0171159	0.0966997	10.1951	587182	3.26502e+06	3.3174e+06	-79.8049	0.0000000E+000	0.0000000E+000	0.0000000E+000	79.8049	0.0000000E+000	0.0000000E+000	0.0000000E+000	-79.8049	0.0000000E+000	0.0000000E+000	0.0000000E+000	-10.1951	0.0000000E+000	0.0000000E+000	0.0000000E+000	10.1951	5.56048	79.8049	-8.21375e-06	-4.60564e-06	15866.9
2.15577	10.8877	1.42664	10.9808	-7.46503	15.8618	0.270341	-0.0148008	51749.3	873.5	1	11	0.0046665	0.000424968	0	-8.66729e-05	0.0902961	0.0118316	0.0910679	7.46503	873500	6.66633e+06	6.72332e+06	-82.535	0.0000000E+000	0.0000000E+000	0.0000000E+000	82.535	0.0000000E+000	0.0000000E+000	0.0000000E+000	-82.535	0.0000000E+000	0.0000000E+000	0.0000000E+000	-7.46503	0.0000000E+000	0.0000000E+000	0.0000000E+000	7.46503	7.63175	82.535	1.26651e-06	-4.00126e-06	18265.3
1.00006	11.4152	1.20856	11.479	-6.04354	19.4752	0.270335	-0.0122604	131681	1459.66	1	11	0.00466816	0.000406669	0	-0.000118932	0.0866313	0.00917187	0.0871155	6.04354	1.45966e+06	1.37869e+07	1.3864e+07	-83.9565	0.0000000E+000	0.0000000E+000	0.0000000E+000	83.9565	0.0000000E+000	0.0000000E+000	0.0000000E+000	-83.9565	0.0000000E+000	0.0000000E+000	0.0000000E+000	-6.04354	0.0000000E+000	0.0000000E+000	0.0000000E+000	6.04354	9.44532	83.9565	-2.1709e-05	-3.31442e-06	22049.4
0.464091	11.8533	1.16272	11.9102	-5.60238	27.1599	0.27034	-0.0124692	294945	2810.97	1	11	0.00466941	0.000392052	0	-0.000164845	0.0835607	0.00819671	0.0839618	5.60238	2.81097e+06	2.86563e+07	2.87938e+07	-84.3976	0.0000000E+000	0.0000000E+000	0.0000000E+000	84.3976	0.0000000E+000	0.0000000E+000	0.0000000E+000	-84.3976	0.0000000E+000	0.0000000E+000	0.0000000E+000	-5.60238	0.0000000E+000	0.0000000E+000	0.0000000E+000	5.60238	10.1944	84.3976	-1.9959e-05	-3.37092e-06	21680.7
0.215268	12.2098	1.40538	12.2904	-6.56602	43.6398	0.270336	-0.0106945	526074	6878.65	1	11	0.00466808	0.000379816	0	-0.000148485	0.0808306	0.00930384	0.0813643	6.56602	6.87865e+06	5.97609e+07	6.01555e+07	-83.434	0.0000000E+000	0.0000000E+000	0.0000000E+000	83.434	0.0000000E+000	0.0000000E+000	0.0000000E+000	-83.434	0.0000000E+000	0.0000000E+000	0.0000000E+000	-6.56602	0.0000000E+000	0.0000000E+000	0.0000000E+000	6.56602	8.68787	83.434	1.93464e-05	-2.8911e-06	25278.1
0.0999041	12.7456	2.01629	12.9041	-8.98939	79.0454	0.270329	-0.00403281	790102	19290	1	11	0.00466552	0.000361552	0	-9.30855e-05	0.0765427	0.0121086	0.0774945	8.98939	1.929e+07	1.21938e+08	1.23455e+08	-81.0106	0.0000000E+000	0.0000000E+000	0.0000000E+000	81.0106	0.0000000E+000	0.0000000E+000	0.0000000E+000	-81.0106	0.0000000E+000	0.0000000E+000	0.0000000E+000	-8.98939	0.0000000E+000	0.0000000E+000	0.0000000E+000	8.98939	6.32133	81.0106	2.13285e-05	-1.09018e-06	67032.4
0.0464052	13.488	3.25009	13.8741	-13.5478	155.282	0.27033	-0.000184912	1.05526e+06	57908.1	1	11	0.00466839	0.000336483	0	-0.000277651	0.0700712	0.0168844	0.0720768	13.5478	5.79082e+07	2.40322e+08	2.472e+08	-76.4522	0.0000000E+000	0.0000000E+000	0.0000000E+000	76.4522	0.0000000E+000	0.0000000E+000	0.0000000E+000	-76.4522	0.0000000E+000	0.0000000E+000	0.0000000E+000	-13.5478	0.0000000E+000	0.0000000E+000	0.0000000E+000	13.5478	4.15005	76.4522	-0.000156239	-4.99872e-08	1.46194e+06
0.0215268	14.7728	5.20576	15.6632	-19.4118	319.511	0.270329	-0.00207406	1.42023e+06	156879	1	11	0.00466836	0.000298047	0	-0.000960771	0.0602147	0.0212189	0.063844	19.4118	1.56879e+08	4.45188e+08	4.72021e+08	-70.5881	0.0000000E+000	0.0000000E+000	0.0000000E+000	70.5881	0.0000000E+000	0.0000000E+000	0.0000000E+000	-70.5881	0.0000000E+000	0.0000000E+000	0.0000000E+000	-19.4118	0.0000000E+000	0.0000000E+000	0.0000000E+000	19.4118	2.83778	70.5881	-0.0003777	-5.60678e-07	130338
0.0146812	15.5308	6.78619	16.9487	-23.603	530.95	0.270318	-0.00192415	1.59747e+06	256102	1	12	0.00466857	0.000275453	0	-0.00122985	0.0540657	0.0236241	0.0590017	23.603	2.56102e+08	5.86113e+08	6.39622e+08	-66.397	0.0000000E+000	0.0000000E+000	0.0000000E+000	66.397	0.0000000E+000	0.0000000E+000	0.0000000E+000	-66.397	0.0000000E+000	0.0000000E+000	0.0000000E+000	-23.603	0.0000000E+000	0.0000000E+000	0.0000000E+000	23.603	2.28859	66.397	-0.000269075	-5.20133e-07	140487

0.0100092	16.5303	8.85564	18.753	-28.1789	740.97	0.270317	-0.00224333	1.79557e+06	400406	1	12	0.00466794	0.000248917	0	-0.00101274	0.0470046	0.0251813	0.0533248	28.1789	4.00406e+08	7.47417e+08	8.47913e+08	-61.8211	0.0000000E+000	0.0000000E+000	0.0000000E+000	61.8211	0.0000000E+000	0.0000000E+000	0.0000000E+000	-61.8211	0.0000000E+000	0.0000000E+000	0.0000000E+000	-28.1789	0.0000000E+000	0.0000000E+000	0.0000000E+000	28.1789	1.86665	61.8211	0.000217107	-6.0641e-07	120499