File: txt/17689_R288_UA670_SOC00_C04.mpt
EC-Lab ASCII FILE
Nb header lines : 63

Potentio Electrochemical Impedance Spectroscopy

Run on channel : 4 (SN 66756)
User :
CE vs. WE compliance from -10 V to 10 V
Electrode connection : standard
Potential control : Ewe
Ewe ctrl range : min = -10.00 V, max = 10.00 V
Safety Limits :
	Do not start on E overload
Acquisition started on : 09/22/2025 08:43:58.498
Loaded Setting File :  C:\Users\Celltest\OneDrive - store-dot.com\Documents\EC-Lab\Data\Gyutae\17739_R277_UA674_SOC00_C03.mpr
Saved on :
	File : 17689_R288_UA670_SOC00_C04.mpr
	Directory : C:\Users\Celltest\OneDrive - store-dot.com\Documents\EC-Lab\Data\Charmaine\
	Host : 169.254.61.224
Device : VMP-3e (SN .003165)
Address : USB
EC-LAB for windows v11.62 (software)
Internet server v27.00 (firmware)
Command interpretor v12.03 (firmware)
Electrode material :
Initial state :
Electrolyte :
Comments :
Electrode surface area : 0.001 cm²
Characteristic mass : 0.001 g
Equivalent Weight : 0.000 g/eq.
Density : 0.000 g/cm3
Volume (V) : 0.001 cm³
Cycle Definition : Charge/Discharge alternance
Mode                Single sine
E (V)               0.0000
vs.                 Eoc
tE (h:m:s)          0:00:0.0000
record              0
dI                  0.000
unit dI             mA
dt (s)              0.000
fi                  100.000
unit fi             kHz
ff                  10.000
unit ff             mHz
Nd                  6
Points              per decade
spacing             Logarithmic
Va (mV)             5.0
pw                  0.10
Na                  2
corr                0
E range min (V)     -10.000
E range max (V)     10.000
I Range             Auto
Bandwidth           5
nc cycles           0
goto Ns'            0
nr cycles           0
inc. cycle          0

freq/Hz	Re(Z)/Ohm	-Im(Z)/Ohm	|Z|/Ohm	Phase(Z)/deg	time/s	<Ewe>/V	<I>/mA	Cs/µF	Cp/µF	cycle number	I Range	|Ewe|/V	|I|/A	Ns	(Q-Qo)/mA.h	Re(Y)/Ohm-1	Im(Y)/Ohm-1	|Y|/Ohm-1	Phase(Y)/deg	Re(C)/nF	Im(C)/nF	|C|/nF	Phase(C)/deg	Re(M)	Im(M)	|M|	Phase(M)/deg	Re(Permittivity)	Im(Permittivity)	|Permittivity|	Phase(Permittivity)/deg	Re(Resistivity)/Ohm.cm	Im(Resistivity)/Ohm.cm	|Resistivity|/Ohm.cm	Phase(Resistivity)/deg	Re(Conductivity)/mS/cm	Im(Conductivity)/mS/cm	|Conductivity|/mS/cm	Phase(Conductivity)/deg	Tan(Delta)	Loss Angle(Delta)/deg	dq/mA.h	Pwe/W	Rwe/Ohm
100004	0.926681	0.187049	0.94537	-11.4117	1.8655	0.276227	-0.0326017	8.50843	0.333085	1	9	0.00482827	0.00510728	0	-6.64334e-06	1.03688	0.209291	1.05779	11.4117	333.085	1650.18	1683.46	-78.5883	0.0000000E+000	0.0000000E+000	0.0000000E+000	78.5883	0.0000000E+000	0.0000000E+000	0.0000000E+000	-78.5883	0.0000000E+000	0.0000000E+000	0.0000000E+000	-11.4117	0.0000000E+000	0.0000000E+000	0.0000000E+000	11.4117	4.95423	78.5883	-6.64334e-06	-9.00546e-06	8472.77
46420.4	1.01281	0.214208	1.03522	-11.9419	2.73949	0.276157	-0.0311285	16.0058	0.685304	1	9	0.00549447	0.00530755	0	-2.40863e-05	0.945074	0.199881	0.96598	11.9419	685.304	3240.24	3311.92	-78.0581	0.0000000E+000	0.0000000E+000	0.0000000E+000	78.0581	0.0000000E+000	0.0000000E+000	0.0000000E+000	-78.0581	0.0000000E+000	0.0000000E+000	0.0000000E+000	-11.9419	0.0000000E+000	0.0000000E+000	0.0000000E+000	11.9419	4.72818	78.0581	-1.14888e-05	-8.59635e-06	8871.54
21544.7	1.11395	0.2679	1.14571	-13.5226	3.89649	0.276165	-0.0315947	27.5745	1.50767	1	9	0.00501265	0.00437516	0	-2.87205e-05	0.848627	0.204092	0.872823	13.5226	1507.67	6268.98	6447.72	-76.4774	0.0000000E+000	0.0000000E+000	0.0000000E+000	76.4774	0.0000000E+000	0.0000000E+000	0.0000000E+000	-76.4774	0.0000000E+000	0.0000000E+000	0.0000000E+000	-13.5226	0.0000000E+000	0.0000000E+000	0.0000000E+000	13.5226	4.15807	76.4774	-4.60322e-06	-8.72535e-06	8740.87
10002.2	1.23924	0.344303	1.28618	-15.5271	4.62948	0.276151	-0.0295434	46.215	3.31176	1	9	0.00494671	0.00384604	0	-3.34475e-05	0.749119	0.20813	0.777494	15.5271	3311.76	11919.9	12371.5	-74.4729	0.0000000E+000	0.0000000E+000	0.0000000E+000	74.4729	0.0000000E+000	0.0000000E+000	0.0000000E+000	-74.4729	0.0000000E+000	0.0000000E+000	0.0000000E+000	-15.5271	0.0000000E+000	0.0000000E+000	0.0000000E+000	15.5271	3.59928	74.4729	-1.6866e-06	-8.15843e-06	9347.3
4641.49	1.4099	0.454786	1.48144	-17.8779	5.7017	0.27611	-0.0508402	75.3973	7.10567	1	9	0.00496604	0.00335218	0	-6.21898e-05	0.642426	0.207225	0.675021	17.8779	7105.67	22028.6	23146.2	-72.1221	0.0000000E+000	0.0000000E+000	0.0000000E+000	72.1221	0.0000000E+000	0.0000000E+000	0.0000000E+000	-72.1221	0.0000000E+000	0.0000000E+000	0.0000000E+000	-17.8779	0.0000000E+000	0.0000000E+000	0.0000000E+000	17.8779	3.10014	72.1221	-1.35164e-05	-1.40375e-05	5430.95
2155.69	1.61529	0.602185	1.72389	-20.4456	6.6357	0.276162	-0.0509894	122.604	14.9605	1	9	0.00481562	0.00279347	0	-7.57467e-05	0.543542	0.202634	0.580085	20.4456	14960.5	40129.8	42827.8	-69.5544	0.0000000E+000	0.0000000E+000	0.0000000E+000	69.5544	0.0000000E+000	0.0000000E+000	0.0000000E+000	-69.5544	0.0000000E+000	0.0000000E+000	0.0000000E+000	-20.4456	0.0000000E+000	0.0000000E+000	0.0000000E+000	20.4456	2.68238	69.5544	-7.99841e-06	-1.40813e-05	5416.07
1000.32	1.87895	0.862548	2.06747	-24.6579	7.57171	0.276111	-0.0507283	184.458	32.106	1	9	0.00476612	0.00230529	0	-8.92791e-05	0.439578	0.201792	0.483683	24.6579	32106	69938.6	76955.9	-65.3421	0.0000000E+000	0.0000000E+000	0.0000000E+000	65.3421	0.0000000E+000	0.0000000E+000	0.0000000E+000	-65.3421	0.0000000E+000	0.0000000E+000	0.0000000E+000	-24.6579	0.0000000E+000	0.0000000E+000	0.0000000E+000	24.6579	2.17837	65.3421	-5.10721e-06	-1.40066e-05	5442.94
463.961	2.27276	1.25065	2.59414	-28.8229	8.50618	0.276117	-0.0524253	274.286	63.7508	1	9	0.00474577	0.00182942	0	-0.000102564	0.337728	0.185843	0.385484	28.8229	63750.8	115853	132235	-61.1771	0.0000000E+000	0.0000000E+000	0.0000000E+000	61.1771	0.0000000E+000	0.0000000E+000	0.0000000E+000	-61.1771	0.0000000E+000	0.0000000E+000	0.0000000E+000	-28.8229	0.0000000E+000	0.0000000E+000	0.0000000E+000	28.8229	1.81727	61.1771	-7.2193e-06	-1.44755e-05	5266.87
215.345	2.96623	1.84705	3.49429	-31.9103	9.69342	0.276165	-0.0330516	400.136	111.801	1	10	0.00477559	0.00136668	0	-0.000114228	0.242932	0.151272	0.286181	31.9103	111801	179544	211508	-58.0897	0.0000000E+000	0.0000000E+000	0.0000000E+000	58.0897	0.0000000E+000	0.0000000E+000	0.0000000E+000	-58.0897	0.0000000E+000	0.0000000E+000	0.0000000E+000	-31.9103	0.0000000E+000	0.0000000E+000	0.0000000E+000	31.9103	1.60593	58.0897	-2.7972e-06	-9.12768e-06	8355.57
100.032	4.09776	2.49213	4.79607	-31.3066	10.6247	0.27614	-0.0320295	638.427	172.377	1	10	0.00474563	0.000989483	0	-0.000123897	0.178145	0.108342	0.208504	31.3066	172377	283437	331738	-58.6934	0.0000000E+000	0.0000000E+000	0.0000000E+000	58.6934	0.0000000E+000	0.0000000E+000	0.0000000E+000	-58.6934	0.0000000E+000	0.0000000E+000	0.0000000E+000	-31.3066	0.0000000E+000	0.0000000E+000	0.0000000E+000	31.3066	1.64428	58.6934	-4.99144e-06	-8.84462e-06	8621.41
46.4415	5.69892	2.84491	6.36955	-26.5284	11.5585	0.27614	-0.0347526	1204.61	240.306	1	10	0.00472608	0.000741981	0	-0.000132653	0.140467	0.0701214	0.156997	26.5284	240306	481380	538028	-63.4716	0.0000000E+000	0.0000000E+000	0.0000000E+000	63.4716	0.0000000E+000	0.0000000E+000	0.0000000E+000	-63.4716	0.0000000E+000	0.0000000E+000	0.0000000E+000	-26.5284	0.0000000E+000	0.0000000E+000	0.0000000E+000	26.5284	2.0032	63.4716	-4.39553e-06	-9.59659e-06	7945.89
21.5517	7.30794	2.5937	7.75456	-19.5405	12.4444	0.276149	-0.0374141	2847.21	318.525	1	10	0.00471253	0.000607711	0	-0.000140331	0.121529	0.0431325	0.128956	19.5405	318525	897467	952316	-70.4595	0.0000000E+000	0.0000000E+000	0.0000000E+000	70.4595	0.0000000E+000	0.0000000E+000	0.0000000E+000	-70.4595	0.0000000E+000	0.0000000E+000	0.0000000E+000	-19.5405	0.0000000E+000	0.0000000E+000	0.0000000E+000	19.5405	2.81758	70.4595	-3.71685e-06	-1.03319e-05	7380.89
10.0032	8.55271	2.08557	8.80332	-13.7041	13.3907	0.276138	-0.0299183	7628.79	428.168	1	10	0.00473428	0.000537784	0	-0.000152095	0.11036	0.0269112	0.113594	13.7041	428168	1.75587e+06	1.80732e+06	-76.2959	0.0000000E+000	0.0000000E+000	0.0000000E+000	76.2959	0.0000000E+000	0.0000000E+000	0.0000000E+000	-76.2959	0.0000000E+000	0.0000000E+000	0.0000000E+000	-13.7041	0.0000000E+000	0.0000000E+000	0.0000000E+000	13.7041	4.10089	76.2959	-7.42471e-06	-8.26158e-06	9229.76
4.63925	9.43063	1.67174	9.57765	-10.0523	14.5203	0.276192	-0.0153376	20521.2	625.207	1	11	0.00473772	0.000494664	0	-0.0001574	0.102807	0.0182243	0.10441	10.0523	625207	3.52691e+06	3.5819e+06	-79.9477	0.0000000E+000	0.0000000E+000	0.0000000E+000	79.9477	0.0000000E+000	0.0000000E+000	0.0000000E+000	-79.9477	0.0000000E+000	0.0000000E+000	0.0000000E+000	-10.0523	0.0000000E+000	0.0000000E+000	0.0000000E+000	10.0523	5.64119	79.9477	-8.34222e-06	-4.23614e-06	18007.5
2.15577	10.0286	1.28072	10.11	-7.27766	16.2448	0.276184	-0.0132557	57645.4	925.053	1	11	0.00472911	0.000467765	0	-0.000151431	0.0981148	0.0125299	0.0989116	7.27766	925053	7.24357e+06	7.3024e+06	-82.7223	0.0000000E+000	0.0000000E+000	0.0000000E+000	82.7223	0.0000000E+000	0.0000000E+000	0.0000000E+000	-82.7223	0.0000000E+000	0.0000000E+000	0.0000000E+000	-7.27766	0.0000000E+000	0.0000000E+000	0.0000000E+000	7.27766	7.83044	82.7223	8.92443e-07	-3.66102e-06	20835.1
1.00006	10.4896	1.1602	10.5535	-6.31154	19.8582	0.276206	-0.0102818	137170	1657.78	1	11	0.00473794	0.000448943	0	-0.000185462	0.0941805	0.0104168	0.0947548	6.31154	1.65778e+06	1.49883e+07	1.50797e+07	-83.6885	0.0000000E+000	0.0000000E+000	0.0000000E+000	83.6885	0.0000000E+000	0.0000000E+000	0.0000000E+000	-83.6885	0.0000000E+000	0.0000000E+000	0.0000000E+000	-6.31154	0.0000000E+000	0.0000000E+000	0.0000000E+000	6.31154	9.0412	83.6885	-2.20909e-05	-2.83989e-06	26863.6
0.464091	10.8622	1.08066	10.9158	-5.68157	27.5429	0.276195	-0.0115441	317342	3110.24	1	11	0.00473263	0.000433557	0	-0.000223235	0.0911601	0.00906937	0.0916102	5.68157	3.11024e+06	3.12624e+07	3.14167e+07	-84.3184	0.0000000E+000	0.0000000E+000	0.0000000E+000	84.3184	0.0000000E+000	0.0000000E+000	0.0000000E+000	-84.3184	0.0000000E+000	0.0000000E+000	0.0000000E+000	-5.68157	0.0000000E+000	0.0000000E+000	0.0000000E+000	5.68157	10.0514	84.3184	-1.40253e-05	-3.18842e-06	23925.2
0.215268	11.2364	1.30353	11.3117	-6.61732	44.023	0.276209	-0.00913299	567177	7531.93	1	11	0.00474768	0.000419714	0	-0.00018537	0.087815	0.0101874	0.0884039	6.61732	7.53193e+06	6.49246e+07	6.53601e+07	-83.3827	0.0000000E+000	0.0000000E+000	0.0000000E+000	83.3827	0.0000000E+000	0.0000000E+000	0.0000000E+000	-83.3827	0.0000000E+000	0.0000000E+000	0.0000000E+000	-6.61732	0.0000000E+000	0.0000000E+000	0.0000000E+000	6.61732	8.61992	83.3827	3.06689e-05	-2.52261e-06	30243
0.0999041	11.731	1.96068	11.8937	-9.48853	79.4295	0.276202	-0.00173816	812513	22080.5	1	11	0.00473979	0.000398512	0	-0.000123234	0.0829277	0.0138603	0.084078	9.48853	2.20805e+07	1.3211e+08	1.33943e+08	-80.5115	0.0000000E+000	0.0000000E+000	0.0000000E+000	80.5115	0.0000000E+000	0.0000000E+000	0.0000000E+000	-80.5115	0.0000000E+000	0.0000000E+000	0.0000000E+000	-9.48853	0.0000000E+000	0.0000000E+000	0.0000000E+000	9.48853	5.98312	80.5115	1.97422e-05	-4.80084e-07	158904
0.0464052	12.4217	3.10164	12.8031	-14.0198	155.666	0.276193	0.00073712	1.10576e+06	64895.6	1	11	0.00473628	0.000369933	0	-0.000350728	0.0757795	0.0189218	0.0781062	14.0198	6.48956e+07	2.599e+08	2.67879e+08	-75.9802	0.0000000E+000	0.0000000E+000	0.0000000E+000	75.9802	0.0000000E+000	0.0000000E+000	0.0000000E+000	-75.9802	0.0000000E+000	0.0000000E+000	0.0000000E+000	-14.0198	0.0000000E+000	0.0000000E+000	0.0000000E+000	14.0198	4.00489	75.9802	-0.000184841	2.03588e-07	374693
0.0215268	13.6453	4.99969	14.5324	-20.1231	319.894	0.276191	-0.00230341	1.47876e+06	175029	1	11	0.00474235	0.00032633	0	-0.00104323	0.0646112	0.0236738	0.0688118	20.1231	1.75029e+08	4.77693e+08	5.08749e+08	-69.8769	0.0000000E+000	0.0000000E+000	0.0000000E+000	69.8769	0.0000000E+000	0.0000000E+000	0.0000000E+000	-69.8769	0.0000000E+000	0.0000000E+000	0.0000000E+000	-20.1231	0.0000000E+000	0.0000000E+000	0.0000000E+000	20.1231	2.72923	69.8769	-0.000358116	-6.3618e-07	119905
0.0100092	15.1263	8.41225	17.3082	-29.0799	773.185	0.276191	-0.00119445	1.89021e+06	446512	1	12	0.004735	0.00027357	0	-0.000804263	0.0504932	0.0280809	0.0577762	29.0799	4.46512e+08	8.02887e+08	9.18695e+08	-60.9201	0.0000000E+000	0.0000000E+000	0.0000000E+000	60.9201	0.0000000E+000	0.0000000E+000	0.0000000E+000	-60.9201	0.0000000E+000	0.0000000E+000	0.0000000E+000	-29.0799	0.0000000E+000	0.0000000E+000	0.0000000E+000	29.0799	1.79813	60.9201	0.000366303	-3.29896e-07	231229