File: txt/17688_R288_UA670_SOC00_C03.mpt
EC-Lab ASCII FILE
Nb header lines : 63

Potentio Electrochemical Impedance Spectroscopy

Run on channel : 3 (SN 65921)
User :
CE vs. WE compliance from -10 V to 10 V
Electrode connection : standard
Potential control : Ewe
Ewe ctrl range : min = -10.00 V, max = 10.00 V
Safety Limits :
	Do not start on E overload
Acquisition started on : 09/22/2025 08:43:48.679
Loaded Setting File :  C:\Users\Celltest\OneDrive - store-dot.com\Documents\EC-Lab\Data\Gyutae\17738_R277_UA674_SOC00_C02.mpr
Saved on :
	File : 17688_R288_UA670_SOC00_C03.mpr
	Directory : C:\Users\Celltest\OneDrive - store-dot.com\Documents\EC-Lab\Data\Charmaine\
	Host : 169.254.61.224
Device : VMP-3e (SN .003165)
Address : USB
EC-LAB for windows v11.62 (software)
Internet server v27.00 (firmware)
Command interpretor v12.03 (firmware)
Electrode material :
Initial state :
Electrolyte :
Comments :
Electrode surface area : 0.001 cm²
Characteristic mass : 0.001 g
Equivalent Weight : 0.000 g/eq.
Density : 0.000 g/cm3
Volume (V) : 0.001 cm³
Cycle Definition : Charge/Discharge alternance
Mode                Single sine
E (V)               0.0000
vs.                 Eoc
tE (h:m:s)          0:00:0.0000
record              0
dI                  0.000
unit dI             mA
dt (s)              0.000
fi                  100.000
unit fi             kHz
ff                  10.000
unit ff             mHz
Nd                  6
Points              per decade
spacing             Logarithmic
Va (mV)             5.0
pw                  0.10
Na                  2
corr                0
E range min (V)     -10.000
E range max (V)     10.000
I Range             Auto
Bandwidth           5
nc cycles           0
goto Ns'            0
nr cycles           0
inc. cycle          0

freq/Hz	Re(Z)/Ohm	-Im(Z)/Ohm	|Z|/Ohm	Phase(Z)/deg	time/s	<Ewe>/V	<I>/mA	Cs/µF	Cp/µF	cycle number	I Range	|Ewe|/V	|I|/A	Ns	(Q-Qo)/mA.h	Re(Y)/Ohm-1	Im(Y)/Ohm-1	|Y|/Ohm-1	Phase(Y)/deg	Re(C)/nF	Im(C)/nF	|C|/nF	Phase(C)/deg	Re(M)	Im(M)	|M|	Phase(M)/deg	Re(Permittivity)	Im(Permittivity)	|Permittivity|	Phase(Permittivity)/deg	Re(Resistivity)/Ohm.cm	Im(Resistivity)/Ohm.cm	|Resistivity|/Ohm.cm	Phase(Resistivity)/deg	Re(Conductivity)/mS/cm	Im(Conductivity)/mS/cm	|Conductivity|/mS/cm	Phase(Conductivity)/deg	Tan(Delta)	Loss Angle(Delta)/deg	dq/mA.h	Pwe/W	Rwe/Ohm
100004	0.966986	0.181456	0.983864	-10.628	1.86449	0.277666	0.025894	8.77066	0.298336	1	9	0.00467544	0.00475212	0	-1.20565e-05	0.998965	0.187457	1.0164	10.628	298.336	1589.84	1617.59	-79.372	0.0000000E+000	0.0000000E+000	0.0000000E+000	79.372	0.0000000E+000	0.0000000E+000	0.0000000E+000	-79.372	0.0000000E+000	0.0000000E+000	0.0000000E+000	-10.628	0.0000000E+000	0.0000000E+000	0.0000000E+000	10.628	5.32903	79.372	-1.20565e-05	7.18989e-06	10723.2
46420.4	1.05941	0.228704	1.08382	-12.1819	2.88048	0.277656	0.0296234	14.9913	0.667532	1	9	0.00505725	0.00466614	0	-2.32477e-05	0.901888	0.194697	0.922664	12.1819	667.532	3092.18	3163.41	-77.8181	0.0000000E+000	0.0000000E+000	0.0000000E+000	77.8181	0.0000000E+000	0.0000000E+000	0.0000000E+000	-77.8181	0.0000000E+000	0.0000000E+000	0.0000000E+000	-12.1819	0.0000000E+000	0.0000000E+000	0.0000000E+000	12.1819	4.63225	77.8181	-2.50947e-06	8.2251e-06	9372.85
21544.7	1.17065	0.301125	1.20876	-14.4254	3.75548	0.277626	0.0237497	24.5321	1.52247	1	9	0.00544305	0.00450302	0	-1.86596e-05	0.801215	0.206096	0.827297	14.4254	1522.47	5918.74	6111.41	-75.5746	0.0000000E+000	0.0000000E+000	0.0000000E+000	75.5746	0.0000000E+000	0.0000000E+000	0.0000000E+000	-75.5746	0.0000000E+000	0.0000000E+000	0.0000000E+000	-14.4254	0.0000000E+000	0.0000000E+000	0.0000000E+000	14.4254	3.88758	75.5746	7.34775e-06	6.59352e-06	11689.7
10002.2	1.31958	0.395039	1.37744	-16.666	4.62949	0.27763	0.0291758	40.2795	3.31297	1	9	0.0050371	0.00365685	0	-1.97602e-05	0.695488	0.208207	0.725985	16.666	3312.97	11066.6	11551.8	-73.334	0.0000000E+000	0.0000000E+000	0.0000000E+000	73.334	0.0000000E+000	0.0000000E+000	0.0000000E+000	-73.334	0.0000000E+000	0.0000000E+000	0.0000000E+000	-16.666	0.0000000E+000	0.0000000E+000	0.0000000E+000	16.666	3.34037	73.334	3.79698e-06	8.10009e-06	9515.77
4641.49	1.51656	0.525237	1.60494	-19.1027	5.47868	0.277625	0.0260245	65.2842	6.99196	1	9	0.0048891	0.00304628	0	-1.54428e-05	0.588765	0.203909	0.623075	19.1027	6991.96	20188.5	21365	-70.8973	0.0000000E+000	0.0000000E+000	0.0000000E+000	70.8973	0.0000000E+000	0.0000000E+000	0.0000000E+000	-70.8973	0.0000000E+000	0.0000000E+000	0.0000000E+000	-19.1027	0.0000000E+000	0.0000000E+000	0.0000000E+000	19.1027	2.88739	70.8973	5.65889e-06	7.22506e-06	10667.8
2155.69	1.76548	0.693711	1.89688	-21.4514	6.41267	0.277614	0.0282435	106.428	14.2342	1	9	0.00473632	0.0024969	0	-8.11842e-06	0.490662	0.192796	0.527181	21.4514	14234.2	36225.7	38921.9	-68.5486	0.0000000E+000	0.0000000E+000	0.0000000E+000	68.5486	0.0000000E+000	0.0000000E+000	0.0000000E+000	-68.5486	0.0000000E+000	0.0000000E+000	0.0000000E+000	-21.4514	0.0000000E+000	0.0000000E+000	0.0000000E+000	21.4514	2.54498	68.5486	4.84129e-06	7.84079e-06	9829.32
1000.32	2.08493	0.954278	2.29294	-24.5937	7.3487	0.27759	0.023992	166.727	28.8783	1	9	0.00466466	0.00203436	0	-2.39118e-06	0.396557	0.181506	0.436122	24.5937	28878.3	63093.9	69388.7	-65.4063	0.0000000E+000	0.0000000E+000	0.0000000E+000	65.4063	0.0000000E+000	0.0000000E+000	0.0000000E+000	-65.4063	0.0000000E+000	0.0000000E+000	0.0000000E+000	-24.5937	0.0000000E+000	0.0000000E+000	0.0000000E+000	24.5937	2.18482	65.4063	1.20481e-06	6.65995e-06	11570.1
463.961	2.51701	1.37241	2.86685	-28.6017	8.28318	0.277616	0.0244581	249.95	57.2814	1	9	0.00463253	0.0016159	0	2.9974e-06	0.306248	0.166984	0.348815	28.6017	57281.4	105054	119656	-61.3983	0.0000000E+000	0.0000000E+000	0.0000000E+000	61.3983	0.0000000E+000	0.0000000E+000	0.0000000E+000	-61.3983	0.0000000E+000	0.0000000E+000	0.0000000E+000	-28.6017	0.0000000E+000	0.0000000E+000	0.0000000E+000	28.6017	1.834	61.3983	3.65913e-06	6.78997e-06	11350.7
215.345	3.18092	2.02348	3.76997	-32.4617	9.47041	0.277615	-0.0196164	365.248	105.222	1	10	0.0046417	0.00123123	0	-3.28802e-07	0.223808	0.142371	0.265254	32.4617	105222	165410	196042	-57.5383	0.0000000E+000	0.0000000E+000	0.0000000E+000	57.5383	0.0000000E+000	0.0000000E+000	0.0000000E+000	-57.5383	0.0000000E+000	0.0000000E+000	0.0000000E+000	-32.4617	0.0000000E+000	0.0000000E+000	0.0000000E+000	32.4617	1.572	57.5383	-3.52784e-06	-5.44581e-06	14152.2
100.032	4.33152	2.91974	5.22369	-33.9827	10.4017	0.277608	-0.019402	544.925	170.244	1	10	0.00462605	0.00088559	0	-4.04716e-06	0.15874	0.107002	0.191436	33.9827	170244	252561	304582	-56.0173	0.0000000E+000	0.0000000E+000	0.0000000E+000	56.0173	0.0000000E+000	0.0000000E+000	0.0000000E+000	-56.0173	0.0000000E+000	0.0000000E+000	0.0000000E+000	-33.9827	0.0000000E+000	0.0000000E+000	0.0000000E+000	33.9827	1.48353	56.0173	-1.67327e-06	-5.38614e-06	14308.2
46.4415	6.2403	3.71103	7.26038	-30.7394	11.3356	0.277612	-0.0209681	923.463	241.262	1	10	0.00461001	0.000634955	0	-8.35461e-06	0.118382	0.0704005	0.137734	30.7394	241262	405696	472013	-59.2606	0.0000000E+000	0.0000000E+000	0.0000000E+000	59.2606	0.0000000E+000	0.0000000E+000	0.0000000E+000	-59.2606	0.0000000E+000	0.0000000E+000	0.0000000E+000	-30.7394	0.0000000E+000	0.0000000E+000	0.0000000E+000	30.7394	1.68156	59.2606	-2.53755e-06	-5.821e-06	13239.7
21.5517	8.57121	3.74778	9.35476	-23.6175	12.2213	0.277619	-0.0235728	1970.44	316.262	1	10	0.00461043	0.000492844	0	-1.46686e-05	0.0979438	0.0428262	0.106897	23.6175	316262	723294	789415	-66.3825	0.0000000E+000	0.0000000E+000	0.0000000E+000	66.3825	0.0000000E+000	0.0000000E+000	0.0000000E+000	-66.3825	0.0000000E+000	0.0000000E+000	0.0000000E+000	-23.6175	0.0000000E+000	0.0000000E+000	0.0000000E+000	23.6175	2.28701	66.3825	-3.7761e-06	-6.54425e-06	11777.1
10.0032	10.4833	3.13967	10.9434	-16.6726	13.1667	0.277616	-0.0187289	5067.53	417.123	1	10	0.00461566	0.000421778	0	-1.53716e-05	0.087538	0.026217	0.0913796	16.6726	417123	1.39276e+06	1.45389e+06	-73.3274	0.0000000E+000	0.0000000E+000	0.0000000E+000	73.3274	0.0000000E+000	0.0000000E+000	0.0000000E+000	-73.3274	0.0000000E+000	0.0000000E+000	0.0000000E+000	-16.6726	0.0000000E+000	0.0000000E+000	0.0000000E+000	16.6726	3.33898	73.3274	1.07606e-06	-5.19947e-06	14822.9
4.63925	11.8617	2.46774	12.1157	-11.7523	14.2313	0.277627	-0.0140309	13901.9	576.736	1	11	0.00460804	0.000380338	0	-2.38481e-05	0.0808076	0.0168114	0.0825378	11.7523	576736	2.7722e+06	2.83156e+06	-78.2477	0.0000000E+000	0.0000000E+000	0.0000000E+000	78.2477	0.0000000E+000	0.0000000E+000	0.0000000E+000	-78.2477	0.0000000E+000	0.0000000E+000	0.0000000E+000	-11.7523	0.0000000E+000	0.0000000E+000	0.0000000E+000	11.7523	4.8067	78.2477	-6.08927e-06	-3.89534e-06	19786.9
2.15577	12.8473	1.96871	12.9973	-8.71216	15.9568	0.277638	-0.0132025	37500.5	860.389	1	11	0.00461435	0.000355025	0	-2.73638e-05	0.0760515	0.011654	0.0769392	8.71216	860389	5.61469e+06	5.68023e+06	-81.2878	0.0000000E+000	0.0000000E+000	0.0000000E+000	81.2878	0.0000000E+000	0.0000000E+000	0.0000000E+000	-81.2878	0.0000000E+000	0.0000000E+000	0.0000000E+000	-8.71216	0.0000000E+000	0.0000000E+000	0.0000000E+000	8.71216	6.52576	81.2878	2.16542e-06	-3.66551e-06	21029.3
1.00006	13.59	1.61527	13.6857	-6.77821	19.5701	0.277641	-0.0106289	98525.2	1372.48	1	11	0.00460525	0.000336502	0	-2.74548e-05	0.0725584	0.00862408	0.0730691	6.77821	1.37248e+06	1.15473e+07	1.16286e+07	-83.2218	0.0000000E+000	0.0000000E+000	0.0000000E+000	83.2218	0.0000000E+000	0.0000000E+000	0.0000000E+000	-83.2218	0.0000000E+000	0.0000000E+000	0.0000000E+000	-6.77821	0.0000000E+000	0.0000000E+000	0.0000000E+000	6.77821	8.41347	83.2218	-3.73035e-06	-2.95102e-06	26121.3
0.464091	14.1549	1.4861	14.2327	-5.99344	27.2545	0.277651	-0.00748687	230765	2515.89	1	11	0.00461332	0.000324136	0	-7.46843e-05	0.0698768	0.00733626	0.0702608	5.99344	2.51589e+06	2.39635e+07	2.40952e+07	-84.0066	0.0000000E+000	0.0000000E+000	0.0000000E+000	84.0066	0.0000000E+000	0.0000000E+000	0.0000000E+000	-84.0066	0.0000000E+000	0.0000000E+000	0.0000000E+000	-5.99344	0.0000000E+000	0.0000000E+000	0.0000000E+000	5.99344	9.52485	84.0066	-3.12832e-05	-2.07874e-06	37085.1
0.215268	14.705	1.67117	14.7996	-6.48367	43.7326	0.277645	-0.0082199	442404	5641.07	1	11	0.00461369	0.000311744	0	-0.000150959	0.0671371	0.00762993	0.0675693	6.48367	5.64107e+06	4.96368e+07	4.99563e+07	-83.5163	0.0000000E+000	0.0000000E+000	0.0000000E+000	83.5163	0.0000000E+000	0.0000000E+000	0.0000000E+000	-83.5163	0.0000000E+000	0.0000000E+000	0.0000000E+000	-6.48367	0.0000000E+000	0.0000000E+000	0.0000000E+000	6.48367	8.79918	83.5163	-3.56498e-05	-2.28222e-06	33777.2
0.0999041	15.2602	2.35416	15.4407	-8.76978	79.1391	0.27765	-0.00646306	676708	15730.4	1	11	0.00461745	0.000299044	0	-0.000128232	0.0640068	0.00987421	0.064764	8.76978	1.57304e+07	1.01968e+08	1.03174e+08	-81.2302	0.0000000E+000	0.0000000E+000	0.0000000E+000	81.2302	0.0000000E+000	0.0000000E+000	0.0000000E+000	-81.2302	0.0000000E+000	0.0000000E+000	0.0000000E+000	-8.76978	0.0000000E+000	0.0000000E+000	0.0000000E+000	8.76978	6.48222	81.2302	3.34301e-05	-1.79447e-06	42959.5
0.0464052	16.2001	3.5516	16.5848	-12.3655	176.995	0.277653	-0.00179612	965671	44284.9	1	12	0.00461196	0.000278083	0	3.43039e-05	0.0588973	0.0129123	0.0602961	12.3655	4.42849e+07	2.01999e+08	2.06796e+08	-77.6345	0.0000000E+000	0.0000000E+000	0.0000000E+000	77.6345	0.0000000E+000	0.0000000E+000	0.0000000E+000	-77.6345	0.0000000E+000	0.0000000E+000	0.0000000E+000	-12.3655	0.0000000E+000	0.0000000E+000	0.0000000E+000	12.3655	4.56134	77.6345	8.90394e-05	-4.98698e-07	154585
0.0215268	17.5942	5.69005	18.4914	-17.9214	341.225	0.277656	0.000893695	1.29935e+06	123031	1	12	0.00461656	0.000249659	0	-0.000107739	0.0514551	0.0166408	0.0540791	17.9214	1.23031e+08	3.80426e+08	3.99825e+08	-72.0786	0.0000000E+000	0.0000000E+000	0.0000000E+000	72.0786	0.0000000E+000	0.0000000E+000	0.0000000E+000	-72.0786	0.0000000E+000	0.0000000E+000	0.0000000E+000	-17.9214	0.0000000E+000	0.0000000E+000	0.0000000E+000	17.9214	3.0921	72.0786	-0.000166584	2.48139e-07	310683
0.0100092	19.5973	9.02197	21.5743	-24.7199	694.439	0.277664	-0.00117342	1.76247e+06	308214	1	12	0.00461383	0.000213858	0	-0.00117581	0.042104	0.0193834	0.0463516	24.7199	3.08214e+08	6.69493e+08	7.37032e+08	-65.2801	0.0000000E+000	0.0000000E+000	0.0000000E+000	65.2801	0.0000000E+000	0.0000000E+000	0.0000000E+000	-65.2801	0.0000000E+000	0.0000000E+000	0.0000000E+000	-24.7199	0.0000000E+000	0.0000000E+000	0.0000000E+000	24.7199	2.17217	65.2801	-0.000630888	-3.25818e-07	236627