File: txt/17686_R288_UA670_SOC00_C01.mpt
EC-Lab ASCII FILE

Nb header lines : 63

Potentio Electrochemical Impedance Spectroscopy

Run on channel : 1 (SN 66354)
User :
CE vs. WE compliance from -10 V to 10 V
Electrode connection : standard
Potential control : Ewe
Ewe ctrl range : min = -10.00 V, max = 10.00 V
Safety Limits :
	Do not start on E overload
Acquisition started on : 09/22/2025 08:43:30.064
Loaded Setting File :  C:\Users\Celltest\OneDrive - store-dot.com\Documents\EC-Lab\Data\txt_done\14380_R229_UA592_SOC00_C01.mpr
Saved on :
	File : 17686_R288_UA670_SOC00_C01.mpr
	Directory : C:\Users\Celltest\OneDrive - store-dot.com\Documents\EC-Lab\Data\Charmaine\
	Host : 169.254.61.224
Device : VMP-3e (SN .003165)
Address : USB
EC-LAB for windows v11.62 (software)
Internet server v27.00 (firmware)
Command interpretor v12.03 (firmware)
Electrode material :
Initial state :
Electrolyte :
Comments :
Electrode surface area : 0.001 cm²
Characteristic mass : 0.001 g
Equivalent Weight : 0.000 g/eq.
Density : 0.000 g/cm3
Volume (V) : 0.001 cm³
Cycle Definition : Charge/Discharge alternance
Mode                Single sine
E (V)               0.0000
vs.                 Eoc
tE (h:m:s)          0:00:0.0000
record              0
dI                  0.000
unit dI             mA
dt (s)              0.000
fi                  100.000
unit fi             kHz
ff                  10.000
unit ff             mHz
Nd                  6
Points              per decade
spacing             Logarithmic
Va (mV)             5.0
pw                  0.10
Na                  2
corr                0
E range min (V)     -10.000
E range max (V)     10.000
I Range             Auto
Bandwidth           5
nc cycles           0
goto Ns'            0
nr cycles           0
inc. cycle          0

freq/Hz	Re(Z)/Ohm	-Im(Z)/Ohm	|Z|/Ohm	Phase(Z)/deg	time/s	<Ewe>/V	<I>/mA	Cs/µF	Cp/µF	cycle number	I Range	|Ewe|/V	|I|/A	Ns	(Q-Qo)/mA.h	Re(Y)/Ohm-1	Im(Y)/Ohm-1	|Y|/Ohm-1	Phase(Y)/deg	Re(C)/nF	Im(C)/nF	|C|/nF	Phase(C)/deg	Re(M)	Im(M)	|M|	Phase(M)/deg	Re(Permittivity)	Im(Permittivity)	|Permittivity|	Phase(Permittivity)/deg	Re(Resistivity)/Ohm.cm	Im(Resistivity)/Ohm.cm	|Resistivity|/Ohm.cm	Phase(Resistivity)/deg	Re(Conductivity)/mS/cm	Im(Conductivity)/mS/cm	|Conductivity|/mS/cm	Phase(Conductivity)/deg	Tan(Delta)	Loss Angle(Delta)/deg	dq/mA.h	Pwe/W	Rwe/Ohm
100004	1.01954	0.182655	1.03577	-10.1571	2.06749	0.268874	0.0677239	8.71309	0.270962	1	9	0.00464679	0.00448631	0	6.97729e-06	0.950334	0.170257	0.965465	10.1571	270.962	1512.45	1536.53	-79.8429	0.0000000E+000	0.0000000E+000	0.0000000E+000	79.8429	0.0000000E+000	0.0000000E+000	0.0000000E+000	-79.8429	0.0000000E+000	0.0000000E+000	0.0000000E+000	-10.1571	0.0000000E+000	0.0000000E+000	0.0000000E+000	10.1571	5.58177	79.8429	6.97729e-06	1.82092e-05	3970.16
46420.4	1.10749	0.225698	1.13025	-11.5187	3.0835	0.268867	0.0688229	15.1909	0.605741	1	9	0.00502246	0.00444365	0	3.29916e-05	0.866937	0.176675	0.884757	11.5187	605.741	2972.35	3033.44	-78.4813	0.0000000E+000	0.0000000E+000	0.0000000E+000	78.4813	0.0000000E+000	0.0000000E+000	0.0000000E+000	-78.4813	0.0000000E+000	0.0000000E+000	0.0000000E+000	-11.5187	0.0000000E+000	0.0000000E+000	0.0000000E+000	11.5187	4.90696	78.4813	9.94371e-06	1.85042e-05	3906.66
21544.7	1.21732	0.2945	1.25243	-13.6	3.95848	0.268863	0.0635514	25.0839	1.38694	1	9	0.00540856	0.00431844	0	4.37587e-05	0.776058	0.187748	0.798446	13.6	1386.94	5732.9	5898.28	-76.4	0.0000000E+000	0.0000000E+000	0.0000000E+000	76.4	0.0000000E+000	0.0000000E+000	0.0000000E+000	-76.4	0.0000000E+000	0.0000000E+000	0.0000000E+000	-13.6	0.0000000E+000	0.0000000E+000	0.0000000E+000	13.6	4.1335	76.4	2.80855e-06	1.70866e-05	4230.65
10002.2	1.35985	0.383283	1.41283	-15.7408	4.83348	0.268866	0.0628435	41.5149	3.05534	1	9	0.00515085	0.00364576	0	5.9225e-05	0.681254	0.192016	0.707797	15.7408	3055.34	10840.1	11262.4	-74.2592	0.0000000E+000	0.0000000E+000	0.0000000E+000	74.2592	0.0000000E+000	0.0000000E+000	0.0000000E+000	-74.2592	0.0000000E+000	0.0000000E+000	0.0000000E+000	-15.7408	0.0000000E+000	0.0000000E+000	0.0000000E+000	15.7408	3.54791	74.2592	9.43405e-06	1.68965e-05	4278.34
4641.49	1.54761	0.500851	1.62664	-17.9331	5.68267	0.268842	0.0544799	68.4628	6.49069	1	9	0.00534549	0.00328623	0	6.55619e-05	0.584898	0.18929	0.614766	17.9331	6490.69	20056	21080.1	-72.0669	0.0000000E+000	0.0000000E+000	0.0000000E+000	72.0669	0.0000000E+000	0.0000000E+000	0.0000000E+000	-72.0669	0.0000000E+000	0.0000000E+000	0.0000000E+000	-17.9331	0.0000000E+000	0.0000000E+000	0.0000000E+000	17.9331	3.08996	72.0669	4.17299e-06	1.46465e-05	4934.7
2155.69	1.78379	0.666917	1.90439	-20.4996	6.6167	0.268835	0.053027	110.704	13.5767	1	9	0.00522067	0.00274139	0	7.78854e-05	0.491851	0.183891	0.525103	20.4996	13576.7	36313.4	38768.5	-69.5004	0.0000000E+000	0.0000000E+000	0.0000000E+000	69.5004	0.0000000E+000	0.0000000E+000	0.0000000E+000	-69.5004	0.0000000E+000	0.0000000E+000	0.0000000E+000	-20.4996	0.0000000E+000	0.0000000E+000	0.0000000E+000	20.4996	2.67468	69.5004	6.6544e-06	1.42555e-05	5069.77
1000.32	2.08334	0.918951	2.27701	-23.802	7.55271	0.268833	0.0527848	173.136	28.1996	1	9	0.00513564	0.00225543	0	9.0976e-05	0.401818	0.17724	0.439172	23.802	28199.6	63930.9	69874	-66.198	0.0000000E+000	0.0000000E+000	0.0000000E+000	66.198	0.0000000E+000	0.0000000E+000	0.0000000E+000	-66.198	0.0000000E+000	0.0000000E+000	0.0000000E+000	-23.802	0.0000000E+000	0.0000000E+000	0.0000000E+000	23.802	2.26709	66.198	8.43372e-06	1.41903e-05	5093
463.961	2.50112	1.33928	2.83713	-28.1678	8.48722	0.26883	0.0571063	256.134	57.076	1	9	0.00509314	0.00179518	0	0.000105093	0.310726	0.166385	0.352469	28.1678	57076	106590	120909	-61.8322	0.0000000E+000	0.0000000E+000	0.0000000E+000	61.8322	0.0000000E+000	0.0000000E+000	0.0000000E+000	-61.8322	0.0000000E+000	0.0000000E+000	0.0000000E+000	-28.1678	0.0000000E+000	0.0000000E+000	0.0000000E+000	28.1678	1.86751	61.8322	7.21e-06	1.53519e-05	4707.54
215.345	3.20167	1.97066	3.75955	-31.6127	9.67446	0.268857	-0.00916497	375.038	103.045	1	10	0.0050949	0.00135519	0	0.000107577	0.22652	0.139425	0.26599	31.6127	103045	167414	196585	-58.3873	0.0000000E+000	0.0000000E+000	0.0000000E+000	58.3873	0.0000000E+000	0.0000000E+000	0.0000000E+000	-58.3873	0.0000000E+000	0.0000000E+000	0.0000000E+000	-31.6127	0.0000000E+000	0.0000000E+000	0.0000000E+000	31.6127	1.62467	58.3873	7.25741e-08	-2.46406e-06	29335.2
100.032	4.3627	2.75627	5.16045	-32.2839	10.6057	0.268849	-0.00927865	577.244	164.675	1	10	0.00507604	0.000983644	0	0.000103769	0.163825	0.103502	0.193782	32.2839	164675	260653	308314	-57.7161	0.0000000E+000	0.0000000E+000	0.0000000E+000	57.7161	0.0000000E+000	0.0000000E+000	0.0000000E+000	-57.7161	0.0000000E+000	0.0000000E+000	0.0000000E+000	-32.2839	0.0000000E+000	0.0000000E+000	0.0000000E+000	32.2839	1.58283	57.7161	-2.04982e-06	-2.49455e-06	28975
46.4415	6.16719	3.31542	7.00187	-28.2621	11.5395	0.268849	-0.0121875	1033.65	231.752	1	10	0.00505882	0.000722495	0	0.00010059	0.125794	0.0676255	0.142819	28.2621	231752	431094	489440	-61.7379	0.0000000E+000	0.0000000E+000	0.0000000E+000	61.7379	0.0000000E+000	0.0000000E+000	0.0000000E+000	-61.7379	0.0000000E+000	0.0000000E+000	0.0000000E+000	-28.2621	0.0000000E+000	0.0000000E+000	0.0000000E+000	28.2621	1.86015	61.7379	-1.72024e-06	-3.27661e-06	22059.3
21.5517	8.17144	3.16265	8.76213	-21.1583	12.4253	0.268849	-0.0138908	2335	304.208	1	10	0.00505859	0.000577325	0	9.7755e-05	0.106434	0.0411938	0.114128	21.1583	304208	785992	842808	-68.8417	0.0000000E+000	0.0000000E+000	0.0000000E+000	68.8417	0.0000000E+000	0.0000000E+000	0.0000000E+000	-68.8417	0.0000000E+000	0.0000000E+000	0.0000000E+000	-21.1583	0.0000000E+000	0.0000000E+000	0.0000000E+000	21.1583	2.58373	68.8417	-1.65345e-06	-3.73451e-06	19354.5
10.0032	9.7295	2.5667	10.0624	-14.7783	13.3707	0.268852	-0.00915568	6198.79	403.326	1	10	0.00506247	0.00050311	0	9.26136e-05	0.0960928	0.0253498	0.0993803	14.7783	403326	1.52888e+06	1.58118e+06	-75.2217	0.0000000E+000	0.0000000E+000	0.0000000E+000	75.2217	0.0000000E+000	0.0000000E+000	0.0000000E+000	-75.2217	0.0000000E+000	0.0000000E+000	0.0000000E+000	-14.7783	0.0000000E+000	0.0000000E+000	0.0000000E+000	14.7783	3.79067	75.2217	-3.51965e-06	-2.46152e-06	29364.5
4.63925	10.7959	1.96896	10.974	-10.336	14.4353	0.268885	-0.00359584	17423.5	560.89	1	11	0.00505389	0.000460532	0	9.00559e-05	0.0896456	0.0163495	0.0911243	10.336	560890	3.0754e+06	3.12613e+06	-79.664	0.0000000E+000	0.0000000E+000	0.0000000E+000	79.664	0.0000000E+000	0.0000000E+000	0.0000000E+000	-79.664	0.0000000E+000	0.0000000E+000	0.0000000E+000	-10.336	0.0000000E+000	0.0000000E+000	0.0000000E+000	10.336	5.48307	79.664	-7.77617e-07	-9.6687e-07	74776.7
2.15577	11.5603	1.55647	11.6646	-7.66818	16.1608	0.268893	-0.000919514	47432.5	844.542	1	11	0.00506289	0.00043404	0	9.69377e-05	0.0849629	0.0114394	0.0857295	7.66818	844541	6.2726e+06	6.3292e+06	-82.3318	0.0000000E+000	0.0000000E+000	0.0000000E+000	82.3318	0.0000000E+000	0.0000000E+000	0.0000000E+000	-82.3318	0.0000000E+000	0.0000000E+000	0.0000000E+000	-7.66818	0.0000000E+000	0.0000000E+000	0.0000000E+000	7.66818	7.42722	82.3318	-1.90688e-07	-2.47251e-07	292430
1.00006	12.1192	1.29527	12.1882	-6.10046	19.7742	0.268898	-2.56761e-05	122866	1387.62	1	11	0.00506439	0.000415515	0	7.37365e-05	0.0815817	0.00871922	0.0820463	6.10046	1.38762e+06	1.29833e+07	1.30572e+07	-83.8995	0.0000000E+000	0.0000000E+000	0.0000000E+000	83.8995	0.0000000E+000	0.0000000E+000	0.0000000E+000	-83.8995	0.0000000E+000	0.0000000E+000	0.0000000E+000	-6.10046	0.0000000E+000	0.0000000E+000	0.0000000E+000	6.10046	9.35653	83.8995	-1.29591e-05	-6.90425e-09	1.04727e+07
0.464091	12.5774	1.25964	12.6403	-5.71917	27.4588	0.268903	-0.00190275	272252	2703.63	1	11	0.00506545	0.000400737	0	7.73445e-05	0.0787181	0.00788371	0.0791119	5.71917	2.70363e+06	2.69955e+07	2.71306e+07	-84.2808	0.0000000E+000	0.0000000E+000	0.0000000E+000	84.2808	0.0000000E+000	0.0000000E+000	0.0000000E+000	-84.2808	0.0000000E+000	0.0000000E+000	0.0000000E+000	-5.71917	0.0000000E+000	0.0000000E+000	0.0000000E+000	5.71917	9.98491	84.2808	1.03853e-05	-5.11655e-07	141324
0.215268	12.9816	1.48383	13.0661	-6.52075	43.9387	0.268894	-0.000884537	498260	6425.85	1	11	0.00506508	0.000387649	0	0.000154428	0.0760385	0.0086914	0.0765337	6.52075	6.42585e+06	5.62179e+07	5.6584e+07	-83.4792	0.0000000E+000	0.0000000E+000	0.0000000E+000	83.4792	0.0000000E+000	0.0000000E+000	0.0000000E+000	-83.4792	0.0000000E+000	0.0000000E+000	0.0000000E+000	-6.52075	0.0000000E+000	0.0000000E+000	0.0000000E+000	6.52075	8.74871	83.4792	4.6078e-05	-2.37847e-07	303994
0.0999041	13.554	2.19573	13.7307	-9.20192	79.3442	0.268898	0.0031666	725533	18553.8	1	11	0.00506405	0.000368812	0	0.000196172	0.0718923	0.0116465	0.0728296	9.20192	1.85538e+07	1.1453e+08	1.16023e+08	-80.7981	0.0000000E+000	0.0000000E+000	0.0000000E+000	80.7981	0.0000000E+000	0.0000000E+000	0.0000000E+000	-80.7981	0.0000000E+000	0.0000000E+000	0.0000000E+000	-9.20192	0.0000000E+000	0.0000000E+000	0.0000000E+000	9.20192	6.17287	80.7981	5.91514e-07	8.51491e-07	84917
0.0464052	14.3285	3.40052	14.7265	-13.3508	155.58	0.268897	0.00192549	1.00857e+06	53777.4	1	11	0.00506582	0.000343993	0	-5.46383e-05	0.0660696	0.01568	0.0679048	13.3508	5.37774e+07	2.26598e+08	2.32892e+08	-76.6492	0.0000000E+000	0.0000000E+000	0.0000000E+000	76.6492	0.0000000E+000	0.0000000E+000	0.0000000E+000	-76.6492	0.0000000E+000	0.0000000E+000	0.0000000E+000	-13.3508	0.0000000E+000	0.0000000E+000	0.0000000E+000	13.3508	4.21362	76.6492	-0.000185804	5.17757e-07	139652
0.0215268	15.6258	5.5487	16.5817	-19.5499	366.365	0.268897	-0.00119704	1.33245e+06	149201	1	12	0.00506191	0.00030527	0	-0.000476052	0.0568306	0.0201805	0.0603073	19.5499	1.49201e+08	4.20168e+08	4.45873e+08	-70.4501	0.0000000E+000	0.0000000E+000	0.0000000E+000	70.4501	0.0000000E+000	0.0000000E+000	0.0000000E+000	-70.4501	0.0000000E+000	0.0000000E+000	0.0000000E+000	-19.5499	0.0000000E+000	0.0000000E+000	0.0000000E+000	19.5499	2.81612	70.4501	-0.000175189	-3.2188e-07	224636
0.0146812	16.5273	7.19737	18.0264	-23.5324	509.561	0.268894	-0.002056	1.50621e+06	240111	1	12	0.0050634	0.000280887	0	-0.000320026	0.0508605	0.022149	0.055474	23.5324	2.40111e+08	5.51366e+08	6.0138e+08	-66.4676	0.0000000E+000	0.0000000E+000	0.0000000E+000	66.4676	0.0000000E+000	0.0000000E+000	0.0000000E+000	-66.4676	0.0000000E+000	0.0000000E+000	0.0000000E+000	-23.5324	0.0000000E+000	0.0000000E+000	0.0000000E+000	23.5324	2.29629	66.4676	0.000156026	-5.52846e-07	130785

0.0100092	17.4649	9.13797	19.7111	-27.6194	719.581	0.268897	-0.00101068	1.74009e+06	373983	1	12	0.00506213	0.000256816	0	0.000295376	0.0449517	0.0235196	0.0507329	27.6194	3.73983e+08	7.14774e+08	8.067e+08	-62.3806	0.0000000E+000	0.0000000E+000	0.0000000E+000	62.3806	0.0000000E+000	0.0000000E+000	0.0000000E+000	-62.3806	0.0000000E+000	0.0000000E+000	0.0000000E+000	-27.6194	0.0000000E+000	0.0000000E+000	0.0000000E+000	27.6194	1.91125	62.3806	0.000615402	-2.71769e-07	266055