File: txt/17694_R287_UA658_SOC00_C01.mpt
EC-Lab ASCII FILE
Nb header lines : 63

Potentio Electrochemical Impedance Spectroscopy

Run on channel : 1 (SN 66354)
User :
CE vs. WE compliance from -10 V to 10 V
Electrode connection : standard
Potential control : Ewe
Ewe ctrl range : min = -10.00 V, max = 10.00 V
Safety Limits :
	Do not start on E overload
Acquisition started on : 09/22/2025 09:03:24.167
Loaded Setting File :  C:\Users\Celltest\OneDrive - store-dot.com\Documents\EC-Lab\Data\txt_done\14380_R229_UA592_SOC00_C01.mpr
Saved on :
	File : 17694_R287_UA658_SOC00_C01.mpr
	Directory : C:\Users\Celltest\OneDrive - store-dot.com\Documents\EC-Lab\Data\Charmaine\
	Host : 169.254.61.224
Device : VMP-3e (SN .003165)
Address : USB
EC-LAB for windows v11.62 (software)
Internet server v27.00 (firmware)
Command interpretor v12.03 (firmware)
Electrode material :
Initial state :
Electrolyte :
Comments :
Electrode surface area : 0.001 cm²
Characteristic mass : 0.001 g
Equivalent Weight : 0.000 g/eq.
Density : 0.000 g/cm3
Volume (V) : 0.001 cm³
Cycle Definition : Charge/Discharge alternance
Mode                Single sine
E (V)               0.0000
vs.                 Eoc
tE (h:m:s)          0:00:0.0000
record              0
dI                  0.000
unit dI             mA
dt (s)              0.000
fi                  100.000
unit fi             kHz
ff                  10.000
unit ff             mHz
Nd                  6
Points              per decade
spacing             Logarithmic
Va (mV)             5.0
pw                  0.10
Na                  2
corr                0
E range min (V)     -10.000
E range max (V)     10.000
I Range             Auto
Bandwidth           5
nc cycles           0
goto Ns'            0
nr cycles           0
inc. cycle          0

freq/Hz	Re(Z)/Ohm	-Im(Z)/Ohm	|Z|/Ohm	Phase(Z)/deg	time/s	<Ewe>/V	<I>/mA	Cs/µF	Cp/µF	cycle number	I Range	|Ewe|/V	|I|/A	Ns	(Q-Qo)/mA.h	Re(Y)/Ohm-1	Im(Y)/Ohm-1	|Y|/Ohm-1	Phase(Y)/deg	Re(C)/nF	Im(C)/nF	|C|/nF	Phase(C)/deg	Re(M)	Im(M)	|M|	Phase(M)/deg	Re(Permittivity)	Im(Permittivity)	|Permittivity|	Phase(Permittivity)/deg	Re(Resistivity)/Ohm.cm	Im(Resistivity)/Ohm.cm	|Resistivity|/Ohm.cm	Phase(Resistivity)/deg	Re(Conductivity)/mS/cm	Im(Conductivity)/mS/cm	|Conductivity|/mS/cm	Phase(Conductivity)/deg	Tan(Delta)	Loss Angle(Delta)/deg	dq/mA.h	Pwe/W	Rwe/Ohm
100004	0.974703	0.0170145	0.974852	-1.00006	1.86549	0.273634	0.0742434	93.5372	0.0284935	1	9	0.00491496	0.00504175	0	8.03735e-06	1.02564	0.0179037	1.0258	1.00006	28.4936	1632.3	1632.55	-88.9999	0.0000000E+000	0.0000000E+000	0.0000000E+000	88.9999	0.0000000E+000	0.0000000E+000	0.0000000E+000	-88.9999	0.0000000E+000	0.0000000E+000	0.0000000E+000	-1.00006	0.0000000E+000	0.0000000E+000	0.0000000E+000	1.00006	57.2866	88.9999	8.03735e-06	2.03155e-05	3685.64
46420.4	0.876142	0.416152	0.969952	-25.4069	3.0225	0.2736	0.0801668	8.23873	1.51657	1	9	0.00489196	0.00504351	0	2.10708e-05	0.931267	0.442335	1.03098	25.4069	1516.57	3192.9	3534.77	-64.5931	0.0000000E+000	0.0000000E+000	0.0000000E+000	64.5931	0.0000000E+000	0.0000000E+000	0.0000000E+000	-64.5931	0.0000000E+000	0.0000000E+000	0.0000000E+000	-25.4069	0.0000000E+000	0.0000000E+000	0.0000000E+000	25.4069	2.10534	64.5931	1.16326e-05	2.19336e-05	3412.88
21544.7	1.14079	0.289415	1.17693	-14.2355	4.03949	0.273617	0.0809864	25.5246	1.54348	1	9	0.00498476	0.0042354	0	6.02134e-05	0.82358	0.20894	0.84967	14.2355	1543.48	6083.95	6276.69	-75.7645	0.0000000E+000	0.0000000E+000	0.0000000E+000	75.7645	0.0000000E+000	0.0000000E+000	0.0000000E+000	-75.7645	0.0000000E+000	0.0000000E+000	0.0000000E+000	-14.2355	0.0000000E+000	0.0000000E+000	0.0000000E+000	14.2355	3.9417	75.7645	1.41186e-05	2.21593e-05	3378.56
10002.2	1.27618	0.369897	1.32871	-16.164	4.77248	0.273625	0.07456	43.0173	3.33385	1	9	0.00491122	0.00369624	0	8.11088e-05	0.72286	0.209518	0.752611	16.164	3333.85	11502.1	11975.5	-73.836	0.0000000E+000	0.0000000E+000	0.0000000E+000	73.836	0.0000000E+000	0.0000000E+000	0.0000000E+000	-73.836	0.0000000E+000	0.0000000E+000	0.0000000E+000	-16.164	0.0000000E+000	0.0000000E+000	0.0000000E+000	16.164	3.4501	73.836	1.38261e-05	2.04015e-05	3669.86
4641.49	1.46046	0.490237	1.54055	-18.5555	5.84471	0.273556	0.052878	69.945	7.08303	1	9	0.00503634	0.00326919	0	9.22801e-05	0.615376	0.206565	0.64912	18.5555	7083.03	21101	22258.1	-71.4445	0.0000000E+000	0.0000000E+000	0.0000000E+000	71.4445	0.0000000E+000	0.0000000E+000	0.0000000E+000	-71.4445	0.0000000E+000	0.0000000E+000	0.0000000E+000	-18.5555	0.0000000E+000	0.0000000E+000	0.0000000E+000	18.5555	2.9791	71.4445	1.28938e-05	1.44651e-05	5173.34
2155.69	1.69674	0.647141	1.81596	-20.877	6.77769	0.273546	0.0470104	114.087	14.4884	1	9	0.00488398	0.00268947	0	0.000105823	0.514519	0.196239	0.550672	20.877	14488.4	37987	40656.2	-69.123	0.0000000E+000	0.0000000E+000	0.0000000E+000	69.123	0.0000000E+000	0.0000000E+000	0.0000000E+000	-69.123	0.0000000E+000	0.0000000E+000	0.0000000E+000	-20.877	0.0000000E+000	0.0000000E+000	0.0000000E+000	20.877	2.6219	69.123	8.42888e-06	1.28595e-05	5818.84
1000.32	1.99715	0.880176	2.1825	-23.7839	7.71367	0.273553	0.0481653	180.764	29.3997	1	9	0.00484281	0.00221893	0	0.000116715	0.419278	0.184783	0.45819	23.7839	29399.7	66708.7	72899.9	-66.2161	0.0000000E+000	0.0000000E+000	0.0000000E+000	66.2161	0.0000000E+000	0.0000000E+000	0.0000000E+000	-66.2161	0.0000000E+000	0.0000000E+000	0.0000000E+000	-23.7839	0.0000000E+000	0.0000000E+000	0.0000000E+000	23.7839	2.26903	66.2161	4.41083e-06	1.31757e-05	5679.46
463.961	2.38917	1.24921	2.69605	-27.6033	8.6472	0.273551	0.053474	274.603	58.9547	1	9	0.00482492	0.00178963	0	0.000128863	0.328695	0.171862	0.370914	27.6033	58954.8	112754	127236	-62.3967	0.0000000E+000	0.0000000E+000	0.0000000E+000	62.3967	0.0000000E+000	0.0000000E+000	0.0000000E+000	-62.3967	0.0000000E+000	0.0000000E+000	0.0000000E+000	-27.6033	0.0000000E+000	0.0000000E+000	0.0000000E+000	27.6033	1.91255	62.3967	7.21877e-06	1.46279e-05	5115.59
215.345	3.02608	1.82264	3.53259	-31.0609	9.83344	0.273599	-0.0221105	405.495	107.944	1	10	0.00483987	0.00137006	0	0.000126434	0.24249	0.146054	0.283079	31.0609	107944	179218	209215	-58.9391	0.0000000E+000	0.0000000E+000	0.0000000E+000	58.9391	0.0000000E+000	0.0000000E+000	0.0000000E+000	-58.9391	0.0000000E+000	0.0000000E+000	0.0000000E+000	-31.0609	0.0000000E+000	0.0000000E+000	0.0000000E+000	31.0609	1.66028	58.9391	-3.81986e-06	-6.04941e-06	12374.2
100.032	4.05245	2.58191	4.80506	-32.5022	10.7647	0.27358	-0.0217732	616.226	177.92	1	10	0.00482304	0.00100374	0	0.000122201	0.175517	0.111826	0.208114	32.5022	177920	279255	331117	-57.4978	0.0000000E+000	0.0000000E+000	0.0000000E+000	57.4978	0.0000000E+000	0.0000000E+000	0.0000000E+000	-57.4978	0.0000000E+000	0.0000000E+000	0.0000000E+000	-32.5022	0.0000000E+000	0.0000000E+000	0.0000000E+000	32.5022	1.56956	57.4978	-1.95035e-06	-5.95672e-06	12565
46.4415	5.70375	3.2594	6.56936	-29.7457	11.6986	0.273586	-0.0244343	1051.42	258.824	1	10	0.00481469	0.000732902	0	0.000117496	0.132164	0.0755251	0.152222	29.7457	258824	452927	521664	-60.2543	0.0000000E+000	0.0000000E+000	0.0000000E+000	60.2543	0.0000000E+000	0.0000000E+000	0.0000000E+000	-60.2543	0.0000000E+000	0.0000000E+000	0.0000000E+000	-29.7457	0.0000000E+000	0.0000000E+000	0.0000000E+000	29.7457	1.74994	60.2543	-2.90263e-06	-6.68487e-06	11196.8
21.5517	7.70841	3.33854	8.40032	-23.4176	12.5843	0.273592	-0.0264953	2211.98	349.384	1	10	0.00481486	0.000573176	0	0.000110305	0.109238	0.0473113	0.119043	23.4176	349384	806698	879108	-66.5824	0.0000000E+000	0.0000000E+000	0.0000000E+000	66.5824	0.0000000E+000	0.0000000E+000	0.0000000E+000	-66.5824	0.0000000E+000	0.0000000E+000	0.0000000E+000	-23.4176	0.0000000E+000	0.0000000E+000	0.0000000E+000	23.4176	2.30891	66.5824	-4.39633e-06	-7.2489e-06	10326.1
10.0032	9.45353	2.92502	9.89571	-17.1926	13.5307	0.273596	-0.020903	5439.41	475.244	1	10	0.00481031	0.000486101	0	0.00010973	0.0965385	0.02987	0.101054	17.1926	475244	1.53597e+06	1.60781e+06	-72.8074	0.0000000E+000	0.0000000E+000	0.0000000E+000	72.8074	0.0000000E+000	0.0000000E+000	0.0000000E+000	-72.8074	0.0000000E+000	0.0000000E+000	0.0000000E+000	-17.1926	0.0000000E+000	0.0000000E+000	0.0000000E+000	17.1926	3.23195	72.8074	1.21163e-06	-5.71898e-06	13088.9
4.63925	10.834	2.40811	11.0984	-12.5316	14.5953	0.273625	-0.0101807	14246.1	670.695	1	11	0.00481523	0.000433866	0	0.000101138	0.0879562	0.0195503	0.0901027	12.5316	670695	3.01744e+06	3.09108e+06	-77.4684	0.0000000E+000	0.0000000E+000	0.0000000E+000	77.4684	0.0000000E+000	0.0000000E+000	0.0000000E+000	-77.4684	0.0000000E+000	0.0000000E+000	0.0000000E+000	-12.5316	0.0000000E+000	0.0000000E+000	0.0000000E+000	12.5316	4.49897	77.4684	-6.89142e-06	-2.78568e-06	26876.9
2.15577	11.8081	1.8911	11.9586	-9.09876	16.3198	0.273642	-0.00873419	39039.5	976.271	1	11	0.00481418	0.00040257	0	0.000102103	0.0825695	0.0132237	0.0836217	9.09876	976271	6.0959e+06	6.17358e+06	-80.9012	0.0000000E+000	0.0000000E+000	0.0000000E+000	80.9012	0.0000000E+000	0.0000000E+000	0.0000000E+000	-80.9012	0.0000000E+000	0.0000000E+000	0.0000000E+000	-9.09876	0.0000000E+000	0.0000000E+000	0.0000000E+000	9.09876	6.24407	80.9012	5.04174e-06	-2.39004e-06	31330
1.00006	12.5452	1.55383	12.6411	-7.06061	19.9331	0.273638	-0.0061613	102421	1547.49	1	11	0.00481405	0.000380826	0	0.000103441	0.0785074	0.0097238	0.0791073	7.06061	1.54749e+06	1.2494e+07	1.25895e+07	-82.9394	0.0000000E+000	0.0000000E+000	0.0000000E+000	82.9394	0.0000000E+000	0.0000000E+000	0.0000000E+000	-82.9394	0.0000000E+000	0.0000000E+000	0.0000000E+000	-7.06061	0.0000000E+000	0.0000000E+000	0.0000000E+000	7.06061	8.07373	82.9394	-4.09603e-06	-1.68597e-06	44412.4
0.464091	13.0432	1.40951	13.1192	-6.16772	27.6178	0.273642	-0.00441232	243304	2808.5	1	11	0.00481538	0.00036705	0	5.73279e-05	0.0757832	0.00818949	0.0762244	6.16772	2.8085e+06	2.5989e+07	2.61403e+07	-83.8323	0.0000000E+000	0.0000000E+000	0.0000000E+000	83.8323	0.0000000E+000	0.0000000E+000	0.0000000E+000	-83.8323	0.0000000E+000	0.0000000E+000	0.0000000E+000	-6.16772	0.0000000E+000	0.0000000E+000	0.0000000E+000	6.16772	9.25372	83.8323	-3.00877e-05	-1.2074e-06	62017.6
0.215268	13.5855	1.62845	13.6828	-6.83524	44.0978	0.273639	-0.00598338	454011	6430.83	1	11	0.00481666	0.000352024	0	-8.59083e-07	0.0725651	0.00869814	0.0730846	6.83524	6.43084e+06	5.36499e+07	5.4034e+07	-83.1648	0.0000000E+000	0.0000000E+000	0.0000000E+000	83.1648	0.0000000E+000	0.0000000E+000	0.0000000E+000	-83.1648	0.0000000E+000	0.0000000E+000	0.0000000E+000	-6.83524	0.0000000E+000	0.0000000E+000	0.0000000E+000	6.83524	8.34261	83.1648	-2.30087e-05	-1.63728e-06	45733.1
0.0999041	14.1747	2.28723	14.3581	-9.16623	79.502	0.27363	-0.00489884	696510	17674.8	1	11	0.00481619	0.000335434	0	6.84038e-05	0.068758	0.0110948	0.0696473	9.16623	1.76748e+07	1.09537e+08	1.10954e+08	-80.8338	0.0000000E+000	0.0000000E+000	0.0000000E+000	80.8338	0.0000000E+000	0.0000000E+000	0.0000000E+000	-80.8338	0.0000000E+000	0.0000000E+000	0.0000000E+000	-9.16623	0.0000000E+000	0.0000000E+000	0.0000000E+000	9.16623	6.19733	80.8338	5.89061e-05	-1.34047e-06	55856
0.0464052	15.2014	3.43685	15.5851	-12.7397	155.737	0.273624	0.000132646	997913	48528.2	1	11	0.00481626	0.00030903	0	0.000273615	0.0625842	0.0141495	0.0641638	12.7397	4.85282e+07	2.14644e+08	2.20061e+08	-77.2603	0.0000000E+000	0.0000000E+000	0.0000000E+000	77.2603	0.0000000E+000	0.0000000E+000	0.0000000E+000	-77.2603	0.0000000E+000	0.0000000E+000	0.0000000E+000	-12.7397	0.0000000E+000	0.0000000E+000	0.0000000E+000	12.7397	4.42307	77.2603	0.000108993	3.62951e-08	2.06281e+06
0.0215268	16.4842	5.56663	17.3987	-18.6596	351.704	0.273623	0.000831063	1.32815e+06	135956	1	12	0.00481399	0.000276687	0	3.30916e-05	0.0544544	0.018389	0.0574755	18.6596	1.35956e+08	4.026e+08	4.24936e+08	-71.3404	0.0000000E+000	0.0000000E+000	0.0000000E+000	71.3404	0.0000000E+000	0.0000000E+000	0.0000000E+000	-71.3404	0.0000000E+000	0.0000000E+000	0.0000000E+000	-18.6596	0.0000000E+000	0.0000000E+000	0.0000000E+000	18.6596	2.96125	71.3404	-0.000242195	2.27398e-07	329245
0.0100092	18.5469	8.99167	20.6116	-25.8644	704.92	0.27362	-0.00123375	1.76841e+06	336542	1	12	0.00481552	0.000233631	0	-0.00110634	0.0436564	0.0211649	0.0485164	25.8644	3.36542e+08	6.94177e+08	7.71454e+08	-64.1356	0.0000000E+000	0.0000000E+000	0.0000000E+000	64.1356	0.0000000E+000	0.0000000E+000	0.0000000E+000	-64.1356	0.0000000E+000	0.0000000E+000	0.0000000E+000	-25.8644	0.0000000E+000	0.0000000E+000	0.0000000E+000	25.8644	2.06268	64.1356	-0.000628141	-3.3758e-07	221778