File: txt/17697_R287_UA660_SOC00_C04.mpt
EC-Lab ASCII FILE

Nb header lines : 63

Potentio Electrochemical Impedance Spectroscopy

Run on channel : 4 (SN 66756)
User :
CE vs. WE compliance from -10 V to 10 V
Electrode connection : standard
Potential control : Ewe
Ewe ctrl range : min = -10.00 V, max = 10.00 V
Safety Limits :
	Do not start on E overload
Acquisition started on : 09/22/2025 09:04:03.651
Loaded Setting File :  C:\Users\Celltest\OneDrive - store-dot.com\Documents\EC-Lab\Data\Gyutae\17739_R277_UA674_SOC00_C03.mpr
Saved on :
	File : 17697_R287_UA660_SOC00_C04.mpr
	Directory : C:\Users\Celltest\OneDrive - store-dot.com\Documents\EC-Lab\Data\Charmaine\
	Host : 169.254.61.224
Device : VMP-3e (SN .003165)
Address : USB
EC-LAB for windows v11.62 (software)
Internet server v27.00 (firmware)
Command interpretor v12.03 (firmware)
Electrode material :
Initial state :
Electrolyte :
Comments :
Electrode surface area : 0.001 cm²
Characteristic mass : 0.001 g
Equivalent Weight : 0.000 g/eq.
Density : 0.000 g/cm3
Volume (V) : 0.001 cm³
Cycle Definition : Charge/Discharge alternance
Mode                Single sine
E (V)               0.0000
vs.                 Eoc
tE (h:m:s)          0:00:0.0000
record              0
dI                  0.000
unit dI             mA
dt (s)              0.000
fi                  100.000
unit fi             kHz
ff                  10.000
unit ff             mHz
Nd                  6
Points              per decade
spacing             Logarithmic
Va (mV)             5.0
pw                  0.10
Na                  2
corr                0
E range min (V)     -10.000
E range max (V)     10.000
I Range             Auto
Bandwidth           5
nc cycles           0
goto Ns'            0
nr cycles           0
inc. cycle          0

freq/Hz	Re(Z)/Ohm	-Im(Z)/Ohm	|Z|/Ohm	Phase(Z)/deg	time/s	<Ewe>/V	<I>/mA	Cs/µF	Cp/µF	cycle number	I Range	|Ewe|/V	|I|/A	Ns	(Q-Qo)/mA.h	Re(Y)/Ohm-1	Im(Y)/Ohm-1	|Y|/Ohm-1	Phase(Y)/deg	Re(C)/nF	Im(C)/nF	|C|/nF	Phase(C)/deg	Re(M)	Im(M)	|M|	Phase(M)/deg	Re(Permittivity)	Im(Permittivity)	|Permittivity|	Phase(Permittivity)/deg	Re(Resistivity)/Ohm.cm	Im(Resistivity)/Ohm.cm	|Resistivity|/Ohm.cm	Phase(Resistivity)/deg	Re(Conductivity)/mS/cm	Im(Conductivity)/mS/cm	|Conductivity|/mS/cm	Phase(Conductivity)/deg	Tan(Delta)	Loss Angle(Delta)/deg	dq/mA.h	Pwe/W	Rwe/Ohm
100004	1.20502	0.236427	1.22799	-11.1005	1.8655	0.260793	-0.0269326	6.73143	0.249523	1	9	0.00474245	0.00386196	0	-9.71047e-06	0.799102	0.156786	0.814338	11.1005	249.523	1271.76	1296.01	-78.8995	0.0000000E+000	0.0000000E+000	0.0000000E+000	78.8995	0.0000000E+000	0.0000000E+000	0.0000000E+000	-78.8995	0.0000000E+000	0.0000000E+000	0.0000000E+000	-11.1005	0.0000000E+000	0.0000000E+000	0.0000000E+000	11.1005	5.09679	78.8995	-9.71047e-06	-7.02383e-06	9683.19
46420.4	1.32439	0.262854	1.35022	-11.2257	3.0215	0.260791	-0.0253101	13.0436	0.494329	1	9	0.00506086	0.00374817	0	-1.75564e-05	0.726449	0.14418	0.740619	11.2257	494.329	2490.67	2539.25	-78.7743	0.0000000E+000	0.0000000E+000	0.0000000E+000	78.7743	0.0000000E+000	0.0000000E+000	0.0000000E+000	-78.7743	0.0000000E+000	0.0000000E+000	0.0000000E+000	-11.2257	0.0000000E+000	0.0000000E+000	0.0000000E+000	11.2257	5.0385	78.7743	-4.09622e-06	-6.60065e-06	10303.8
21544.7	1.44948	0.316865	1.48371	-12.3312	4.03648	0.260834	-0.0194358	23.3134	1.06331	1	9	0.00532254	0.00358733	0	-1.2258e-05	0.658439	0.143939	0.673988	12.3312	1063.31	4864.02	4978.89	-77.6688	0.0000000E+000	0.0000000E+000	0.0000000E+000	77.6688	0.0000000E+000	0.0000000E+000	0.0000000E+000	-77.6688	0.0000000E+000	0.0000000E+000	0.0000000E+000	-12.3312	0.0000000E+000	0.0000000E+000	0.0000000E+000	12.3312	4.57443	77.6688	2.62155e-06	-5.06952e-06	13420.3
10002.2	1.57816	0.397743	1.62751	-14.1456	4.7695	0.260858	-0.0284991	40.0056	2.38934	1	9	0.004806	0.00295297	0	-1.73645e-05	0.595804	0.15016	0.614435	14.1456	2389.34	9480.41	9776.86	-75.8544	0.0000000E+000	0.0000000E+000	0.0000000E+000	75.8544	0.0000000E+000	0.0000000E+000	0.0000000E+000	-75.8544	0.0000000E+000	0.0000000E+000	0.0000000E+000	-14.1456	0.0000000E+000	0.0000000E+000	0.0000000E+000	14.1456	3.96779	75.8544	-1.81977e-06	-7.43422e-06	9153.21
4641.49	1.74616	0.557582	1.83302	-17.7093	5.84171	0.260798	0.00387497	61.497	5.69033	1	9	0.00504652	0.00275312	0	-2.80324e-05	0.519695	0.165949	0.545548	17.7093	5690.33	17820.2	18706.6	-72.2907	0.0000000E+000	0.0000000E+000	0.0000000E+000	72.2907	0.0000000E+000	0.0000000E+000	0.0000000E+000	-72.2907	0.0000000E+000	0.0000000E+000	0.0000000E+000	-17.7093	0.0000000E+000	0.0000000E+000	0.0000000E+000	17.7093	3.13166	72.2907	7.4758e-07	1.01058e-06	67303.1
2155.69	1.97824	0.820839	2.14178	-22.5352	6.77569	0.260885	-0.00375233	89.9447	13.2112	1	9	0.0049357	0.00230449	0	-2.84206e-05	0.431251	0.178941	0.466902	22.5352	13211.2	31839.4	34471.5	-67.4648	0.0000000E+000	0.0000000E+000	0.0000000E+000	67.4648	0.0000000E+000	0.0000000E+000	0.0000000E+000	-67.4648	0.0000000E+000	0.0000000E+000	0.0000000E+000	-22.5352	0.0000000E+000	0.0000000E+000	0.0000000E+000	22.5352	2.41002	67.4648	6.81659e-07	-9.78926e-07	69526
1000.32	2.31969	1.26762	2.64345	-28.655	7.71169	0.260805	-0.00651235	125.514	28.8622	1	9	0.00488939	0.00184963	0	-3.06354e-05	0.331962	0.181405	0.378294	28.655	28862.2	52816.5	60188.1	-61.345	0.0000000E+000	0.0000000E+000	0.0000000E+000	61.345	0.0000000E+000	0.0000000E+000	0.0000000E+000	-61.345	0.0000000E+000	0.0000000E+000	0.0000000E+000	-28.655	0.0000000E+000	0.0000000E+000	0.0000000E+000	28.655	1.82995	61.345	-8.20454e-07	-1.69845e-06	40047.7
463.961	2.90527	2.00197	3.52824	-34.5701	8.90019	0.260773	-0.0252555	171.349	55.1672	1	10	0.00493186	0.00139782	0	-3.37887e-05	0.233383	0.160821	0.283427	34.5701	55167.2	80058.8	97225.6	-55.4299	0.0000000E+000	0.0000000E+000	0.0000000E+000	55.4299	0.0000000E+000	0.0000000E+000	0.0000000E+000	-55.4299	0.0000000E+000	0.0000000E+000	0.0000000E+000	-34.5701	0.0000000E+000	0.0000000E+000	0.0000000E+000	34.5701	1.4512	55.4299	-1.37826e-06	-6.58597e-06	10325.4
215.345	3.91458	3.09287	4.98897	-38.3119	9.83444	0.260769	-0.0262683	238.959	91.8389	1	10	0.00489032	0.000980227	0	-4.118e-05	0.157276	0.124263	0.200442	38.3119	91838.9	116238	148141	-51.6881	0.0000000E+000	0.0000000E+000	0.0000000E+000	51.6881	0.0000000E+000	0.0000000E+000	0.0000000E+000	-51.6881	0.0000000E+000	0.0000000E+000	0.0000000E+000	-38.3119	0.0000000E+000	0.0000000E+000	0.0000000E+000	38.3119	1.26568	51.6881	-4.00826e-06	-6.84994e-06	9927.14
100.032	5.64359	4.52321	7.23253	-38.7114	10.7657	0.260765	-0.0253619	351.75	137.577	1	10	0.00487511	0.000674053	0	-4.69097e-05	0.107888	0.0864701	0.138264	38.7114	137577	171655	219984	-51.2886	0.0000000E+000	0.0000000E+000	0.0000000E+000	51.2886	0.0000000E+000	0.0000000E+000	0.0000000E+000	-51.2886	0.0000000E+000	0.0000000E+000	0.0000000E+000	-38.7114	0.0000000E+000	0.0000000E+000	0.0000000E+000	38.7114	1.2477	51.2886	-2.73238e-06	-6.61349e-06	10281.8
46.4415	8.47886	5.91128	10.3361	-34.8834	11.6996	0.260797	-0.0292991	579.738	189.62	1	10	0.00486832	0.000471003	0	-5.30401e-05	0.0793646	0.0553313	0.0967486	34.8834	189620	271982	331557	-55.1166	0.0000000E+000	0.0000000E+000	0.0000000E+000	55.1166	0.0000000E+000	0.0000000E+000	0.0000000E+000	-55.1166	0.0000000E+000	0.0000000E+000	0.0000000E+000	-34.8834	0.0000000E+000	0.0000000E+000	0.0000000E+000	34.8834	1.43435	55.1166	-3.50879e-06	-7.6411e-06	8901.2
21.5517	12.0557	6.40085	13.6496	-27.9656	12.5853	0.260776	-0.0324026	1153.72	253.71	1	10	0.00483703	0.000354372	0	-6.10262e-05	0.0647075	0.0343558	0.0732624	27.9656	253710	477851	541027	-62.0344	0.0000000E+000	0.0000000E+000	0.0000000E+000	62.0344	0.0000000E+000	0.0000000E+000	0.0000000E+000	-62.0344	0.0000000E+000	0.0000000E+000	0.0000000E+000	-27.9656	0.0000000E+000	0.0000000E+000	0.0000000E+000	27.9656	1.88345	62.0344	-4.53131e-06	-8.44981e-06	8048
10.0032	15.9623	6.07989	17.081	-20.8514	13.7897	0.260807	-0.0129731	2616.89	331.552	1	11	0.00492254	0.000288188	0	-6.17711e-05	0.0547104	0.0208387	0.0585446	20.8514	331552	870464	931469	-69.1486	0.0000000E+000	0.0000000E+000	0.0000000E+000	69.1486	0.0000000E+000	0.0000000E+000	0.0000000E+000	-69.1486	0.0000000E+000	0.0000000E+000	0.0000000E+000	-20.8514	0.0000000E+000	0.0000000E+000	0.0000000E+000	20.8514	2.62542	69.1486	-6.58505e-07	-3.38347e-06	20103.7
4.63925	18.6188	5.14281	19.316	-15.441	14.6493	0.2608	-0.0124334	6670.71	472.867	1	11	0.0048627	0.000251745	0	-6.60647e-05	0.049902	0.0137837	0.0517706	15.441	472867	1.71194e+06	1.77605e+06	-74.559	0.0000000E+000	0.0000000E+000	0.0000000E+000	74.559	0.0000000E+000	0.0000000E+000	0.0000000E+000	-74.559	0.0000000E+000	0.0000000E+000	0.0000000E+000	-15.441	0.0000000E+000	0.0000000E+000	0.0000000E+000	15.441	3.62035	74.559	-4.20245e-07	-3.24263e-06	20975.7
2.15577	20.7944	4.79068	21.3391	-12.9736	16.3747	0.260837	-0.0102406	15410.7	776.713	1	11	0.00486981	0.00022821	0	-6.93987e-05	0.045666	0.0105206	0.0468622	12.9736	776713	3.37141e+06	3.45972e+06	-77.0264	0.0000000E+000	0.0000000E+000	0.0000000E+000	77.0264	0.0000000E+000	0.0000000E+000	0.0000000E+000	-77.0264	0.0000000E+000	0.0000000E+000	0.0000000E+000	-12.9736	0.0000000E+000	0.0000000E+000	0.0000000E+000	12.9736	4.34061	77.0264	-4.62123e-06	-2.67113e-06	25470.8
1.00006	22.6998	3.682	22.9964	-9.21339	21.0391	0.260842	-0.00881283	43222.3	1108.04	1	12	0.00485911	0.000211298	0	-9.20595e-05	0.042924	0.00696246	0.043485	9.21339	1.10804e+06	6.83113e+06	6.92041e+06	-80.7866	0.0000000E+000	0.0000000E+000	0.0000000E+000	80.7866	0.0000000E+000	0.0000000E+000	0.0000000E+000	-80.7866	0.0000000E+000	0.0000000E+000	0.0000000E+000	-9.21339	0.0000000E+000	0.0000000E+000	0.0000000E+000	9.21339	6.16506	80.7866	-1.27866e-05	-2.29876e-06	29598
0.464091	24.3122	3.21415	24.5237	-7.53102	28.7238	0.260828	-0.00859056	106697	1832.78	1	12	0.00488024	0.000199001	0	-9.52591e-05	0.0404251	0.00534434	0.0407769	7.53102	1.83278e+06	1.38634e+07	1.3984e+07	-82.469	0.0000000E+000	0.0000000E+000	0.0000000E+000	82.469	0.0000000E+000	0.0000000E+000	0.0000000E+000	-82.469	0.0000000E+000	0.0000000E+000	0.0000000E+000	-7.53102	0.0000000E+000	0.0000000E+000	0.0000000E+000	7.53102	7.56411	82.469	1.27231e-06	-2.24066e-06	30362.1
0.215268	25.4701	3.0338	25.6502	-6.79261	45.2038	0.260833	-0.00602073	243699	3409.16	1	12	0.00487231	0.000189952	0	-9.66963e-05	0.0387125	0.00461112	0.0389861	6.79261	3.40916e+06	2.86215e+07	2.88238e+07	-83.2074	0.0000000E+000	0.0000000E+000	0.0000000E+000	83.2074	0.0000000E+000	0.0000000E+000	0.0000000E+000	-83.2074	0.0000000E+000	0.0000000E+000	0.0000000E+000	-6.79261	0.0000000E+000	0.0000000E+000	0.0000000E+000	6.79261	8.39546	83.2074	-4.15283e-06	-1.5704e-06	43322.5
0.0999041	26.4925	3.43559	26.7143	-7.38899	80.6094	0.260827	-0.00345346	463698	7669.22	1	12	0.0048691	0.000182266	0	-0.000179978	0.0371223	0.00481409	0.0374331	7.38899	7.66922e+06	5.91387e+07	5.96339e+07	-82.611	0.0000000E+000	0.0000000E+000	0.0000000E+000	82.611	0.0000000E+000	0.0000000E+000	0.0000000E+000	-82.611	0.0000000E+000	0.0000000E+000	0.0000000E+000	-7.38899	0.0000000E+000	0.0000000E+000	0.0000000E+000	7.38899	7.71117	82.611	-5.85711e-05	-9.00754e-07	75526.3
0.0464052	27.7312	4.68734	28.1246	-9.59389	156.846	0.260821	-0.00279269	731689	20323.9	1	12	0.00486789	0.000173083	0	-0.000401496	0.0350588	0.0059259	0.0355561	9.59389	2.03239e+07	1.2024e+08	1.21946e+08	-80.4061	0.0000000E+000	0.0000000E+000	0.0000000E+000	80.4061	0.0000000E+000	0.0000000E+000	0.0000000E+000	-80.4061	0.0000000E+000	0.0000000E+000	0.0000000E+000	-9.59389	0.0000000E+000	0.0000000E+000	0.0000000E+000	9.59389	5.91619	80.4061	-0.000128299	-7.28393e-07	93394.2
0.0215268	29.4943	7.53333	30.4412	-14.3279	321.075	0.260833	-0.0030602	981417	60104.1	1	12	0.00487029	0.00015999	0	-0.000538723	0.0318284	0.00812949	0.0328502	14.3279	6.01041e+07	2.35318e+08	2.42873e+08	-75.6721	0.0000000E+000	0.0000000E+000	0.0000000E+000	75.6721	0.0000000E+000	0.0000000E+000	0.0000000E+000	-75.6721	0.0000000E+000	0.0000000E+000	0.0000000E+000	-14.3279	0.0000000E+000	0.0000000E+000	0.0000000E+000	14.3279	3.91518	75.6721	-2.24053e-05	-7.982e-07	85233.9
0.0146812	30.6048	9.45559	32.0322	-17.1689	464.271	0.260837	-0.00227066	1.14649e+06	99902	1	12	0.00487186	0.000152093	0	-0.000389878	0.0298274	0.00921542	0.0312186	17.1689	9.9902e+07	3.23352e+08	3.38433e+08	-72.8311	0.0000000E+000	0.0000000E+000	0.0000000E+000	72.8311	0.0000000E+000	0.0000000E+000	0.0000000E+000	-72.8311	0.0000000E+000	0.0000000E+000	0.0000000E+000	-17.1689	0.0000000E+000	0.0000000E+000	0.0000000E+000	17.1689	3.23669	72.8311	0.000148846	-5.92272e-07	114872

0.0100092	32.0777	11.8627	34.2009	-20.2949	674.291	0.260819	-0.0013536	1.34042e+06	161261	1	12	0.00486624	0.000142284	0	-7.22541e-05	0.0274238	0.0101416	0.029239	20.2949	1.61261e+08	4.36064e+08	4.64927e+08	-69.7051	0.0000000E+000	0.0000000E+000	0.0000000E+000	69.7051	0.0000000E+000	0.0000000E+000	0.0000000E+000	-69.7051	0.0000000E+000	0.0000000E+000	0.0000000E+000	-20.2949	0.0000000E+000	0.0000000E+000	0.0000000E+000	20.2949	2.70409	69.7051	0.000317623	-3.53046e-07	192685