File: txt/17698_R287_UA660_SOC00_C05.mpt
EC-Lab ASCII FILE
Nb header lines : 63

Potentio Electrochemical Impedance Spectroscopy

Run on channel : 5 (SN 65912)
User :
CE vs. WE compliance from -10 V to 10 V
Electrode connection : standard
Potential control : Ewe
Ewe ctrl range : min = -10.00 V, max = 10.00 V
Safety Limits :
	Do not start on E overload
Acquisition started on : 09/22/2025 09:04:13.605
Loaded Setting File :  C:\Users\Celltest\OneDrive - store-dot.com\Documents\EC-Lab\Data\Gyutae\17740_R277_UA674_SOC00_C04.mpr
Saved on :
	File : 17698_R287_UA660_SOC00_C05.mpr
	Directory : C:\Users\Celltest\OneDrive - store-dot.com\Documents\EC-Lab\Data\Charmaine\
	Host : 169.254.61.224
Device : VMP-3e (SN .003165)
Address : USB
EC-LAB for windows v11.62 (software)
Internet server v27.00 (firmware)
Command interpretor v12.03 (firmware)
Electrode material :
Initial state :
Electrolyte :
Comments :
Electrode surface area : 0.001 cm²
Characteristic mass : 0.001 g
Equivalent Weight : 0.000 g/eq.
Density : 0.000 g/cm3
Volume (V) : 0.001 cm³
Cycle Definition : Charge/Discharge alternance
Mode                Single sine
E (V)               0.0000
vs.                 Eoc
tE (h:m:s)          0:00:0.0000
record              0
dI                  0.000
unit dI             mA
dt (s)              0.000
fi                  100.000
unit fi             kHz
ff                  10.000
unit ff             mHz
Nd                  6
Points              per decade
spacing             Logarithmic
Va (mV)             5.0
pw                  0.10
Na                  2
corr                0
E range min (V)     -10.000
E range max (V)     10.000
I Range             Auto
Bandwidth           5
nc cycles           0
goto Ns'            0
nr cycles           0
inc. cycle          0

freq/Hz	Re(Z)/Ohm	-Im(Z)/Ohm	|Z|/Ohm	Phase(Z)/deg	time/s	<Ewe>/V	<I>/mA	Cs/µF	Cp/µF	cycle number	I Range	|Ewe|/V	|I|/A	Ns	(Q-Qo)/mA.h	Re(Y)/Ohm-1	Im(Y)/Ohm-1	|Y|/Ohm-1	Phase(Y)/deg	Re(C)/nF	Im(C)/nF	|C|/nF	Phase(C)/deg	Re(M)	Im(M)	|M|	Phase(M)/deg	Re(Permittivity)	Im(Permittivity)	|Permittivity|	Phase(Permittivity)/deg	Re(Resistivity)/Ohm.cm	Im(Resistivity)/Ohm.cm	|Resistivity|/Ohm.cm	Phase(Resistivity)/deg	Re(Conductivity)/mS/cm	Im(Conductivity)/mS/cm	|Conductivity|/mS/cm	Phase(Conductivity)/deg	Tan(Delta)	Loss Angle(Delta)/deg	dq/mA.h	Pwe/W	Rwe/Ohm
100004	1.35543	0.219318	1.37306	-9.19119	1.8765	0.280646	-0.0119569	7.25654	0.18514	1	9	0.00545943	0.00397611	0	6.5572e-07	0.71895	0.116331	0.728301	9.19119	185.14	1144.2	1159.08	-80.8088	0.0000000E+000	0.0000000E+000	0.0000000E+000	80.8088	0.0000000E+000	0.0000000E+000	0.0000000E+000	-80.8088	0.0000000E+000	0.0000000E+000	0.0000000E+000	-9.19119	0.0000000E+000	0.0000000E+000	0.0000000E+000	9.19119	6.18021	80.8088	6.5572e-07	-3.35564e-06	23471.5
46420.4	1.47475	0.31622	1.50827	-12.1023	2.89149	0.280593	-0.0168167	10.8423	0.476589	1	9	0.00546349	0.00362236	0	-7.35406e-06	0.648277	0.139006	0.663013	12.1023	476.589	2222.66	2273.18	-77.8977	0.0000000E+000	0.0000000E+000	0.0000000E+000	77.8977	0.0000000E+000	0.0000000E+000	0.0000000E+000	-77.8977	0.0000000E+000	0.0000000E+000	0.0000000E+000	-12.1023	0.0000000E+000	0.0000000E+000	0.0000000E+000	12.1023	4.66368	77.8977	-4.06334e-06	-4.71863e-06	16685.4
21544.7	1.63431	0.41218	1.68548	-14.1551	3.90648	0.280573	-0.0208199	17.9223	1.07181	1	9	0.00542843	0.0032207	0	-1.12623e-05	0.575287	0.14509	0.593301	14.1551	1071.81	4249.76	4382.84	-75.8449	0.0000000E+000	0.0000000E+000	0.0000000E+000	75.8449	0.0000000E+000	0.0000000E+000	0.0000000E+000	-75.8449	0.0000000E+000	0.0000000E+000	0.0000000E+000	-14.1551	0.0000000E+000	0.0000000E+000	0.0000000E+000	14.1551	3.96504	75.8449	-2.50023e-06	-5.84152e-06	13476.2
10002.2	1.8358	0.547474	1.9157	-16.6057	4.92247	0.280566	-0.0131486	29.0643	2.37374	1	9	0.00544429	0.00284194	0	-1.40833e-05	0.500233	0.14918	0.522003	16.6057	2373.74	7959.68	8306.09	-73.3943	0.0000000E+000	0.0000000E+000	0.0000000E+000	73.3943	0.0000000E+000	0.0000000E+000	0.0000000E+000	-73.3943	0.0000000E+000	0.0000000E+000	0.0000000E+000	-16.6057	0.0000000E+000	0.0000000E+000	0.0000000E+000	16.6057	3.35322	73.3943	-3.41654e-06	-3.68904e-06	21338.2
4641.49	2.09134	0.733763	2.21633	-19.3338	6.17069	0.280566	-0.0196469	46.7313	5.12213	1	9	0.00544481	0.00245668	0	-1.49626e-05	0.425752	0.149378	0.451197	19.3338	5122.13	14598.9	15471.4	-70.6662	0.0000000E+000	0.0000000E+000	0.0000000E+000	70.6662	0.0000000E+000	0.0000000E+000	0.0000000E+000	-70.6662	0.0000000E+000	0.0000000E+000	0.0000000E+000	-19.3338	0.0000000E+000	0.0000000E+000	0.0000000E+000	19.3338	2.85016	70.6662	-2.07977e-06	-5.51226e-06	14280.4
2155.69	2.42489	1.0234	2.632	-22.8817	7.5507	0.280558	-0.02905	72.1422	10.907	1	9	0.00516423	0.00196209	0	-3.03047e-05	0.350042	0.147732	0.37994	22.8817	10907	25843.7	28051	-67.1183	0.0000000E+000	0.0000000E+000	0.0000000E+000	67.1183	0.0000000E+000	0.0000000E+000	0.0000000E+000	-67.1183	0.0000000E+000	0.0000000E+000	0.0000000E+000	-22.8817	0.0000000E+000	0.0000000E+000	0.0000000E+000	22.8817	2.36945	67.1183	-8.15852e-06	-8.1502e-06	9657.76
1000.32	2.86965	1.47405	3.2261	-27.1882	8.4867	0.280562	-0.0220303	107.936	22.5339	1	9	0.0054312	0.00168352	0	-3.62138e-05	0.275723	0.14163	0.309971	27.1882	22534	43868.6	49317.7	-62.8118	0.0000000E+000	0.0000000E+000	0.0000000E+000	62.8118	0.0000000E+000	0.0000000E+000	0.0000000E+000	-62.8118	0.0000000E+000	0.0000000E+000	0.0000000E+000	-27.1882	0.0000000E+000	0.0000000E+000	0.0000000E+000	27.1882	1.94678	62.8118	-2.11942e-06	-6.18085e-06	12735.3
463.961	3.52471	2.20976	4.16013	-32.085	9.6752	0.280569	-0.0116806	155.236	43.7997	1	10	0.00526111	0.00126465	0	-4.10833e-05	0.203662	0.127683	0.240377	32.085	43799.7	69863.4	82457.9	-57.915	0.0000000E+000	0.0000000E+000	0.0000000E+000	57.915	0.0000000E+000	0.0000000E+000	0.0000000E+000	-57.915	0.0000000E+000	0.0000000E+000	0.0000000E+000	-32.085	0.0000000E+000	0.0000000E+000	0.0000000E+000	32.085	1.59506	57.915	-1.99907e-06	-3.27721e-06	24020.1
215.345	4.58118	3.34248	5.67093	-36.1149	10.6095	0.280564	-0.0118761	221.115	76.8152	1	10	0.00510708	0.000900572	0	-4.33867e-05	0.142452	0.103935	0.176338	36.1149	76815.1	105282	130326	-53.8851	0.0000000E+000	0.0000000E+000	0.0000000E+000	53.8851	0.0000000E+000	0.0000000E+000	0.0000000E+000	-53.8851	0.0000000E+000	0.0000000E+000	0.0000000E+000	-36.1149	0.0000000E+000	0.0000000E+000	0.0000000E+000	36.1149	1.37059	53.8851	-7.85969e-07	-3.332e-06	23624.3
100.032	6.37724	4.94673	8.0709	-37.8002	11.5407	0.280572	-0.0114051	321.635	120.825	1	10	0.00503575	0.000623939	0	-4.65386e-05	0.0979015	0.0759407	0.123902	37.8002	120825	155765	197133	-52.1998	0.0000000E+000	0.0000000E+000	0.0000000E+000	52.1998	0.0000000E+000	0.0000000E+000	0.0000000E+000	-52.1998	0.0000000E+000	0.0000000E+000	0.0000000E+000	-37.8002	0.0000000E+000	0.0000000E+000	0.0000000E+000	37.8002	1.28918	52.1998	-1.65963e-06	-3.19995e-06	24600.6
46.4415	9.43431	6.71217	11.5784	-35.4305	12.4746	0.280564	-0.0115782	510.564	171.585	1	10	0.00501542	0.00043317	0	-4.93572e-05	0.0703741	0.0500686	0.0863677	35.4305	171585	241172	295982	-54.5695	0.0000000E+000	0.0000000E+000	0.0000000E+000	54.5695	0.0000000E+000	0.0000000E+000	0.0000000E+000	-54.5695	0.0000000E+000	0.0000000E+000	0.0000000E+000	-35.4305	0.0000000E+000	0.0000000E+000	0.0000000E+000	35.4305	1.40555	54.5695	-1.25774e-06	-3.24844e-06	24232
21.5517	13.7073	7.66546	15.7051	-29.215	13.6013	0.280557	-0.00917492	963.385	229.507	1	11	0.00500681	0.000318802	0	-5.2621e-05	0.055574	0.0310784	0.0636737	29.215	229507	410403	470217	-60.785	0.0000000E+000	0.0000000E+000	0.0000000E+000	60.785	0.0000000E+000	0.0000000E+000	0.0000000E+000	-60.785	0.0000000E+000	0.0000000E+000	0.0000000E+000	-29.215	0.0000000E+000	0.0000000E+000	0.0000000E+000	29.215	1.78819	60.785	-1.72687e-06	-2.57409e-06	30578.7
10.0032	18.0093	7.42902	19.4814	-22.4166	14.5477	0.280572	-0.0086224	2141.65	311.437	1	11	0.0050031	0.000256813	0	-5.41672e-05	0.0474521	0.0195745	0.0513309	22.4166	311437	754982	816695	-67.5834	0.0000000E+000	0.0000000E+000	0.0000000E+000	67.5834	0.0000000E+000	0.0000000E+000	0.0000000E+000	-67.5834	0.0000000E+000	0.0000000E+000	0.0000000E+000	-22.4166	0.0000000E+000	0.0000000E+000	0.0000000E+000	22.4166	2.42419	67.5834	-7.7525e-07	-2.4192e-06	32539.9
4.63925	21.7246	6.56013	22.6935	-16.8026	15.4073	0.280562	-0.00879944	5229.49	437	1	11	0.00500246	0.000220436	0	-5.77927e-05	0.0421842	0.0127382	0.0440655	16.8026	437000	1.44718e+06	1.51172e+06	-73.1974	0.0000000E+000	0.0000000E+000	0.0000000E+000	73.1974	0.0000000E+000	0.0000000E+000	0.0000000E+000	-73.1974	0.0000000E+000	0.0000000E+000	0.0000000E+000	-16.8026	0.0000000E+000	0.0000000E+000	0.0000000E+000	16.8026	3.31161	73.1974	-9.70888e-07	-2.46879e-06	31884.1
2.15577	24.7354	5.74423	25.3936	-13.0739	17.1327	0.280574	-0.00703706	12852.5	657.657	1	11	0.00500616	0.000197142	0	-5.82432e-05	0.0383592	0.00890802	0.0393799	13.0739	657657	2.83196e+06	2.90732e+06	-76.9261	0.0000000E+000	0.0000000E+000	0.0000000E+000	76.9261	0.0000000E+000	0.0000000E+000	0.0000000E+000	-76.9261	0.0000000E+000	0.0000000E+000	0.0000000E+000	-13.0739	0.0000000E+000	0.0000000E+000	0.0000000E+000	13.0739	4.30614	76.9261	-2.31467e-06	-1.97441e-06	39870.9
1.00006	27.2428	4.93501	27.6861	-10.2677	21.7952	0.280574	-0.006089	32248.1	1024.6	1	12	0.00500686	0.000180844	0	-7.68406e-05	0.0355407	0.00643818	0.0361192	10.2677	1.0246e+06	5.65612e+06	5.74818e+06	-79.7323	0.0000000E+000	0.0000000E+000	0.0000000E+000	79.7323	0.0000000E+000	0.0000000E+000	0.0000000E+000	-79.7323	0.0000000E+000	0.0000000E+000	0.0000000E+000	-10.2677	0.0000000E+000	0.0000000E+000	0.0000000E+000	10.2677	5.52031	79.7323	-1.1108e-05	-1.70841e-06	46078.8
0.464091	29.3353	4.29061	29.6474	-8.32115	29.4798	0.280573	-0.00623633	79927.9	1674.03	1	12	0.00501014	0.000168991	0	-8.11257e-05	0.0333747	0.00488143	0.0337298	8.32115	1.67403e+06	1.14455e+07	1.15673e+07	-81.6788	0.0000000E+000	0.0000000E+000	0.0000000E+000	81.6788	0.0000000E+000	0.0000000E+000	0.0000000E+000	-81.6788	0.0000000E+000	0.0000000E+000	0.0000000E+000	-8.32115	0.0000000E+000	0.0000000E+000	0.0000000E+000	8.32115	6.83708	81.6788	7.11139e-07	-1.74974e-06	44990.1
0.215268	30.987	3.93217	31.2355	-7.23204	45.9599	0.280569	-0.00481374	188022	2979.73	1	12	0.00500791	0.000160327	0	-7.38773e-05	0.0317602	0.00403029	0.0320149	7.23204	2.97973e+06	2.34814e+07	2.36697e+07	-82.768	0.0000000E+000	0.0000000E+000	0.0000000E+000	82.768	0.0000000E+000	0.0000000E+000	0.0000000E+000	-82.768	0.0000000E+000	0.0000000E+000	0.0000000E+000	-7.23204	0.0000000E+000	0.0000000E+000	0.0000000E+000	7.23204	7.88037	82.768	2.47131e-06	-1.35059e-06	58285
0.0999041	32.4847	4.39059	32.7801	-7.69738	81.3671	0.280575	-0.00249762	362839	6509.38	1	12	0.00500576	0.000152707	0	-0.000120611	0.0302314	0.00408604	0.0305063	7.69738	6.50938e+06	4.8161e+07	4.85989e+07	-82.3026	0.0000000E+000	0.0000000E+000	0.0000000E+000	82.3026	0.0000000E+000	0.0000000E+000	0.0000000E+000	-82.3026	0.0000000E+000	0.0000000E+000	0.0000000E+000	-7.69738	0.0000000E+000	0.0000000E+000	0.0000000E+000	7.69738	7.39871	82.3026	-3.66268e-05	-7.00771e-07	112337
0.0464052	34.15	5.71301	34.6246	-9.49716	157.603	0.280576	-0.00188893	600328	16343.7	1	12	0.00500805	0.000144639	0	-0.000301894	0.0284854	0.00476537	0.0288812	9.49716	1.63437e+07	9.76957e+07	9.90533e+07	-80.5028	0.0000000E+000	0.0000000E+000	0.0000000E+000	80.5028	0.0000000E+000	0.0000000E+000	0.0000000E+000	-80.5028	0.0000000E+000	0.0000000E+000	0.0000000E+000	-9.49716	0.0000000E+000	0.0000000E+000	0.0000000E+000	9.49716	5.97758	80.5028	-0.000111483	-5.2999e-07	148537
0.0215268	36.6901	8.68023	37.703	-13.3104	321.833	0.280572	-0.00246971	851746	45146.2	1	12	0.00500847	0.00013284	0	-0.000492283	0.0258106	0.00610633	0.0265231	13.3104	4.51462e+07	1.90827e+08	1.96095e+08	-76.6896	0.0000000E+000	0.0000000E+000	0.0000000E+000	76.6896	0.0000000E+000	0.0000000E+000	0.0000000E+000	-76.6896	0.0000000E+000	0.0000000E+000	0.0000000E+000	-13.3104	0.0000000E+000	0.0000000E+000	0.0000000E+000	13.3104	4.22687	76.6896	-6.85664e-05	-6.92932e-07	113605
0.0100092	39.9418	13.2599	42.0853	-18.3651	675.05	0.280571	-0.00150069	1.19917e+06	119042	1	12	0.00500967	0.000119036	0	-0.000195125	0.022551	0.0074865	0.0237613	18.3651	1.19042e+08	3.58582e+08	3.77826e+08	-71.6349	0.0000000E+000	0.0000000E+000	0.0000000E+000	71.6349	0.0000000E+000	0.0000000E+000	0.0000000E+000	-71.6349	0.0000000E+000	0.0000000E+000	0.0000000E+000	-18.3651	0.0000000E+000	0.0000000E+000	0.0000000E+000	18.3651	3.01223	71.6349	0.00023547	-4.21049e-07	186962