File: txt/17691_R287_UA658_SOC00_C06.mpt
EC-Lab ASCII FILE
Nb header lines : 63

Potentio Electrochemical Impedance Spectroscopy

Run on channel : 6 (SN 65795)
User :
CE vs. WE compliance from -10 V to 10 V
Electrode connection : standard
Potential control : Ewe
Ewe ctrl range : min = -10.00 V, max = 10.00 V
Safety Limits :
	Do not start on E overload
Acquisition started on : 09/22/2025 08:45:21.043
Loaded Setting File :  C:\Users\Celltest\OneDrive - store-dot.com\Documents\EC-Lab\Data\Charmaine\17689_R288_UA670_SOC00_C04.mpr
Saved on :
	File : 17691_R287_UA658_SOC00_C06.mpr
	Directory : C:\Users\Celltest\OneDrive - store-dot.com\Documents\EC-Lab\Data\Charmaine\
	Host : 169.254.61.224
Device : VMP-3e (SN .003165)
Address : USB
EC-LAB for windows v11.62 (software)
Internet server v27.00 (firmware)
Command interpretor v12.03 (firmware)
Electrode material :
Initial state :
Electrolyte :
Comments :
Electrode surface area : 0.001 cm²
Characteristic mass : 0.001 g
Equivalent Weight : 0.000 g/eq.
Density : 0.000 g/cm3
Volume (V) : 0.001 cm³
Cycle Definition : Charge/Discharge alternance
Mode                Single sine
E (V)               0.0000
vs.                 Eoc
tE (h:m:s)          0:00:0.0000
record              0
dI                  0.000
unit dI             mA
dt (s)              0.000
fi                  100.000
unit fi             kHz
ff                  10.000
unit ff             mHz
Nd                  6
Points              per decade
spacing             Logarithmic
Va (mV)             5.0
pw                  0.10
Na                  2
corr                0
E range min (V)     -10.000
E range max (V)     10.000
I Range             Auto
Bandwidth           5
nc cycles           0
goto Ns'            0
nr cycles           0
inc. cycle          0

freq/Hz	Re(Z)/Ohm	-Im(Z)/Ohm	|Z|/Ohm	Phase(Z)/deg	time/s	<Ewe>/V	<I>/mA	Cs/µF	Cp/µF	cycle number	I Range	|Ewe|/V	|I|/A	Ns	(Q-Qo)/mA.h	Re(Y)/Ohm-1	Im(Y)/Ohm-1	|Y|/Ohm-1	Phase(Y)/deg	Re(C)/nF	Im(C)/nF	|C|/nF	Phase(C)/deg	Re(M)	Im(M)	|M|	Phase(M)/deg	Re(Permittivity)	Im(Permittivity)	|Permittivity|	Phase(Permittivity)/deg	Re(Resistivity)/Ohm.cm	Im(Resistivity)/Ohm.cm	|Resistivity|/Ohm.cm	Phase(Resistivity)/deg	Re(Conductivity)/mS/cm	Im(Conductivity)/mS/cm	|Conductivity|/mS/cm	Phase(Conductivity)/deg	Tan(Delta)	Loss Angle(Delta)/deg	dq/mA.h	Pwe/W	Rwe/Ohm
100004	0.980504	0.200364	1.00077	-11.5493	1.86549	0.277747	0.0457176	7.943	0.318389	1	9	0.00475097	0.00474733	0	-5.28556e-06	0.979003	0.200057	0.999234	11.5493	318.389	1558.07	1590.27	-78.4507	0.0000000E+000	0.0000000E+000	0.0000000E+000	78.4507	0.0000000E+000	0.0000000E+000	0.0000000E+000	-78.4507	0.0000000E+000	0.0000000E+000	0.0000000E+000	-11.5493	0.0000000E+000	0.0000000E+000	0.0000000E+000	11.5493	4.89362	78.4507	-5.28556e-06	1.26979e-05	6075.28
46420.4	1.08434	0.251388	1.1131	-13.0525	2.88147	0.277735	0.0464253	13.6385	0.695642	1	9	0.00504935	0.00453629	0	-2.40563e-06	0.875179	0.202896	0.898391	13.0525	695.642	3000.6	3080.19	-76.9475	0.0000000E+000	0.0000000E+000	0.0000000E+000	76.9475	0.0000000E+000	0.0000000E+000	0.0000000E+000	-76.9475	0.0000000E+000	0.0000000E+000	0.0000000E+000	-13.0525	0.0000000E+000	0.0000000E+000	0.0000000E+000	13.0525	4.31343	76.9475	-3.16273e-06	1.28939e-05	5982.4
21544.7	1.21071	0.326154	1.25387	-15.0771	4.03749	0.277716	0.0422533	22.6494	1.5325	1	9	0.00506771	0.00404166	0	3.12704e-05	0.770079	0.207453	0.797532	15.0771	1532.5	5688.73	5891.53	-74.9229	0.0000000E+000	0.0000000E+000	0.0000000E+000	74.9229	0.0000000E+000	0.0000000E+000	0.0000000E+000	-74.9229	0.0000000E+000	0.0000000E+000	0.0000000E+000	-15.0771	0.0000000E+000	0.0000000E+000	0.0000000E+000	15.0771	3.71207	74.9229	1.51816e-05	1.17344e-05	6572.65
10002.2	1.36993	0.422552	1.43362	-17.1422	4.62948	0.277719	0.0467978	37.6568	3.27141	1	9	0.00457401	0.00319053	0	3.60823e-05	0.666548	0.205595	0.697535	17.1422	3271.41	10606.1	11099.1	-72.8578	0.0000000E+000	0.0000000E+000	0.0000000E+000	72.8578	0.0000000E+000	0.0000000E+000	0.0000000E+000	-72.8578	0.0000000E+000	0.0000000E+000	0.0000000E+000	-17.1422	0.0000000E+000	0.0000000E+000	0.0000000E+000	17.1422	3.24205	72.8578	2.30184e-06	1.29966e-05	5934.46
4641.49	1.58166	0.553588	1.67574	-19.2903	5.65571	0.277654	0.0367775	61.9408	6.75987	1	9	0.00466373	0.00278309	0	2.13824e-05	0.563249	0.19714	0.596753	19.2903	6759.87	19313.6	20462.4	-70.7097	0.0000000E+000	0.0000000E+000	0.0000000E+000	70.7097	0.0000000E+000	0.0000000E+000	0.0000000E+000	-70.7097	0.0000000E+000	0.0000000E+000	0.0000000E+000	-19.2903	0.0000000E+000	0.0000000E+000	0.0000000E+000	19.2903	2.8571	70.7097	1.72271e-06	1.02114e-05	7549.56
2155.69	1.85612	0.729517	1.99434	-21.4565	6.58868	0.277653	0.028061	101.204	13.5417	1	9	0.00451669	0.00226475	0	2.99151e-05	0.466669	0.183416	0.501419	21.4565	13541.7	34454.2	37019.9	-68.5435	0.0000000E+000	0.0000000E+000	0.0000000E+000	68.5435	0.0000000E+000	0.0000000E+000	0.0000000E+000	-68.5435	0.0000000E+000	0.0000000E+000	0.0000000E+000	-21.4565	0.0000000E+000	0.0000000E+000	0.0000000E+000	21.4565	2.54432	68.5435	3.14198e-06	7.79121e-06	9894.62
1000.32	2.21101	0.966754	2.41313	-23.6171	7.7477	0.277652	0.0355296	164.576	26.4141	1	9	0.00496043	0.0020556	0	3.63474e-05	0.379691	0.166018	0.4144	23.6171	26414.1	60410.4	65932.7	-66.3829	0.0000000E+000	0.0000000E+000	0.0000000E+000	66.3829	0.0000000E+000	0.0000000E+000	0.0000000E+000	-66.3829	0.0000000E+000	0.0000000E+000	0.0000000E+000	-23.6171	0.0000000E+000	0.0000000E+000	0.0000000E+000	23.6171	2.28705	66.3829	2.86536e-06	9.86488e-06	7814.67
463.961	2.6914	1.31754	2.99659	-26.0835	8.93622	0.277673	-0.0231183	260.36	50.3325	1	10	0.00500579	0.0016705	0	3.79846e-05	0.299725	0.146727	0.333712	26.0835	50332.5	102816	114475	-63.9165	0.0000000E+000	0.0000000E+000	0.0000000E+000	63.9165	0.0000000E+000	0.0000000E+000	0.0000000E+000	-63.9165	0.0000000E+000	0.0000000E+000	0.0000000E+000	-26.0835	0.0000000E+000	0.0000000E+000	0.0000000E+000	26.0835	2.04274	63.9165	-1.99516e-06	-6.41934e-06	12010.9
215.345	3.36513	1.80478	3.81855	-28.2055	9.87044	0.277674	-0.0226414	409.508	91.4773	1	10	0.00495925	0.00129873	0	3.27317e-05	0.230784	0.123773	0.26188	28.2055	91477.3	170565	193548	-61.7945	0.0000000E+000	0.0000000E+000	0.0000000E+000	61.7945	0.0000000E+000	0.0000000E+000	0.0000000E+000	-61.7945	0.0000000E+000	0.0000000E+000	0.0000000E+000	-28.2055	0.0000000E+000	0.0000000E+000	0.0000000E+000	28.2055	1.86457	61.7945	-1.98962e-06	-6.28693e-06	12264
100.032	4.41424	2.415	5.03167	-28.6828	10.8017	0.277681	-0.0224774	658.815	151.766	1	10	0.0049432	0.000982417	0	2.70677e-05	0.174354	0.0953877	0.198741	28.6828	151766	277404	316205	-61.3172	0.0000000E+000	0.0000000E+000	0.0000000E+000	61.3172	0.0000000E+000	0.0000000E+000	0.0000000E+000	-61.3172	0.0000000E+000	0.0000000E+000	0.0000000E+000	-28.6828	0.0000000E+000	0.0000000E+000	0.0000000E+000	28.6828	1.82784	61.3172	-2.87101e-06	-6.24154e-06	12353.8
46.4415	5.93792	2.81428	6.57108	-25.3586	11.7356	0.277678	-0.0234594	1217.72	223.361	1	10	0.00493398	0.000750862	0	2.21334e-05	0.137518	0.0651769	0.152182	25.3586	223361	471275	521527	-64.6414	0.0000000E+000	0.0000000E+000	0.0000000E+000	64.6414	0.0000000E+000	0.0000000E+000	0.0000000E+000	-64.6414	0.0000000E+000	0.0000000E+000	0.0000000E+000	-25.3586	0.0000000E+000	0.0000000E+000	0.0000000E+000	25.3586	2.10993	64.6414	-2.33556e-06	-6.51414e-06	11836.6
21.5517	7.57104	2.72189	8.04546	-19.7741	12.6213	0.277675	-0.0273685	2713.12	310.532	1	10	0.00492872	0.000612609	0	1.80807e-05	0.116965	0.0420502	0.124294	19.7741	310532	863759	917883	-70.2259	0.0000000E+000	0.0000000E+000	0.0000000E+000	70.2259	0.0000000E+000	0.0000000E+000	0.0000000E+000	-70.2259	0.0000000E+000	0.0000000E+000	0.0000000E+000	-19.7741	0.0000000E+000	0.0000000E+000	0.0000000E+000	19.7741	2.78154	70.2259	-1.05231e-06	-7.59955e-06	10145.8
10.0032	8.92317	2.33992	9.22487	-14.6938	13.5677	0.277698	-0.0192819	6799.55	437.484	1	10	0.00492805	0.000534214	0	1.01291e-05	0.104857	0.0274967	0.108403	14.6938	437484	1.66832e+06	1.72473e+06	-75.3062	0.0000000E+000	0.0000000E+000	0.0000000E+000	75.3062	0.0000000E+000	0.0000000E+000	0.0000000E+000	-75.3062	0.0000000E+000	0.0000000E+000	0.0000000E+000	-14.6938	0.0000000E+000	0.0000000E+000	0.0000000E+000	14.6938	3.81345	75.3062	-5.56864e-06	-5.35455e-06	14402
4.63925	10.0171	1.87638	10.1913	-10.6096	14.6983	0.277708	-0.0140896	18283.1	619.773	1	11	0.00493101	0.000483844	0	5.84218e-06	0.0964453	0.0180659	0.0981227	10.6096	619773	3.30867e+06	3.36621e+06	-79.3904	0.0000000E+000	0.0000000E+000	0.0000000E+000	79.3904	0.0000000E+000	0.0000000E+000	0.0000000E+000	-79.3904	0.0000000E+000	0.0000000E+000	0.0000000E+000	-10.6096	0.0000000E+000	0.0000000E+000	0.0000000E+000	10.6096	5.33852	79.3904	-3.82591e-06	-3.9128e-06	19710.1
2.15577	10.7704	1.48248	10.8719	-7.83716	16.4228	0.277711	-0.0112081	49800.2	925.961	1	11	0.00493122	0.000453574	0	-1.13823e-06	0.0911209	0.0125422	0.09198	7.83716	925961	6.72723e+06	6.79066e+06	-82.1628	0.0000000E+000	0.0000000E+000	0.0000000E+000	82.1628	0.0000000E+000	0.0000000E+000	0.0000000E+000	-82.1628	0.0000000E+000	0.0000000E+000	0.0000000E+000	-7.83716	0.0000000E+000	0.0000000E+000	0.0000000E+000	7.83716	7.26513	82.1628	-9.37842e-06	-3.11261e-06	24777.7
1.00006	11.316	1.21126	11.3807	-6.10964	20.0362	0.277699	-0.0121283	131388	1488.31	1	11	0.00493487	0.000433619	0	-3.00953e-05	0.0873693	0.00935195	0.0878684	6.10964	1.48831e+06	1.39044e+07	1.39838e+07	-83.8904	0.0000000E+000	0.0000000E+000	0.0000000E+000	83.8904	0.0000000E+000	0.0000000E+000	0.0000000E+000	-83.8904	0.0000000E+000	0.0000000E+000	0.0000000E+000	-6.10964	0.0000000E+000	0.0000000E+000	0.0000000E+000	6.10964	9.34236	83.8904	-1.28038e-05	-3.36801e-06	22896.9
0.464091	11.7095	1.20664	11.7715	-5.88347	27.7209	0.277704	-0.0113798	284210	2986.3	1	11	0.00493377	0.00041913	0	-2.2288e-05	0.0845037	0.00870796	0.0849512	5.88347	2.98631e+06	2.89797e+07	2.91331e+07	-84.1165	0.0000000E+000	0.0000000E+000	0.0000000E+000	84.1165	0.0000000E+000	0.0000000E+000	0.0000000E+000	-84.1165	0.0000000E+000	0.0000000E+000	0.0000000E+000	-5.88347	0.0000000E+000	0.0000000E+000	0.0000000E+000	5.88347	9.70419	84.1165	1.12848e-05	-3.16022e-06	24403.2
0.215268	12.1679	1.47822	12.2573	-6.92665	44.201	0.277696	-0.00585567	500154	7274.24	1	11	0.00493339	0.000402485	0	5.40249e-06	0.0809885	0.0098389	0.0815839	6.92665	7.27424e+06	5.98776e+07	6.03178e+07	-83.0733	0.0000000E+000	0.0000000E+000	0.0000000E+000	83.0733	0.0000000E+000	0.0000000E+000	0.0000000E+000	-83.0733	0.0000000E+000	0.0000000E+000	0.0000000E+000	-6.92665	0.0000000E+000	0.0000000E+000	0.0000000E+000	6.92665	8.23145	83.0733	8.37256e-06	-1.6261e-06	47423.5
0.0999041	12.7727	2.19826	12.9605	-9.7653	79.6074	0.277702	-0.00092074	724700	20848.5	1	11	0.00493537	0.000380802	0	-0.000111853	0.0760398	0.0130869	0.0771577	9.7653	2.08485e+07	1.21137e+08	1.22918e+08	-80.2347	0.0000000E+000	0.0000000E+000	0.0000000E+000	80.2347	0.0000000E+000	0.0000000E+000	0.0000000E+000	-80.2347	0.0000000E+000	0.0000000E+000	0.0000000E+000	-9.7653	0.0000000E+000	0.0000000E+000	0.0000000E+000	9.7653	5.81036	80.2347	-8.9787e-05	-2.55691e-07	301607
0.0464052	13.7474	3.33971	14.1472	-13.6546	155.844	0.2777	-0.00240941	1.02694e+06	57229.4	1	11	0.00493335	0.000348714	0	-0.000474452	0.0686873	0.0166865	0.0706852	13.6546	5.72294e+07	2.35576e+08	2.42427e+08	-76.3454	0.0000000E+000	0.0000000E+000	0.0000000E+000	76.3454	0.0000000E+000	0.0000000E+000	0.0000000E+000	-76.3454	0.0000000E+000	0.0000000E+000	0.0000000E+000	-13.6546	0.0000000E+000	0.0000000E+000	0.0000000E+000	13.6546	4.11634	76.3454	-0.000210902	-6.69093e-07	115257
0.0215268	15.0106	5.52125	15.9939	-20.1947	366.627	0.277694	-0.0021248	1.33907e+06	159578	1	12	0.00493108	0.000308311	0	-0.000578456	0.0586804	0.021584	0.062524	20.1947	1.59578e+08	4.33844e+08	4.62262e+08	-69.8053	0.0000000E+000	0.0000000E+000	0.0000000E+000	69.8053	0.0000000E+000	0.0000000E+000	0.0000000E+000	-69.8053	0.0000000E+000	0.0000000E+000	0.0000000E+000	-20.1947	0.0000000E+000	0.0000000E+000	0.0000000E+000	20.1947	2.7187	69.8053	4.66863e-05	-5.90045e-07	130692
0.0100092	16.9254	9.14418	19.2376	-28.3808	719.843	0.27769	-0.00105524	1.73891e+06	392885	1	12	0.00493336	0.000256444	0	0.00049703	0.0457338	0.0247083	0.0519816	28.3808	3.92885e+08	7.27209e+08	8.26554e+08	-61.6192	0.0000000E+000	0.0000000E+000	0.0000000E+000	61.6192	0.0000000E+000	0.0000000E+000	0.0000000E+000	-61.6192	0.0000000E+000	0.0000000E+000	0.0000000E+000	-28.3808	0.0000000E+000	0.0000000E+000	0.0000000E+000	28.3808	1.85095	61.6192	0.000652702	-2.9303e-07	263154