File: txt/17690_R288_UA670_SOC00_C05.mpt
EC-Lab ASCII FILE

Nb header lines : 63

Potentio Electrochemical Impedance Spectroscopy

Run on channel : 5 (SN 65912)
User :
CE vs. WE compliance from -10 V to 10 V
Electrode connection : standard
Potential control : Ewe
Ewe ctrl range : min = -10.00 V, max = 10.00 V
Safety Limits :
	Do not start on E overload
Acquisition started on : 09/22/2025 08:44:07.659
Loaded Setting File :  C:\Users\Celltest\OneDrive - store-dot.com\Documents\EC-Lab\Data\Gyutae\17740_R277_UA674_SOC00_C04.mpr
Saved on :
	File : 17690_R288_UA670_SOC00_C05.mpr
	Directory : C:\Users\Celltest\OneDrive - store-dot.com\Documents\EC-Lab\Data\Charmaine\
	Host : 169.254.61.224
Device : VMP-3e (SN .003165)
Address : USB
EC-LAB for windows v11.62 (software)
Internet server v27.00 (firmware)
Command interpretor v12.03 (firmware)
Electrode material :
Initial state :
Electrolyte :
Comments :
Electrode surface area : 0.001 cm²
Characteristic mass : 0.001 g
Equivalent Weight : 0.000 g/eq.
Density : 0.000 g/cm3
Volume (V) : 0.001 cm³
Cycle Definition : Charge/Discharge alternance
Mode                Single sine
E (V)               0.0000
vs.                 Eoc
tE (h:m:s)          0:00:0.0000
record              0
dI                  0.000
unit dI             mA
dt (s)              0.000
fi                  100.000
unit fi             kHz
ff                  10.000
unit ff             mHz
Nd                  6
Points              per decade
spacing             Logarithmic
Va (mV)             5.0
pw                  0.10
Na                  2
corr                0
E range min (V)     -10.000
E range max (V)     10.000
I Range             Auto
Bandwidth           5
nc cycles           0
goto Ns'            0
nr cycles           0
inc. cycle          0

freq/Hz	Re(Z)/Ohm	-Im(Z)/Ohm	|Z|/Ohm	Phase(Z)/deg	time/s	<Ewe>/V	<I>/mA	Cs/µF	Cp/µF	cycle number	I Range	|Ewe|/V	|I|/A	Ns	(Q-Qo)/mA.h	Re(Y)/Ohm-1	Im(Y)/Ohm-1	|Y|/Ohm-1	Phase(Y)/deg	Re(C)/nF	Im(C)/nF	|C|/nF	Phase(C)/deg	Re(M)	Im(M)	|M|	Phase(M)/deg	Re(Permittivity)	Im(Permittivity)	|Permittivity|	Phase(Permittivity)/deg	Re(Resistivity)/Ohm.cm	Im(Resistivity)/Ohm.cm	|Resistivity|/Ohm.cm	Phase(Resistivity)/deg	Re(Conductivity)/mS/cm	Im(Conductivity)/mS/cm	|Conductivity|/mS/cm	Phase(Conductivity)/deg	Tan(Delta)	Loss Angle(Delta)/deg	dq/mA.h	Pwe/W	Rwe/Ohm
100004	1.15773	0.223049	1.17902	-10.905	1.86449	0.270293	-0.0354552	7.13517	0.255363	1	9	0.00460378	0.00390473	0	-1.2243e-05	0.832843	0.160455	0.848159	10.905	255.363	1325.46	1349.84	-79.095	0.0000000E+000	0.0000000E+000	0.0000000E+000	79.095	0.0000000E+000	0.0000000E+000	0.0000000E+000	-79.095	0.0000000E+000	0.0000000E+000	0.0000000E+000	-10.905	0.0000000E+000	0.0000000E+000	0.0000000E+000	10.905	5.1905	79.095	-1.2243e-05	-9.58328e-06	7623.51
46420.4	1.25403	0.247913	1.2783	-11.1828	2.73848	0.270289	-0.0374661	13.8297	0.520167	1	9	0.00546379	0.00427425	0	-1.27432e-05	0.767434	0.151716	0.782287	11.1828	520.168	2631.19	2682.12	-78.8172	0.0000000E+000	0.0000000E+000	0.0000000E+000	78.8172	0.0000000E+000	0.0000000E+000	0.0000000E+000	-78.8172	0.0000000E+000	0.0000000E+000	0.0000000E+000	-11.1828	0.0000000E+000	0.0000000E+000	0.0000000E+000	11.1828	5.05836	78.8172	-2.10221e-06	-1.01267e-05	7214.22
21544.7	1.3656	0.30276	1.39876	-12.5006	3.6135	0.27028	-0.0357717	24.3995	1.14313	1	9	0.00532205	0.00380484	0	-2.00025e-05	0.697973	0.154744	0.714921	12.5006	1143.13	5156.07	5281.26	-77.4994	0.0000000E+000	0.0000000E+000	0.0000000E+000	77.4994	0.0000000E+000	0.0000000E+000	0.0000000E+000	-77.4994	0.0000000E+000	0.0000000E+000	0.0000000E+000	-12.5006	0.0000000E+000	0.0000000E+000	0.0000000E+000	12.5006	4.51049	77.4994	-7.20483e-06	-9.66837e-06	7555.68
10002.2	1.51197	0.385852	1.56043	-14.3162	4.48849	0.270272	-0.033947	41.2384	2.52149	1	9	0.00523766	0.00335655	0	-2.97108e-05	0.620948	0.158465	0.640849	14.3162	2521.49	9880.5	10197.2	-75.6838	0.0000000E+000	0.0000000E+000	0.0000000E+000	75.6838	0.0000000E+000	0.0000000E+000	0.0000000E+000	-75.6838	0.0000000E+000	0.0000000E+000	0.0000000E+000	-14.3162	0.0000000E+000	0.0000000E+000	0.0000000E+000	14.3162	3.91852	75.6838	4.40906e-07	-9.17493e-06	7961.6
4641.49	1.70009	0.503316	1.77303	-16.4915	5.51471	0.270287	-0.0157553	68.1275	5.49	1	9	0.00531713	0.0029989	0	-4.1713e-05	0.540804	0.160107	0.564007	16.4915	5490	18544	19339.6	-73.5085	0.0000000E+000	0.0000000E+000	0.0000000E+000	73.5085	0.0000000E+000	0.0000000E+000	0.0000000E+000	-73.5085	0.0000000E+000	0.0000000E+000	0.0000000E+000	-16.4915	0.0000000E+000	0.0000000E+000	0.0000000E+000	16.4915	3.37778	73.5085	-3.22241e-08	-4.25846e-06	17155.3
2155.69	1.94198	0.663344	2.05215	-18.8592	6.44871	0.270277	-0.0244508	111.3	11.6293	1	9	0.00531137	0.0025882	0	-4.79923e-05	0.461133	0.157514	0.487293	18.8592	11629.3	34045.6	35976.9	-71.1408	0.0000000E+000	0.0000000E+000	0.0000000E+000	71.1408	0.0000000E+000	0.0000000E+000	0.0000000E+000	-71.1408	0.0000000E+000	0.0000000E+000	0.0000000E+000	-18.8592	0.0000000E+000	0.0000000E+000	0.0000000E+000	18.8592	2.92757	71.1408	-1.14284e-06	-6.60849e-06	11053.9
1000.32	2.22675	0.897378	2.40077	-21.9494	7.38471	0.270283	-0.0207269	177.299	24.7717	1	9	0.00522069	0.00217459	0	-5.33735e-05	0.386341	0.155695	0.416534	21.9494	24771.7	61468.3	66272.1	-68.0506	0.0000000E+000	0.0000000E+000	0.0000000E+000	68.0506	0.0000000E+000	0.0000000E+000	0.0000000E+000	-68.0506	0.0000000E+000	0.0000000E+000	0.0000000E+000	-21.9494	0.0000000E+000	0.0000000E+000	0.0000000E+000	21.9494	2.48139	68.0506	-3.54527e-06	-5.60213e-06	13040.2
463.961	2.63961	1.33989	2.96021	-26.9127	8.57318	0.270287	-0.0140375	256.018	52.4521	1	10	0.00522652	0.00176559	0	-5.91551e-05	0.301228	0.152906	0.337814	26.9127	52452.1	103332	115882	-63.0873	0.0000000E+000	0.0000000E+000	0.0000000E+000	63.0873	0.0000000E+000	0.0000000E+000	0.0000000E+000	-63.0873	0.0000000E+000	0.0000000E+000	0.0000000E+000	-26.9127	0.0000000E+000	0.0000000E+000	0.0000000E+000	26.9127	1.97002	63.0873	-7.32144e-07	-3.79415e-06	19254.6
215.345	3.32679	1.9784	3.87061	-30.7395	9.50642	0.270294	-0.0134883	373.569	97.5985	1	10	0.00516571	0.0013346	0	-6.44486e-05	0.222058	0.132056	0.258357	30.7395	97598.5	164117	190944	-59.2605	0.0000000E+000	0.0000000E+000	0.0000000E+000	59.2605	0.0000000E+000	0.0000000E+000	0.0000000E+000	-59.2605	0.0000000E+000	0.0000000E+000	0.0000000E+000	-30.7395	0.0000000E+000	0.0000000E+000	0.0000000E+000	30.7395	1.68155	59.2605	-2.72073e-06	-3.64581e-06	20039.1
100.032	4.48671	2.78896	5.28289	-31.8652	10.4377	0.270296	-0.0132426	570.479	158.994	1	10	0.00513938	0.000972836	0	-6.60363e-05	0.160763	0.0999308	0.18929	31.8652	158994	255780	301169	-58.1348	0.0000000E+000	0.0000000E+000	0.0000000E+000	58.1348	0.0000000E+000	0.0000000E+000	0.0000000E+000	-58.1348	0.0000000E+000	0.0000000E+000	0.0000000E+000	-31.8652	0.0000000E+000	0.0000000E+000	0.0000000E+000	31.8652	1.60874	58.1348	-6.05642e-07	-3.57942e-06	20411.2
46.4415	6.31538	3.39774	7.17138	-28.2808	11.3705	0.270291	-0.0143187	1008.61	226.412	1	10	0.00512539	0.000714701	0	-6.8224e-05	0.122799	0.0660671	0.139443	28.2808	226412	420831	477871	-61.7192	0.0000000E+000	0.0000000E+000	0.0000000E+000	61.7192	0.0000000E+000	0.0000000E+000	0.0000000E+000	-61.7192	0.0000000E+000	0.0000000E+000	0.0000000E+000	-28.2808	0.0000000E+000	0.0000000E+000	0.0000000E+000	28.2808	1.8587	61.7192	-1.19439e-06	-3.8702e-06	18876.8
21.5517	8.39815	3.29582	9.02171	-21.4273	12.2553	0.270285	-0.0173719	2240.65	299.036	1	10	0.00512013	0.000567534	0	-7.11595e-05	0.103182	0.0404935	0.110844	21.4273	299036	761980	818557	-68.5727	0.0000000E+000	0.0000000E+000	0.0000000E+000	68.5727	0.0000000E+000	0.0000000E+000	0.0000000E+000	-68.5727	0.0000000E+000	0.0000000E+000	0.0000000E+000	-21.4273	0.0000000E+000	0.0000000E+000	0.0000000E+000	21.4273	2.54812	68.5727	-8.5316e-07	-4.69536e-06	15558.8
10.0032	10.0149	2.69405	10.3709	-15.0564	13.2027	0.270288	-0.0133599	5905.75	398.523	1	10	0.0051201	0.000493698	0	-7.25311e-05	0.0931134	0.025048	0.0964236	15.0564	398523	1.48147e+06	1.53414e+06	-74.9436	0.0000000E+000	0.0000000E+000	0.0000000E+000	74.9436	0.0000000E+000	0.0000000E+000	0.0000000E+000	-74.9436	0.0000000E+000	0.0000000E+000	0.0000000E+000	-15.0564	0.0000000E+000	0.0000000E+000	0.0000000E+000	15.0564	3.7174	74.9436	-5.46103e-07	-3.61101e-06	20231.3
4.63925	11.1686	2.07361	11.3594	-10.518	14.2683	0.270303	-0.00651339	16544.2	551.296	1	11	0.00512421	0.000451097	0	-7.16358e-05	0.0865533	0.0160699	0.0880325	10.518	551296	2.96931e+06	3.02006e+06	-79.482	0.0000000E+000	0.0000000E+000	0.0000000E+000	79.482	0.0000000E+000	0.0000000E+000	0.0000000E+000	-79.482	0.0000000E+000	0.0000000E+000	0.0000000E+000	-10.518	0.0000000E+000	0.0000000E+000	0.0000000E+000	10.518	5.38606	79.482	1.77358e-06	-1.76059e-06	41499.6
2.15577	11.9785	1.65856	12.0928	-7.88317	15.9938	0.270314	-0.00583306	44512.9	837.337	1	11	0.00512598	0.000423889	0	-8.49929e-05	0.0819127	0.0113418	0.0826942	7.88317	837337	6.04741e+06	6.1051e+06	-82.1168	0.0000000E+000	0.0000000E+000	0.0000000E+000	82.1168	0.0000000E+000	0.0000000E+000	0.0000000E+000	-82.1168	0.0000000E+000	0.0000000E+000	0.0000000E+000	-7.88317	0.0000000E+000	0.0000000E+000	0.0000000E+000	7.88317	7.22219	82.1168	-4.67647e-06	-1.57676e-06	46341.7
1.00006	12.5901	1.3799	12.6655	-6.25479	19.6072	0.270317	-0.00550137	115330	1368.98	1	11	0.00512477	0.000404625	0	-6.88471e-05	0.0784848	0.00860212	0.0789548	6.25479	1.36898e+06	1.24904e+07	1.25652e+07	-83.7452	0.0000000E+000	0.0000000E+000	0.0000000E+000	83.7452	0.0000000E+000	0.0000000E+000	0.0000000E+000	-83.7452	0.0000000E+000	0.0000000E+000	0.0000000E+000	-6.25479	0.0000000E+000	0.0000000E+000	0.0000000E+000	6.25479	9.12389	83.7452	1.08978e-05	-1.48711e-06	49136.3
0.464091	13.1	1.30749	13.1651	-5.69976	27.2919	0.270317	-0.00249952	262288	2587.09	1	11	0.00512576	0.000389346	0	-6.83471e-05	0.0755831	0.00754387	0.0759587	5.69976	2.58709e+06	2.59204e+07	2.60492e+07	-84.3002	0.0000000E+000	0.0000000E+000	0.0000000E+000	84.3002	0.0000000E+000	0.0000000E+000	0.0000000E+000	-84.3002	0.0000000E+000	0.0000000E+000	0.0000000E+000	-5.69976	0.0000000E+000	0.0000000E+000	0.0000000E+000	5.69976	10.0191	84.3002	-7.13416e-06	-6.75663e-07	108148
0.215268	13.5171	1.49538	13.5996	-6.31287	43.7718	0.270316	-0.00166454	494413	5977.78	1	11	0.00512598	0.000376922	0	-0.000155385	0.0730857	0.00808535	0.0735316	6.31287	5.97778e+06	5.40348e+07	5.43644e+07	-83.6871	0.0000000E+000	0.0000000E+000	0.0000000E+000	83.6871	0.0000000E+000	0.0000000E+000	0.0000000E+000	-83.6871	0.0000000E+000	0.0000000E+000	0.0000000E+000	-6.31287	0.0000000E+000	0.0000000E+000	0.0000000E+000	6.31287	9.03928	83.6871	-5.55119e-05	-4.49951e-07	162398
0.0999041	14.1169	2.12954	14.2766	-8.57844	79.1773	0.270324	-0.00441767	748085	16644.7	1	11	0.00512603	0.000359052	0	-0.000263875	0.0692612	0.0104481	0.0700448	8.57844	1.66447e+07	1.10338e+08	1.11587e+08	-81.4216	0.0000000E+000	0.0000000E+000	0.0000000E+000	81.4216	0.0000000E+000	0.0000000E+000	0.0000000E+000	-81.4216	0.0000000E+000	0.0000000E+000	0.0000000E+000	-8.57844	0.0000000E+000	0.0000000E+000	0.0000000E+000	8.57844	6.62906	81.4216	-4.30348e-05	-1.1942e-06	61191.5
0.0464052	14.9095	3.33081	15.277	-12.5932	155.413	0.270321	-0.0037044	1.02968e+06	48947	1	11	0.00512633	0.000335558	0	-0.000115206	0.063883	0.0142716	0.0654578	12.5932	4.8947e+07	2.19098e+08	2.24499e+08	-77.4068	0.0000000E+000	0.0000000E+000	0.0000000E+000	77.4068	0.0000000E+000	0.0000000E+000	0.0000000E+000	-77.4068	0.0000000E+000	0.0000000E+000	0.0000000E+000	-12.5932	0.0000000E+000	0.0000000E+000	0.0000000E+000	12.5932	4.47624	77.4068	0.000136278	-1.00138e-06	72972.9
0.0215268	16.3211	5.27993	17.1539	-17.9265	351.38	0.270319	0.000604899	1.40027e+06	132660	1	12	0.00512432	0.000298726	0	0.000372843	0.0554655	0.0179432	0.0582957	17.9265	1.3266e+08	4.10076e+08	4.31e+08	-72.0735	0.0000000E+000	0.0000000E+000	0.0000000E+000	72.0735	0.0000000E+000	0.0000000E+000	0.0000000E+000	-72.0735	0.0000000E+000	0.0000000E+000	0.0000000E+000	-17.9265	0.0000000E+000	0.0000000E+000	0.0000000E+000	17.9265	3.09117	72.0735	0.000246784	1.63516e-07	446883
0.0146812	17.1806	6.84633	18.4945	-21.7269	494.576	0.270317	0.00126886	1.58344e+06	216987	1	12	0.00512553	0.000277139	0	0.000384035	0.0502291	0.0200159	0.0540703	21.7269	2.16987e+08	5.44521e+08	5.86162e+08	-68.2731	0.0000000E+000	0.0000000E+000	0.0000000E+000	68.2731	0.0000000E+000	0.0000000E+000	0.0000000E+000	-68.2731	0.0000000E+000	0.0000000E+000	0.0000000E+000	-21.7269	0.0000000E+000	0.0000000E+000	0.0000000E+000	21.7269	2.50946	68.2731	1.11923e-05	3.42993e-07	213040

0.0100092	18.0696	8.75037	20.0769	-25.839	704.597	0.27032	0.000457166	1.81717e+06	345189	1	12	0.00512735	0.000255386	0	-8.88221e-05	0.0448289	0.0217087	0.0498086	25.839	3.45189e+08	7.1282e+08	7.92002e+08	-64.161	0.0000000E+000	0.0000000E+000	0.0000000E+000	64.161	0.0000000E+000	0.0000000E+000	0.0000000E+000	-64.161	0.0000000E+000	0.0000000E+000	0.0000000E+000	-25.839	0.0000000E+000	0.0000000E+000	0.0000000E+000	25.839	2.06501	64.161	-0.000472857	1.23581e-07	591296