File: txt/17699_R287_UA660_SOC00_C06.mpt
EC-Lab ASCII FILE
Nb header lines : 63

Potentio Electrochemical Impedance Spectroscopy

Run on channel : 6 (SN 65795)
User :
CE vs. WE compliance from -10 V to 10 V
Electrode connection : standard
Potential control : Ewe
Ewe ctrl range : min = -10.00 V, max = 10.00 V
Safety Limits :
	Do not start on E overload
Acquisition started on : 09/22/2025 09:04:20.034
Loaded Setting File :  C:\Users\Celltest\OneDrive - store-dot.com\Documents\EC-Lab\Data\Charmaine\17689_R288_UA670_SOC00_C04.mpr
Saved on :
	File : 17699_R287_UA660_SOC00_C06.mpr
	Directory : C:\Users\Celltest\OneDrive - store-dot.com\Documents\EC-Lab\Data\Charmaine\
	Host : 169.254.61.224
Device : VMP-3e (SN .003165)
Address : USB
EC-LAB for windows v11.62 (software)
Internet server v27.00 (firmware)
Command interpretor v12.03 (firmware)
Electrode material :
Initial state :
Electrolyte :
Comments :
Electrode surface area : 0.001 cm²
Characteristic mass : 0.001 g
Equivalent Weight : 0.000 g/eq.
Density : 0.000 g/cm3
Volume (V) : 0.001 cm³
Cycle Definition : Charge/Discharge alternance
Mode                Single sine
E (V)               0.0000
vs.                 Eoc
tE (h:m:s)          0:00:0.0000
record              0
dI                  0.000
unit dI             mA
dt (s)              0.000
fi                  100.000
unit fi             kHz
ff                  10.000
unit ff             mHz
Nd                  6
Points              per decade
spacing             Logarithmic
Va (mV)             5.0
pw                  0.10
Na                  2
corr                0
E range min (V)     -10.000
E range max (V)     10.000
I Range             Auto
Bandwidth           5
nc cycles           0
goto Ns'            0
nr cycles           0
inc. cycle          0

freq/Hz	Re(Z)/Ohm	-Im(Z)/Ohm	|Z|/Ohm	Phase(Z)/deg	time/s	<Ewe>/V	<I>/mA	Cs/µF	Cp/µF	cycle number	I Range	|Ewe|/V	|I|/A	Ns	(Q-Qo)/mA.h	Re(Y)/Ohm-1	Im(Y)/Ohm-1	|Y|/Ohm-1	Phase(Y)/deg	Re(C)/nF	Im(C)/nF	|C|/nF	Phase(C)/deg	Re(M)	Im(M)	|M|	Phase(M)/deg	Re(Permittivity)	Im(Permittivity)	|Permittivity|	Phase(Permittivity)/deg	Re(Resistivity)/Ohm.cm	Im(Resistivity)/Ohm.cm	|Resistivity|/Ohm.cm	Phase(Resistivity)/deg	Re(Conductivity)/mS/cm	Im(Conductivity)/mS/cm	|Conductivity|/mS/cm	Phase(Conductivity)/deg	Tan(Delta)	Loss Angle(Delta)/deg	dq/mA.h	Pwe/W	Rwe/Ohm
100004	1.32214	0.25272	1.34608	-10.8212	1.86549	0.268951	0.0337789	6.29745	0.221975	1	9	0.0046004	0.00341764	0	-4.90109e-07	0.729689	0.139476	0.7429	10.8212	221.975	1161.29	1182.32	-79.1788	0.0000000E+000	0.0000000E+000	0.0000000E+000	79.1788	0.0000000E+000	0.0000000E+000	0.0000000E+000	-79.1788	0.0000000E+000	0.0000000E+000	0.0000000E+000	-10.8212	0.0000000E+000	0.0000000E+000	0.0000000E+000	10.8212	5.23164	79.1788	-4.90109e-07	9.08486e-06	7962.1
46420.4	1.4387	0.272854	1.46435	-10.7388	3.02148	0.268937	0.0308362	12.5655	0.43627	1	9	0.00503686	0.00343967	0	8.91386e-06	0.670939	0.127246	0.682899	10.7388	436.27	2300.36	2341.36	-79.2612	0.0000000E+000	0.0000000E+000	0.0000000E+000	79.2612	0.0000000E+000	0.0000000E+000	0.0000000E+000	-79.2612	0.0000000E+000	0.0000000E+000	0.0000000E+000	-10.7388	0.0000000E+000	0.0000000E+000	0.0000000E+000	10.7388	5.27278	79.2612	4.0452e-06	8.29299e-06	8721.5
21544.7	1.55781	0.317914	1.58992	-11.5344	3.89549	0.268934	0.031041	23.2365	0.929054	1	9	0.00529062	0.0033276	0	1.90627e-05	0.616261	0.125765	0.628963	11.5344	929.054	4552.45	4646.28	-78.4656	0.0000000E+000	0.0000000E+000	0.0000000E+000	78.4656	0.0000000E+000	0.0000000E+000	0.0000000E+000	-78.4656	0.0000000E+000	0.0000000E+000	0.0000000E+000	-11.5344	0.0000000E+000	0.0000000E+000	0.0000000E+000	11.5344	4.90009	78.4656	1.07645e-06	8.34799e-06	8663.83
10002.2	1.69081	0.403874	1.73838	-13.4342	4.76948	0.268931	0.0338348	39.3983	2.12658	1	9	0.00507141	0.00291732	0	2.96691e-05	0.559509	0.133647	0.575249	13.4342	2126.58	8902.88	9153.34	-76.5658	0.0000000E+000	0.0000000E+000	0.0000000E+000	76.5658	0.0000000E+000	0.0000000E+000	0.0000000E+000	-76.5658	0.0000000E+000	0.0000000E+000	0.0000000E+000	-13.4342	0.0000000E+000	0.0000000E+000	0.0000000E+000	13.4342	4.18648	76.5658	8.99977e-06	9.0992e-06	7948.35
4641.49	1.85609	0.558901	1.93841	-16.758	5.61767	0.26894	0.0453077	61.352	5.10043	1	9	0.00517214	0.00266824	0	3.60527e-05	0.493978	0.148745	0.515887	16.758	5100.43	16938.3	17689.6	-73.242	0.0000000E+000	0.0000000E+000	0.0000000E+000	73.242	0.0000000E+000	0.0000000E+000	0.0000000E+000	-73.242	0.0000000E+000	0.0000000E+000	0.0000000E+000	-16.758	0.0000000E+000	0.0000000E+000	0.0000000E+000	16.758	3.32096	73.242	6.33602e-06	1.21851e-05	5935.85
2155.69	2.08486	0.84016	2.24778	-21.9485	6.5517	0.268934	0.043855	87.8763	12.2769	1	9	0.0050771	0.00225871	0	4.56357e-05	0.412638	0.166285	0.444883	21.9485	12276.9	30465.1	32845.8	-68.0515	0.0000000E+000	0.0000000E+000	0.0000000E+000	68.0515	0.0000000E+000	0.0000000E+000	0.0000000E+000	-68.0515	0.0000000E+000	0.0000000E+000	0.0000000E+000	-21.9485	0.0000000E+000	0.0000000E+000	0.0000000E+000	21.9485	2.48151	68.0515	3.62422e-06	1.17941e-05	6132.35
1000.32	2.42756	1.31289	2.75985	-28.4057	7.48768	0.268924	0.043259	121.186	27.4246	1	9	0.00500587	0.00181382	0	5.68354e-05	0.318714	0.172369	0.362339	28.4057	27424.6	50708.6	57649.6	-61.5943	0.0000000E+000	0.0000000E+000	0.0000000E+000	61.5943	0.0000000E+000	0.0000000E+000	0.0000000E+000	-61.5943	0.0000000E+000	0.0000000E+000	0.0000000E+000	-28.4057	0.0000000E+000	0.0000000E+000	0.0000000E+000	28.4057	1.84902	61.5943	6.62949e-06	1.16334e-05	6216.6
463.961	3.02768	2.08694	3.67725	-34.5779	8.67719	0.268934	-0.00817486	164.373	52.9422	1	10	0.00502102	0.00136543	0	5.83916e-05	0.223905	0.154334	0.271942	34.5779	52942.2	76807.4	93285.8	-55.4221	0.0000000E+000	0.0000000E+000	0.0000000E+000	55.4221	0.0000000E+000	0.0000000E+000	0.0000000E+000	-55.4221	0.0000000E+000	0.0000000E+000	0.0000000E+000	-34.5779	0.0000000E+000	0.0000000E+000	0.0000000E+000	34.5779	1.45078	55.4221	-2.51939e-07	-2.19849e-06	32897.6
215.345	4.07343	3.24003	5.20486	-38.499	9.61143	0.268931	-0.00851212	228.106	88.3928	1	10	0.00496919	0.00095472	0	5.66922e-05	0.150363	0.1196	0.192128	38.499	88392.8	111129	141996	-51.501	0.0000000E+000	0.0000000E+000	0.0000000E+000	51.501	0.0000000E+000	0.0000000E+000	0.0000000E+000	-51.501	0.0000000E+000	0.0000000E+000	0.0000000E+000	-38.499	0.0000000E+000	0.0000000E+000	0.0000000E+000	38.499	1.25722	51.501	-1.25966e-06	-2.28917e-06	31593.9
100.032	5.88344	4.76405	7.57041	-38.9985	10.5427	0.268933	-0.00829972	333.968	132.257	1	10	0.00494929	0.000653768	0	5.44129e-05	0.102658	0.0831262	0.132093	38.9985	132257	163333	210166	-51.0015	0.0000000E+000	0.0000000E+000	0.0000000E+000	51.0015	0.0000000E+000	0.0000000E+000	0.0000000E+000	-51.0015	0.0000000E+000	0.0000000E+000	0.0000000E+000	-38.9985	0.0000000E+000	0.0000000E+000	0.0000000E+000	38.9985	1.23496	51.0015	-1.14912e-06	-2.23207e-06	32402.6
46.4415	8.83884	6.29075	10.8489	-35.4401	11.4766	0.268925	-0.00992077	544.768	183.166	1	10	0.00493419	0.00045481	0	5.19861e-05	0.0750973	0.0534479	0.0921753	35.4401	183166	257358	315884	-54.5599	0.0000000E+000	0.0000000E+000	0.0000000E+000	54.5599	0.0000000E+000	0.0000000E+000	0.0000000E+000	-54.5599	0.0000000E+000	0.0000000E+000	0.0000000E+000	-35.4401	0.0000000E+000	0.0000000E+000	0.0000000E+000	35.4401	1.40505	54.5599	-1.41173e-06	-2.66794e-06	27107.2
21.5517	12.8023	6.95037	14.5673	-28.4976	12.3623	0.268924	-0.0129505	1062.5	241.874	1	10	0.00493647	0.000338874	0	4.84338e-05	0.0603295	0.032753	0.068647	28.4976	241874	445521	506944	-61.5024	0.0000000E+000	0.0000000E+000	0.0000000E+000	61.5024	0.0000000E+000	0.0000000E+000	0.0000000E+000	-61.5024	0.0000000E+000	0.0000000E+000	0.0000000E+000	-28.4976	0.0000000E+000	0.0000000E+000	0.0000000E+000	28.4976	1.84196	61.5024	-2.52682e-06	-3.4827e-06	20765.6
10.0032	16.6968	6.59329	17.9514	-21.5483	13.5667	0.268944	-0.00614866	2413.12	325.526	1	11	0.00493556	0.000274939	0	4.95014e-05	0.0518125	0.0204599	0.0557059	21.5483	325526	824358	886303	-68.4517	0.0000000E+000	0.0000000E+000	0.0000000E+000	68.4517	0.0000000E+000	0.0000000E+000	0.0000000E+000	-68.4517	0.0000000E+000	0.0000000E+000	0.0000000E+000	-21.5483	0.0000000E+000	0.0000000E+000	0.0000000E+000	21.5483	2.53239	68.4517	1.31054e-06	-1.65365e-06	43740.3
4.63925	19.833	5.74607	20.6486	-16.1575	14.4263	0.268945	-0.00605913	5970.37	462.34	1	11	0.00492897	0.000238707	0	4.83638e-05	0.0465165	0.0134769	0.0484294	16.1575	462340	1.5958e+06	1.66143e+06	-73.8425	0.0000000E+000	0.0000000E+000	0.0000000E+000	73.8425	0.0000000E+000	0.0000000E+000	0.0000000E+000	-73.8425	0.0000000E+000	0.0000000E+000	0.0000000E+000	-16.1575	0.0000000E+000	0.0000000E+000	0.0000000E+000	16.1575	3.45158	73.8425	2.46565e-06	-1.62957e-06	44386.8
2.15577	22.4202	4.93634	22.9572	-12.4169	16.1528	0.268952	-0.00405425	14955.9	691.492	1	11	0.00493355	0.000214902	0	4.25096e-05	0.0425405	0.00936631	0.0435594	12.4169	691492	3.14066e+06	3.21588e+06	-77.5831	0.0000000E+000	0.0000000E+000	0.0000000E+000	77.5831	0.0000000E+000	0.0000000E+000	0.0000000E+000	-77.5831	0.0000000E+000	0.0000000E+000	0.0000000E+000	-12.4169	0.0000000E+000	0.0000000E+000	0.0000000E+000	12.4169	4.54186	77.5831	-5.42622e-06	-1.0904e-06	66338.3
1.00006	24.6028	4.22362	24.9627	-9.74112	20.8163	0.268952	-0.00411225	37679.7	1078.68	1	12	0.00493485	0.000197689	0	3.50843e-05	0.0394821	0.00677797	0.0400597	9.74112	1.07868e+06	6.28337e+06	6.37529e+06	-80.2589	0.0000000E+000	0.0000000E+000	0.0000000E+000	80.2589	0.0000000E+000	0.0000000E+000	0.0000000E+000	-80.2589	0.0000000E+000	0.0000000E+000	0.0000000E+000	-9.74112	0.0000000E+000	0.0000000E+000	0.0000000E+000	9.74112	5.82506	80.2589	-1.77809e-06	-1.106e-06	65402.5
0.464091	26.3586	3.61953	26.606	-7.81888	28.5009	0.268964	-0.00332031	94746.9	1753.52	1	12	0.00493475	0.000185475	0	4.72082e-05	0.0372361	0.00511322	0.0375855	7.81888	1.75352e+06	1.27697e+07	1.28896e+07	-82.1811	0.0000000E+000	0.0000000E+000	0.0000000E+000	82.1811	0.0000000E+000	0.0000000E+000	0.0000000E+000	-82.1811	0.0000000E+000	0.0000000E+000	0.0000000E+000	-7.81888	0.0000000E+000	0.0000000E+000	0.0000000E+000	7.81888	7.28233	82.1811	7.1159e-06	-8.93046e-07	81005.7
0.215268	27.7969	3.4093	28.0052	-6.99241	44.981	0.268949	-0.00203664	216858	3213.87	1	12	0.00493949	0.000176378	0	3.42603e-05	0.0354421	0.00434698	0.0357076	6.99241	3.21387e+06	2.62035e+07	2.63999e+07	-83.0076	0.0000000E+000	0.0000000E+000	0.0000000E+000	83.0076	0.0000000E+000	0.0000000E+000	0.0000000E+000	-83.0076	0.0000000E+000	0.0000000E+000	0.0000000E+000	-6.99241	0.0000000E+000	0.0000000E+000	0.0000000E+000	6.99241	8.15327	83.0076	-1.35964e-05	-5.47754e-07	132055
0.0999041	28.9835	3.73607	29.2233	-7.3451	80.3891	0.268946	-0.00162154	426405	6969.35	1	12	0.00493372	0.000168828	0	-5.74311e-05	0.0339384	0.00437477	0.0342192	7.3451	6.96935e+06	5.40665e+07	5.45139e+07	-82.6549	0.0000000E+000	0.0000000E+000	0.0000000E+000	82.6549	0.0000000E+000	0.0000000E+000	0.0000000E+000	-82.6549	0.0000000E+000	0.0000000E+000	0.0000000E+000	-7.3451	0.0000000E+000	0.0000000E+000	0.0000000E+000	7.3451	7.75777	82.6549	-5.69986e-05	-4.36107e-07	165858
0.0464052	30.4807	5.06541	30.8988	-9.4354	156.626	0.268945	-0.00245123	677079	18196.4	1	12	0.00493702	0.000159781	0	-0.000176498	0.0319259	0.00530557	0.0323637	9.4354	1.81964e+07	1.09496e+08	1.10997e+08	-80.5646	0.0000000E+000	0.0000000E+000	0.0000000E+000	80.5646	0.0000000E+000	0.0000000E+000	0.0000000E+000	-80.5646	0.0000000E+000	0.0000000E+000	0.0000000E+000	-9.4354	0.0000000E+000	0.0000000E+000	0.0000000E+000	9.4354	6.01743	80.5646	-5.18001e-05	-6.59247e-07	109718
0.0215268	32.2704	7.72241	33.1815	-13.458	320.855	0.268939	-0.00198747	957389	51856.2	1	12	0.00493426	0.000148705	0	-4.16918e-05	0.0293097	0.0070139	0.0301372	13.458	5.18562e+07	2.16697e+08	2.22815e+08	-76.542	0.0000000E+000	0.0000000E+000	0.0000000E+000	76.542	0.0000000E+000	0.0000000E+000	0.0000000E+000	-76.542	0.0000000E+000	0.0000000E+000	0.0000000E+000	-13.458	0.0000000E+000	0.0000000E+000	0.0000000E+000	13.458	4.1788	76.542	0.000120421	-5.34509e-07	135317
0.0100092	35.4897	12.1164	37.501	-18.8503	674.072	0.268944	-0.000155347	1.31234e+06	136997	1	12	0.00493905	0.000131704	0	0.000391411	0.0252357	0.00861566	0.0266659	18.8503	1.36997e+08	4.01271e+08	4.24013e+08	-71.1497	0.0000000E+000	0.0000000E+000	0.0000000E+000	71.1497	0.0000000E+000	0.0000000E+000	0.0000000E+000	-71.1497	0.0000000E+000	0.0000000E+000	0.0000000E+000	-18.8503	0.0000000E+000	0.0000000E+000	0.0000000E+000	18.8503	2.92905	71.1497	0.000214374	-4.17796e-08	1.73125e+06