File: txt/17692_R287_UA658_SOC00_C07.mpt
EC-Lab ASCII FILE
Nb header lines : 63

Potentio Electrochemical Impedance Spectroscopy

Run on channel : 7 (SN 66126)
User :
CE vs. WE compliance from -10 V to 10 V
Electrode connection : standard
Potential control : Ewe
Ewe ctrl range : min = -10.00 V, max = 10.00 V
Safety Limits :
	Do not start on E overload
Acquisition started on : 09/22/2025 08:45:32.408
Loaded Setting File :  C:\Users\Celltest\OneDrive - store-dot.com\Documents\EC-Lab\Data\Charmaine\17689_R288_UA670_SOC00_C04.mpr
Saved on :
	File : 17692_R287_UA658_SOC00_C07.mpr
	Directory : C:\Users\Celltest\OneDrive - store-dot.com\Documents\EC-Lab\Data\Charmaine\
	Host : 169.254.61.224
Device : VMP-3e (SN .003165)
Address : USB
EC-LAB for windows v11.62 (software)
Internet server v27.00 (firmware)
Command interpretor v12.03 (firmware)
Electrode material :
Initial state :
Electrolyte :
Comments :
Electrode surface area : 0.001 cm²
Characteristic mass : 0.001 g
Equivalent Weight : 0.000 g/eq.
Density : 0.000 g/cm3
Volume (V) : 0.001 cm³
Cycle Definition : Charge/Discharge alternance
Mode                Single sine
E (V)               0.0000
vs.                 Eoc
tE (h:m:s)          0:00:0.0000
record              0
dI                  0.000
unit dI             mA
dt (s)              0.000
fi                  100.000
unit fi             kHz
ff                  10.000
unit ff             mHz
Nd                  6
Points              per decade
spacing             Logarithmic
Va (mV)             5.0
pw                  0.10
Na                  2
corr                0
E range min (V)     -10.000
E range max (V)     10.000
I Range             Auto
Bandwidth           5
nc cycles           0
goto Ns'            0
nr cycles           0
inc. cycle          0

freq/Hz	Re(Z)/Ohm	-Im(Z)/Ohm	|Z|/Ohm	Phase(Z)/deg	time/s	<Ewe>/V	<I>/mA	Cs/µF	Cp/µF	cycle number	I Range	|Ewe|/V	|I|/A	Ns	(Q-Qo)/mA.h	Re(Y)/Ohm-1	Im(Y)/Ohm-1	|Y|/Ohm-1	Phase(Y)/deg	Re(C)/nF	Im(C)/nF	|C|/nF	Phase(C)/deg	Re(M)	Im(M)	|M|	Phase(M)/deg	Re(Permittivity)	Im(Permittivity)	|Permittivity|	Phase(Permittivity)/deg	Re(Resistivity)/Ohm.cm	Im(Resistivity)/Ohm.cm	|Resistivity|/Ohm.cm	Phase(Resistivity)/deg	Re(Conductivity)/mS/cm	Im(Conductivity)/mS/cm	|Conductivity|/mS/cm	Phase(Conductivity)/deg	Tan(Delta)	Loss Angle(Delta)/deg	dq/mA.h	Pwe/W	Rwe/Ohm
100004	0.904463	0.176278	0.921481	-11.0286	1.86447	0.276126	0.0550237	9.02829	0.330392	1	9	0.00494918	0.0053709	0	4.94231e-06	1.06517	0.207599	1.08521	11.0286	330.392	1695.2	1727.1	-78.9714	0.0000000E+000	0.0000000E+000	0.0000000E+000	78.9714	0.0000000E+000	0.0000000E+000	0.0000000E+000	-78.9714	0.0000000E+000	0.0000000E+000	0.0000000E+000	-11.0286	0.0000000E+000	0.0000000E+000	0.0000000E+000	11.0286	5.13088	78.9714	4.94231e-06	1.51935e-05	5018.32
46420.4	0.99191	0.212748	1.01447	-12.1055	2.73848	0.276151	0.0545397	16.1156	0.708759	1	9	0.00546287	0.00538496	0	2.77768e-05	0.963818	0.206722	0.985737	12.1055	708.759	3304.51	3379.66	-77.8945	0.0000000E+000	0.0000000E+000	0.0000000E+000	77.8945	0.0000000E+000	0.0000000E+000	0.0000000E+000	-77.8945	0.0000000E+000	0.0000000E+000	0.0000000E+000	-12.1055	0.0000000E+000	0.0000000E+000	0.0000000E+000	12.1055	4.66238	77.8945	7.19721e-06	1.50612e-05	5063.31
21544.7	1.09694	0.271829	1.13012	-13.9179	3.8945	0.276164	0.0588776	27.1759	1.57227	1	9	0.00506631	0.00448299	0	3.15032e-05	0.858884	0.212837	0.884863	13.9179	1572.27	6344.75	6536.66	-76.0821	0.0000000E+000	0.0000000E+000	0.0000000E+000	76.0821	0.0000000E+000	0.0000000E+000	0.0000000E+000	-76.0821	0.0000000E+000	0.0000000E+000	0.0000000E+000	-13.9179	0.0000000E+000	0.0000000E+000	0.0000000E+000	13.9179	4.0354	76.0821	2.24323e-06	1.62599e-05	4690.48
10002.2	1.22683	0.350411	1.27589	-15.9405	4.48649	0.27616	0.0575929	45.4094	3.42509	1	9	0.00471881	0.00369843	0	4.22489e-05	0.753626	0.215252	0.783764	15.9405	3425.09	11991.7	12471.2	-74.0595	0.0000000E+000	0.0000000E+000	0.0000000E+000	74.0595	0.0000000E+000	0.0000000E+000	0.0000000E+000	-74.0595	0.0000000E+000	0.0000000E+000	0.0000000E+000	-15.9405	0.0000000E+000	0.0000000E+000	0.0000000E+000	15.9405	3.50113	74.0595	3.34356e-06	1.59048e-05	4795.03
4641.49	1.39774	0.462021	1.47212	-18.2912	5.51271	0.276073	0.0178806	74.2167	7.31032	1	9	0.00472057	0.00320664	0	4.0164e-05	0.644969	0.213193	0.679291	18.2912	7310.32	22115.8	23292.7	-71.7088	0.0000000E+000	0.0000000E+000	0.0000000E+000	71.7088	0.0000000E+000	0.0000000E+000	0.0000000E+000	-71.7088	0.0000000E+000	0.0000000E+000	0.0000000E+000	-18.2912	0.0000000E+000	0.0000000E+000	0.0000000E+000	18.2912	3.02528	71.7088	8.79997e-07	4.93635e-06	15439.7
2155.69	1.61777	0.610712	1.72921	-20.6816	6.44671	0.276065	0.0160561	120.892	15.0791	1	9	0.00457245	0.00264424	0	4.52924e-05	0.541032	0.20424	0.578299	20.6816	15079.1	39944.5	42695.9	-69.3184	0.0000000E+000	0.0000000E+000	0.0000000E+000	69.3184	0.0000000E+000	0.0000000E+000	0.0000000E+000	-69.3184	0.0000000E+000	0.0000000E+000	0.0000000E+000	-20.6816	0.0000000E+000	0.0000000E+000	0.0000000E+000	20.6816	2.649	69.3184	3.02001e-06	4.43253e-06	17193.8
1000.32	1.89368	0.831217	2.06808	-23.6987	7.3827	0.276064	0.0151996	191.411	30.9215	1	9	0.0045253	0.00218816	0	4.90036e-05	0.442764	0.194347	0.48354	23.6987	30921.5	70445.5	76933.1	-66.3013	0.0000000E+000	0.0000000E+000	0.0000000E+000	66.3013	0.0000000E+000	0.0000000E+000	0.0000000E+000	-66.3013	0.0000000E+000	0.0000000E+000	0.0000000E+000	-23.6987	0.0000000E+000	0.0000000E+000	0.0000000E+000	23.6987	2.27821	66.3013	3.35001e-06	4.19607e-06	18162.6
463.961	2.29017	1.19751	2.58436	-27.6047	8.54121	0.276072	0.0141942	286.457	61.5052	1	9	0.00499298	0.001932	0	5.15727e-05	0.342896	0.179297	0.386943	27.6047	61505.2	117625	132735	-62.3953	0.0000000E+000	0.0000000E+000	0.0000000E+000	62.3953	0.0000000E+000	0.0000000E+000	0.0000000E+000	-62.3953	0.0000000E+000	0.0000000E+000	0.0000000E+000	-27.6047	0.0000000E+000	0.0000000E+000	0.0000000E+000	27.6047	1.91244	62.3953	2.56664e-06	3.91863e-06	19449.6
215.345	2.93328	1.72358	3.40219	-30.4382	9.72841	0.276116	-0.0252116	428.8	110.053	1	10	0.0050085	0.00147214	0	4.70533e-05	0.253418	0.148907	0.293928	30.4382	110053	187294	217234	-59.5618	0.0000000E+000	0.0000000E+000	0.0000000E+000	59.5618	0.0000000E+000	0.0000000E+000	0.0000000E+000	-59.5618	0.0000000E+000	0.0000000E+000	0.0000000E+000	-30.4382	0.0000000E+000	0.0000000E+000	0.0000000E+000	30.4382	1.70186	59.5618	-2.76466e-06	-6.96132e-06	10951.9
100.032	3.96922	2.32936	4.60224	-30.4069	10.6597	0.276114	-0.0246997	683.037	174.977	1	10	0.00499456	0.00108525	0	3.96546e-05	0.187399	0.109976	0.217286	30.4069	174977	298159	345710	-59.5931	0.0000000E+000	0.0000000E+000	0.0000000E+000	59.5931	0.0000000E+000	0.0000000E+000	0.0000000E+000	-59.5931	0.0000000E+000	0.0000000E+000	0.0000000E+000	-30.4069	0.0000000E+000	0.0000000E+000	0.0000000E+000	30.4069	1.70399	59.5931	-3.75266e-06	-6.81994e-06	11178.8
46.4415	5.43827	2.70553	6.0741	-26.4503	11.5936	0.276103	-0.0274862	1266.66	251.306	1	10	0.00497674	0.000819338	0	3.25733e-05	0.1474	0.0733312	0.164634	26.4503	251306	505139	564198	-63.5497	0.0000000E+000	0.0000000E+000	0.0000000E+000	63.5497	0.0000000E+000	0.0000000E+000	0.0000000E+000	-63.5497	0.0000000E+000	0.0000000E+000	0.0000000E+000	-26.4503	0.0000000E+000	0.0000000E+000	0.0000000E+000	26.4503	2.01006	63.5497	-3.8503e-06	-7.58904e-06	10045.1
21.5517	6.99938	2.60656	7.46896	-20.4252	12.4793	0.276098	-0.0291056	2833.16	345.052	1	10	0.00497497	0.000666086	0	2.45786e-05	0.12547	0.0467247	0.133887	20.4252	345052	926567	988730	-69.5748	0.0000000E+000	0.0000000E+000	0.0000000E+000	69.5748	0.0000000E+000	0.0000000E+000	0.0000000E+000	-69.5748	0.0000000E+000	0.0000000E+000	0.0000000E+000	-20.4252	0.0000000E+000	0.0000000E+000	0.0000000E+000	20.4252	2.6853	69.5748	-5.04175e-06	-8.03601e-06	9486.07
10.0032	8.31241	2.22853	8.60596	-15.0079	13.4257	0.276109	-0.0238007	7139.42	478.741	1	10	0.0049794	0.0005786	0	1.88723e-05	0.112235	0.0300898	0.116199	15.0079	478741	1.7857e+06	1.84877e+06	-74.9921	0.0000000E+000	0.0000000E+000	0.0000000E+000	74.9921	0.0000000E+000	0.0000000E+000	0.0000000E+000	-74.9921	0.0000000E+000	0.0000000E+000	0.0000000E+000	-15.0079	0.0000000E+000	0.0000000E+000	0.0000000E+000	15.0079	3.73	74.9921	-2.53978e-06	-6.57159e-06	11600.9
4.63925	9.3255	1.80916	9.49937	-10.9791	14.5563	0.27613	-0.0142375	18962.4	687.797	1	11	0.00497528	0.000523748	0	1.35485e-05	0.103343	0.0200488	0.10527	10.9791	687797	3.54531e+06	3.61141e+06	-79.0209	0.0000000E+000	0.0000000E+000	0.0000000E+000	79.0209	0.0000000E+000	0.0000000E+000	0.0000000E+000	-79.0209	0.0000000E+000	0.0000000E+000	0.0000000E+000	-10.9791	0.0000000E+000	0.0000000E+000	0.0000000E+000	10.9791	5.15459	79.0209	-6.00711e-06	-3.93141e-06	19394.5
2.15577	10.0524	1.40322	10.1498	-7.94663	16.2808	0.276146	-0.0130325	52612.9	1005.6	1	11	0.00498075	0.000490722	0	1.8828e-05	0.0975776	0.013621	0.0985237	7.94663	1.0056e+06	7.20391e+06	7.27376e+06	-82.0534	0.0000000E+000	0.0000000E+000	0.0000000E+000	82.0534	0.0000000E+000	0.0000000E+000	0.0000000E+000	-82.0534	0.0000000E+000	0.0000000E+000	0.0000000E+000	-7.94663	0.0000000E+000	0.0000000E+000	0.0000000E+000	7.94663	7.16379	82.0534	6.61242e-06	-3.59886e-06	21189
1.00006	10.5582	1.16064	10.6218	-6.2732	19.8942	0.27615	-0.00891852	137118	1637.16	1	11	0.00498407	0.000469229	0	7.72374e-06	0.093582	0.0102872	0.0941457	6.2732	1.63716e+06	1.48931e+07	1.49828e+07	-83.7268	0.0000000E+000	0.0000000E+000	0.0000000E+000	83.7268	0.0000000E+000	0.0000000E+000	0.0000000E+000	-83.7268	0.0000000E+000	0.0000000E+000	0.0000000E+000	-6.2732	0.0000000E+000	0.0000000E+000	0.0000000E+000	6.2732	9.0969	83.7268	-1.27029e-05	-2.46285e-06	30963.6
0.464091	10.9363	1.13174	10.9947	-5.90824	27.5789	0.276147	-0.00777271	303019	3210.71	1	11	0.00498248	0.000453173	0	-5.6392e-05	0.0904701	0.00936233	0.0909533	5.90824	3.21071e+06	3.10258e+07	3.11915e+07	-84.0918	0.0000000E+000	0.0000000E+000	0.0000000E+000	84.0918	0.0000000E+000	0.0000000E+000	0.0000000E+000	-84.0918	0.0000000E+000	0.0000000E+000	0.0000000E+000	-5.90824	0.0000000E+000	0.0000000E+000	0.0000000E+000	5.90824	9.66321	84.0918	-3.73961e-05	-2.14641e-06	35527.8
0.215268	11.359	1.43892	11.4498	-7.21959	44.059	0.276148	-0.00906588	513810	8114.9	1	11	0.00498477	0.000435358	0	-9.36422e-05	0.0866453	0.010976	0.0873378	7.21959	8.1149e+06	6.40599e+07	6.45718e+07	-82.7804	0.0000000E+000	0.0000000E+000	0.0000000E+000	82.7804	0.0000000E+000	0.0000000E+000	0.0000000E+000	-82.7804	0.0000000E+000	0.0000000E+000	0.0000000E+000	-7.21959	0.0000000E+000	0.0000000E+000	0.0000000E+000	7.21959	7.89411	82.7804	-5.75746e-06	-2.50353e-06	30460.2
0.0999041	11.8966	2.05726	12.0732	-9.81102	79.4646	0.276167	-0.00431063	774367	22484.4	1	11	0.00498121	0.000412584	0	3.44017e-05	0.0816167	0.0141138	0.082828	9.81102	2.24844e+07	1.30022e+08	1.31951e+08	-80.189	0.0000000E+000	0.0000000E+000	0.0000000E+000	80.189	0.0000000E+000	0.0000000E+000	0.0000000E+000	-80.189	0.0000000E+000	0.0000000E+000	0.0000000E+000	-9.81102	0.0000000E+000	0.0000000E+000	0.0000000E+000	9.81102	5.78275	80.189	8.80973e-05	-1.19046e-06	64066.6
0.0464052	12.8065	3.22834	13.2071	-14.1487	155.701	0.276162	0.00151302	1.06237e+06	63476.9	1	11	0.0049867	0.000377576	0	0.000186037	0.0734198	0.0185081	0.0757167	14.1487	6.34769e+07	2.51806e+08	2.59684e+08	-75.8513	0.0000000E+000	0.0000000E+000	0.0000000E+000	75.8513	0.0000000E+000	0.0000000E+000	0.0000000E+000	-75.8513	0.0000000E+000	0.0000000E+000	0.0000000E+000	-14.1487	0.0000000E+000	0.0000000E+000	0.0000000E+000	14.1487	3.9669	75.8513	4.93572e-05	4.17838e-07	182524
0.0215268	13.8811	5.20346	14.8243	-20.549	319.932	0.27617	0.000935335	1.42085e+06	175058	1	11	0.00498336	0.000336161	0	-0.000340804	0.0631646	0.0236778	0.0674567	20.549	1.75058e+08	4.66998e+08	4.98731e+08	-69.451	0.0000000E+000	0.0000000E+000	0.0000000E+000	69.451	0.0000000E+000	0.0000000E+000	0.0000000E+000	-69.451	0.0000000E+000	0.0000000E+000	0.0000000E+000	-20.549	0.0000000E+000	0.0000000E+000	0.0000000E+000	20.549	2.66767	69.451	-0.00039922	2.58311e-07	295263
0.0100092	15.77	8.78375	18.0512	-29.1174	741.391	0.276178	-0.00175415	1.81027e+06	428635	1	12	0.00498188	0.000275985	0	-0.00142324	0.0483969	0.0269566	0.0553978	29.1174	4.28635e+08	7.69555e+08	8.80876e+08	-60.8826	0.0000000E+000	0.0000000E+000	0.0000000E+000	60.8826	0.0000000E+000	0.0000000E+000	0.0000000E+000	-60.8826	0.0000000E+000	0.0000000E+000	0.0000000E+000	-29.1174	0.0000000E+000	0.0000000E+000	0.0000000E+000	29.1174	1.79536	60.8826	-0.00046524	-4.84458e-07	157443