File: txt/17693_R287_UA658_SOC00_C08.mpt
EC-Lab ASCII FILE
Nb header lines : 63

Potentio Electrochemical Impedance Spectroscopy

Run on channel : 8 (SN 65398)
User :
CE vs. WE compliance from -10 V to 10 V
Electrode connection : standard
Potential control : Ewe
Ewe ctrl range : min = -10.00 V, max = 10.00 V
Safety Limits :
	Do not start on E overload
Acquisition started on : 09/22/2025 08:45:42.394
Loaded Setting File :  C:\Users\Celltest\OneDrive - store-dot.com\Documents\EC-Lab\Data\Charmaine\17688_R288_UA670_SOC00_C03.mpr
Saved on :
	File : 17693_R287_UA658_SOC00_C08.mpr
	Directory : C:\Users\Celltest\OneDrive - store-dot.com\Documents\EC-Lab\Data\Charmaine\
	Host : 169.254.61.224
Device : VMP-3e (SN .003165)
Address : USB
EC-LAB for windows v11.62 (software)
Internet server v27.00 (firmware)
Command interpretor v12.03 (firmware)
Electrode material :
Initial state :
Electrolyte :
Comments :
Electrode surface area : 0.001 cm²
Characteristic mass : 0.001 g
Equivalent Weight : 0.000 g/eq.
Density : 0.000 g/cm3
Volume (V) : 0.001 cm³
Cycle Definition : Charge/Discharge alternance
Mode                Single sine
E (V)               0.0000
vs.                 Eoc
tE (h:m:s)          0:00:0.0000
record              0
dI                  0.000
unit dI             mA
dt (s)              0.000
fi                  100.000
unit fi             kHz
ff                  10.000
unit ff             mHz
Nd                  6
Points              per decade
spacing             Logarithmic
Va (mV)             5.0
pw                  0.10
Na                  2
corr                0
E range min (V)     -10.000
E range max (V)     10.000
I Range             Auto
Bandwidth           5
nc cycles           0
goto Ns'            0
nr cycles           0
inc. cycle          0

freq/Hz	Re(Z)/Ohm	-Im(Z)/Ohm	|Z|/Ohm	Phase(Z)/deg	time/s	<Ewe>/V	<I>/mA	Cs/µF	Cp/µF	cycle number	I Range	|Ewe|/V	|I|/A	Ns	(Q-Qo)/mA.h	Re(Y)/Ohm-1	Im(Y)/Ohm-1	|Y|/Ohm-1	Phase(Y)/deg	Re(C)/nF	Im(C)/nF	|C|/nF	Phase(C)/deg	Re(M)	Im(M)	|M|	Phase(M)/deg	Re(Permittivity)	Im(Permittivity)	|Permittivity|	Phase(Permittivity)/deg	Re(Resistivity)/Ohm.cm	Im(Resistivity)/Ohm.cm	|Resistivity|/Ohm.cm	Phase(Resistivity)/deg	Re(Conductivity)/mS/cm	Im(Conductivity)/mS/cm	|Conductivity|/mS/cm	Phase(Conductivity)/deg	Tan(Delta)	Loss Angle(Delta)/deg	dq/mA.h	Pwe/W	Rwe/Ohm
100004	1.00855	0.18017	1.02452	-10.1286	1.86449	0.279417	0.0236445	8.83328	0.273178	1	9	0.00483222	0.00471657	0	-8.36478e-07	0.960856	0.171649	0.976067	10.1286	273.178	1529.19	1553.4	-79.8714	0.0000000E+000	0.0000000E+000	0.0000000E+000	79.8714	0.0000000E+000	0.0000000E+000	0.0000000E+000	-79.8714	0.0000000E+000	0.0000000E+000	0.0000000E+000	-10.1286	0.0000000E+000	0.0000000E+000	0.0000000E+000	10.1286	5.59779	79.8714	-8.36478e-07	6.60668e-06	11817.4
46420.4	1.09834	0.217924	1.11975	-11.2224	2.87949	0.279428	0.0283878	15.7328	0.5959	1	9	0.00505476	0.00451418	0	4.01605e-06	0.875979	0.173805	0.893055	11.2224	595.9	3003.35	3061.89	-78.7776	0.0000000E+000	0.0000000E+000	0.0000000E+000	78.7776	0.0000000E+000	0.0000000E+000	0.0000000E+000	-78.7776	0.0000000E+000	0.0000000E+000	0.0000000E+000	-11.2224	0.0000000E+000	0.0000000E+000	0.0000000E+000	11.2224	5.04001	78.7776	6.2515e-06	7.93234e-06	9843.26
21544.7	1.20493	0.280578	1.23716	-13.1083	3.89549	0.279424	0.0267137	26.3285	1.35419	1	9	0.00540928	0.00437233	0	8.03181e-06	0.78724	0.183316	0.808302	13.1083	1354.19	5815.5	5971.09	-76.8917	0.0000000E+000	0.0000000E+000	0.0000000E+000	76.8917	0.0000000E+000	0.0000000E+000	0.0000000E+000	-76.8917	0.0000000E+000	0.0000000E+000	0.0000000E+000	-13.1083	0.0000000E+000	0.0000000E+000	0.0000000E+000	13.1083	4.29443	76.8917	-1.96625e-06	7.46444e-06	10460
10002.2	1.33753	0.361908	1.38563	-15.1405	4.48749	0.279419	0.0244257	43.9669	2.99935	1	9	0.00498274	0.00359601	0	1.31121e-05	0.696642	0.188497	0.721693	15.1405	2999.35	11084.9	11483.6	-74.8595	0.0000000E+000	0.0000000E+000	0.0000000E+000	74.8595	0.0000000E+000	0.0000000E+000	0.0000000E+000	-74.8595	0.0000000E+000	0.0000000E+000	0.0000000E+000	-15.1405	0.0000000E+000	0.0000000E+000	0.0000000E+000	15.1405	3.69578	74.8595	9.96215e-07	6.82499e-06	11439.5
4641.49	1.51997	0.48062	1.59414	-17.5472	5.33767	0.279371	0.0234026	71.3447	6.48501	1	9	0.00454553	0.00285139	0	8.28277e-06	0.598108	0.189124	0.627296	17.5472	6485.01	20508.9	21509.8	-72.4528	0.0000000E+000	0.0000000E+000	0.0000000E+000	72.4528	0.0000000E+000	0.0000000E+000	0.0000000E+000	-72.4528	0.0000000E+000	0.0000000E+000	0.0000000E+000	-17.5472	0.0000000E+000	0.0000000E+000	0.0000000E+000	17.5472	3.16251	72.4528	4.60017e-06	6.538e-06	11937.6
2155.69	1.74808	0.63375	1.85942	-19.9276	6.49467	0.279376	0.0227144	116.497	13.5331	1	9	0.00493746	0.00265538	0	1.41743e-05	0.505601	0.183301	0.537803	19.9276	13533.1	37328.6	39706.1	-70.0724	0.0000000E+000	0.0000000E+000	0.0000000E+000	70.0724	0.0000000E+000	0.0000000E+000	0.0000000E+000	-70.0724	0.0000000E+000	0.0000000E+000	0.0000000E+000	-19.9276	0.0000000E+000	0.0000000E+000	0.0000000E+000	19.9276	2.75832	70.0724	2.46203e-06	6.34584e-06	12299.5
1000.32	2.03096	0.872829	2.21057	-23.2562	7.43067	0.279373	0.0259138	182.285	28.4186	1	9	0.00488952	0.00221188	0	1.93997e-05	0.415616	0.178616	0.452372	23.2562	28418.6	66126.2	71974.2	-66.7438	0.0000000E+000	0.0000000E+000	0.0000000E+000	66.7438	0.0000000E+000	0.0000000E+000	0.0000000E+000	-66.7438	0.0000000E+000	0.0000000E+000	0.0000000E+000	-23.2562	0.0000000E+000	0.0000000E+000	0.0000000E+000	23.2562	2.32687	66.7438	1.32546e-06	7.23961e-06	10780.9
463.961	2.45163	1.23572	2.74545	-26.7499	8.36522	0.279376	0.0203334	277.6	56.2382	1	9	0.00487484	0.00177561	0	2.31203e-05	0.325258	0.163943	0.364239	26.7499	56238.2	111575	124947	-63.2501	0.0000000E+000	0.0000000E+000	0.0000000E+000	63.2501	0.0000000E+000	0.0000000E+000	0.0000000E+000	-63.2501	0.0000000E+000	0.0000000E+000	0.0000000E+000	-26.7499	0.0000000E+000	0.0000000E+000	0.0000000E+000	26.7499	1.98398	63.2501	1.35644e-06	5.68067e-06	13739.8
215.345	3.08776	1.76622	3.55722	-29.7698	9.55244	0.279384	-0.0230654	418.448	103.16	1	10	0.00488967	0.00137458	0	1.74315e-05	0.244019	0.13958	0.281119	29.7698	103160	180347	207767	-60.2302	0.0000000E+000	0.0000000E+000	0.0000000E+000	60.2302	0.0000000E+000	0.0000000E+000	0.0000000E+000	-60.2302	0.0000000E+000	0.0000000E+000	0.0000000E+000	-29.7698	0.0000000E+000	0.0000000E+000	0.0000000E+000	29.7698	1.74823	60.2302	-3.23146e-06	-6.4441e-06	12112.7
100.032	4.13048	2.41941	4.7869	-30.3595	10.4837	0.279389	-0.0226859	657.615	167.99	1	10	0.00487334	0.00101806	0	1.32583e-05	0.180257	0.105585	0.208904	30.3595	167990	286796	332374	-59.6405	0.0000000E+000	0.0000000E+000	0.0000000E+000	59.6405	0.0000000E+000	0.0000000E+000	0.0000000E+000	-59.6405	0.0000000E+000	0.0000000E+000	0.0000000E+000	-30.3595	0.0000000E+000	0.0000000E+000	0.0000000E+000	30.3595	1.70723	59.6405	-1.8979e-06	-6.3382e-06	12315.5
46.4415	5.68469	2.88462	6.3747	-26.9049	11.4175	0.279379	-0.0262422	1188.02	243.267	1	10	0.0048633	0.000762907	0	8.69801e-06	0.13989	0.0709856	0.15687	26.9049	243267	479404	537594	-63.0951	0.0000000E+000	0.0000000E+000	0.0000000E+000	63.0951	0.0000000E+000	0.0000000E+000	0.0000000E+000	-63.0951	0.0000000E+000	0.0000000E+000	0.0000000E+000	-26.9049	0.0000000E+000	0.0000000E+000	0.0000000E+000	26.9049	1.97069	63.0951	-2.51986e-06	-7.33154e-06	10646.2
21.5517	7.37287	2.8242	7.89527	-20.9595	12.3024	0.279371	-0.0303361	2614.83	334.579	1	10	0.00485656	0.000615122	0	3.28602e-06	0.118278	0.0453065	0.126658	20.9595	334579	873455	935343	-69.0405	0.0000000E+000	0.0000000E+000	0.0000000E+000	69.0405	0.0000000E+000	0.0000000E+000	0.0000000E+000	-69.0405	0.0000000E+000	0.0000000E+000	0.0000000E+000	-20.9595	0.0000000E+000	0.0000000E+000	0.0000000E+000	20.9595	2.61061	69.0405	-1.84058e-06	-8.47501e-06	9209.19
10.0032	8.79744	2.43089	9.12711	-15.4464	13.2487	0.279385	-0.0220722	6545.1	464.28	1	10	0.00486185	0.000532682	0	-1.5951e-06	0.105606	0.0291809	0.109564	15.4464	464280	1.68024e+06	1.7432e+06	-74.5536	0.0000000E+000	0.0000000E+000	0.0000000E+000	74.5536	0.0000000E+000	0.0000000E+000	0.0000000E+000	-74.5536	0.0000000E+000	0.0000000E+000	0.0000000E+000	-15.4464	0.0000000E+000	0.0000000E+000	0.0000000E+000	15.4464	3.61902	74.5536	-2.93585e-06	-6.16664e-06	12657.8
4.63925	9.90935	1.95418	10.1002	-11.1559	14.3783	0.279407	-0.0134384	17555.3	657.169	1	11	0.00485883	0.000481062	0	-7.40592e-06	0.0971371	0.019156	0.0990079	11.1559	657169	3.3324e+06	3.39658e+06	-78.8441	0.0000000E+000	0.0000000E+000	0.0000000E+000	78.8441	0.0000000E+000	0.0000000E+000	0.0000000E+000	-78.8441	0.0000000E+000	0.0000000E+000	0.0000000E+000	-11.1559	0.0000000E+000	0.0000000E+000	0.0000000E+000	11.1559	5.07084	78.8441	-1.75718e-07	-3.7548e-06	20791.6
2.15577	10.6957	1.52309	10.8036	-8.10454	16.1038	0.279423	-0.0100549	48472.1	963.397	1	11	0.004864	0.000450219	0	-2.32112e-05	0.091637	0.0130493	0.0925615	8.10454	963396	6.76534e+06	6.83359e+06	-81.8955	0.0000000E+000	0.0000000E+000	0.0000000E+000	81.8955	0.0000000E+000	0.0000000E+000	0.0000000E+000	-81.8955	0.0000000E+000	0.0000000E+000	0.0000000E+000	-8.10454	0.0000000E+000	0.0000000E+000	0.0000000E+000	8.10454	7.02238	81.8955	-1.23545e-05	-2.80957e-06	27789.7
1.00006	11.2518	1.26336	11.3225	-6.40637	19.7172	0.279412	-0.0118276	125970	1568.32	1	11	0.00486632	0.000429792	0	-3.40183e-05	0.0877683	0.00985467	0.0883198	6.40637	1.56832e+06	1.39679e+07	1.40556e+07	-83.5936	0.0000000E+000	0.0000000E+000	0.0000000E+000	83.5936	0.0000000E+000	0.0000000E+000	0.0000000E+000	-83.5936	0.0000000E+000	0.0000000E+000	0.0000000E+000	-6.40637	0.0000000E+000	0.0000000E+000	0.0000000E+000	6.40637	8.90627	83.5936	-5.85937e-07	-3.30478e-06	23623.7
0.464091	11.6598	1.21561	11.723	-5.95193	27.4019	0.279405	-0.00969772	282114	3033.42	1	11	0.00486546	0.000415035	0	-1.28684e-05	0.0848426	0.00884536	0.0853024	5.95193	3.03342e+06	2.90959e+07	2.92536e+07	-84.0481	0.0000000E+000	0.0000000E+000	0.0000000E+000	84.0481	0.0000000E+000	0.0000000E+000	0.0000000E+000	-84.0481	0.0000000E+000	0.0000000E+000	0.0000000E+000	-5.95193	0.0000000E+000	0.0000000E+000	0.0000000E+000	5.95193	9.59176	84.0481	1.28715e-05	-2.70959e-06	28811.4
0.215268	12.1032	1.51173	12.1972	-7.11954	43.8819	0.279409	-0.003456	489067	7512.61	1	11	0.00486301	0.000398698	0	-3.71389e-05	0.0813536	0.0101613	0.0819857	7.11954	7.51261e+06	6.01475e+07	6.06149e+07	-82.8805	0.0000000E+000	0.0000000E+000	0.0000000E+000	82.8805	0.0000000E+000	0.0000000E+000	0.0000000E+000	-82.8805	0.0000000E+000	0.0000000E+000	0.0000000E+000	-7.11954	0.0000000E+000	0.0000000E+000	0.0000000E+000	7.11954	8.00621	82.8805	-2.66554e-05	-9.65635e-07	80847.4
0.0999041	12.6727	2.1514	12.854	-9.63506	79.2886	0.279411	-0.00232847	740484	20743.5	1	11	0.00486549	0.000378519	0	-0.000229866	0.0766993	0.013021	0.0777968	9.63506	2.07435e+07	1.22188e+08	1.23936e+08	-80.3649	0.0000000E+000	0.0000000E+000	0.0000000E+000	80.3649	0.0000000E+000	0.0000000E+000	0.0000000E+000	-80.3649	0.0000000E+000	0.0000000E+000	0.0000000E+000	-9.63506	0.0000000E+000	0.0000000E+000	0.0000000E+000	9.63506	5.89043	80.3649	-0.000120996	-6.50599e-07	119998
0.0464052	13.6218	3.36736	14.0318	-13.8854	155.525	0.279413	-0.00417371	1.01851e+06	58656.5	1	11	0.00486508	0.000346718	0	-0.000457033	0.0691841	0.0171026	0.0712667	13.8854	5.86565e+07	2.37279e+08	2.44422e+08	-76.1146	0.0000000E+000	0.0000000E+000	0.0000000E+000	76.1146	0.0000000E+000	0.0000000E+000	0.0000000E+000	-76.1146	0.0000000E+000	0.0000000E+000	0.0000000E+000	-13.8854	0.0000000E+000	0.0000000E+000	0.0000000E+000	13.8854	4.04524	76.1146	-9.10158e-05	-1.16619e-06	66945.8
0.0215268	14.7362	5.39156	15.6915	-20.0962	319.755	0.279398	-0.00233979	1.37128e+06	161892	1	11	0.00486637	0.000310128	0	-5.97766e-05	0.0598488	0.0218971	0.0637288	20.0962	1.61892e+08	4.42483e+08	4.71169e+08	-69.9038	0.0000000E+000	0.0000000E+000	0.0000000E+000	69.9038	0.0000000E+000	0.0000000E+000	0.0000000E+000	-69.9038	0.0000000E+000	0.0000000E+000	0.0000000E+000	-20.0962	0.0000000E+000	0.0000000E+000	0.0000000E+000	20.0962	2.73319	69.9038	0.000320229	-6.53731e-07	119412
0.0100092	16.712	9.06675	19.0131	-28.4811	741.215	0.279413	-1.39563e-05	1.75376e+06	398812	1	12	0.0048612	0.000255677	0	0.000773672	0.04623	0.0250811	0.0525953	28.4811	3.98812e+08	7.35099e+08	8.36314e+08	-61.5189	0.0000000E+000	0.0000000E+000	0.0000000E+000	61.5189	0.0000000E+000	0.0000000E+000	0.0000000E+000	-61.5189	0.0000000E+000	0.0000000E+000	0.0000000E+000	-28.4811	0.0000000E+000	0.0000000E+000	0.0000000E+000	28.4811	1.84322	61.5189	0.000351877	-3.89956e-09	2.00207e+07