File: txt/17696_R287_UA660_SOC00_C03.mpt
EC-Lab ASCII FILE

Nb header lines : 63

Potentio Electrochemical Impedance Spectroscopy

Run on channel : 3 (SN 65921)
User :
CE vs. WE compliance from -10 V to 10 V
Electrode connection : standard
Potential control : Ewe
Ewe ctrl range : min = -10.00 V, max = 10.00 V
Safety Limits :
	Do not start on E overload
Acquisition started on : 09/22/2025 09:03:57.388
Loaded Setting File :  C:\Users\Celltest\OneDrive - store-dot.com\Documents\EC-Lab\Data\Gyutae\17738_R277_UA674_SOC00_C02.mpr
Saved on :
	File : 17696_R287_UA660_SOC00_C03.mpr
	Directory : C:\Users\Celltest\OneDrive - store-dot.com\Documents\EC-Lab\Data\Charmaine\
	Host : 169.254.61.224
Device : VMP-3e (SN .003165)
Address : USB
EC-LAB for windows v11.62 (software)
Internet server v27.00 (firmware)
Command interpretor v12.03 (firmware)
Electrode material :
Initial state :
Electrolyte :
Comments :
Electrode surface area : 0.001 cm²
Characteristic mass : 0.001 g
Equivalent Weight : 0.000 g/eq.
Density : 0.000 g/cm3
Volume (V) : 0.001 cm³
Cycle Definition : Charge/Discharge alternance
Mode                Single sine
E (V)               0.0000
vs.                 Eoc
tE (h:m:s)          0:00:0.0000
record              0
dI                  0.000
unit dI             mA
dt (s)              0.000
fi                  100.000
unit fi             kHz
ff                  10.000
unit ff             mHz
Nd                  6
Points              per decade
spacing             Logarithmic
Va (mV)             5.0
pw                  0.10
Na                  2
corr                0
E range min (V)     -10.000
E range max (V)     10.000
I Range             Auto
Bandwidth           5
nc cycles           0
goto Ns'            0
nr cycles           0
inc. cycle          0

freq/Hz	Re(Z)/Ohm	-Im(Z)/Ohm	|Z|/Ohm	Phase(Z)/deg	time/s	<Ewe>/V	<I>/mA	Cs/µF	Cp/µF	cycle number	I Range	|Ewe|/V	|I|/A	Ns	(Q-Qo)/mA.h	Re(Y)/Ohm-1	Im(Y)/Ohm-1	|Y|/Ohm-1	Phase(Y)/deg	Re(C)/nF	Im(C)/nF	|C|/nF	Phase(C)/deg	Re(M)	Im(M)	|M|	Phase(M)/deg	Re(Permittivity)	Im(Permittivity)	|Permittivity|	Phase(Permittivity)/deg	Re(Resistivity)/Ohm.cm	Im(Resistivity)/Ohm.cm	|Resistivity|/Ohm.cm	Phase(Resistivity)/deg	Re(Conductivity)/mS/cm	Im(Conductivity)/mS/cm	|Conductivity|/mS/cm	Phase(Conductivity)/deg	Tan(Delta)	Loss Angle(Delta)/deg	dq/mA.h	Pwe/W	Rwe/Ohm
100004	1.2881	0.269096	1.31591	-11.7999	1.86448	0.270932	0.0360751	5.91421	0.247321	1	9	0.00458234	0.00348227	0	1.55005e-06	0.743873	0.155402	0.759932	11.7999	247.321	1183.87	1209.43	-78.2001	0.0000000E+000	0.0000000E+000	0.0000000E+000	78.2001	0.0000000E+000	0.0000000E+000	0.0000000E+000	-78.2001	0.0000000E+000	0.0000000E+000	0.0000000E+000	-11.7999	0.0000000E+000	0.0000000E+000	0.0000000E+000	11.7999	4.78676	78.2001	1.55005e-06	9.77392e-06	7510.23
46420.4	1.41483	0.295207	1.4453	-11.7858	3.0205	0.270943	0.0355344	11.6141	0.484532	1	9	0.00504107	0.00348791	0	3.42251e-05	0.677311	0.141322	0.691898	11.7858	484.532	2322.2	2372.21	-78.2142	0.0000000E+000	0.0000000E+000	0.0000000E+000	78.2142	0.0000000E+000	0.0000000E+000	0.0000000E+000	-78.2142	0.0000000E+000	0.0000000E+000	0.0000000E+000	-11.7858	0.0000000E+000	0.0000000E+000	0.0000000E+000	11.7858	4.79267	78.2142	1.50789e-05	9.62778e-06	7624.81
21544.7	1.54536	0.349547	1.5844	-12.7453	4.03549	0.270917	0.0375669	21.1336	1.02862	1	9	0.00523006	0.00330097	0	4.64741e-05	0.615602	0.139244	0.631153	12.7453	1028.62	4547.57	4662.46	-77.2547	0.0000000E+000	0.0000000E+000	0.0000000E+000	77.2547	0.0000000E+000	0.0000000E+000	0.0000000E+000	-77.2547	0.0000000E+000	0.0000000E+000	0.0000000E+000	-12.7453	0.0000000E+000	0.0000000E+000	0.0000000E+000	12.7453	4.42104	77.2547	1.40472e-06	1.01775e-05	7211.59
10002.2	1.69791	0.43889	1.75372	-14.4931	4.62749	0.270919	0.0388908	36.255	2.27071	1	9	0.0047076	0.00268436	0	5.3551e-05	0.552072	0.142705	0.570218	14.4931	2270.71	8784.55	9073.28	-75.5069	0.0000000E+000	0.0000000E+000	0.0000000E+000	75.5069	0.0000000E+000	0.0000000E+000	0.0000000E+000	-75.5069	0.0000000E+000	0.0000000E+000	0.0000000E+000	-14.4931	0.0000000E+000	0.0000000E+000	0.0000000E+000	14.4931	3.86864	75.5069	5.04703e-06	1.05363e-05	6966.16
4641.49	1.87843	0.608004	1.97438	-17.9355	5.69969	0.270937	0.0709819	56.397	5.34821	1	9	0.0049071	0.00248539	0	6.37644e-05	0.481874	0.155971	0.506488	17.9355	5348.21	16523.3	17367.3	-72.0645	0.0000000E+000	0.0000000E+000	0.0000000E+000	72.0645	0.0000000E+000	0.0000000E+000	0.0000000E+000	-72.0645	0.0000000E+000	0.0000000E+000	0.0000000E+000	-17.9355	0.0000000E+000	0.0000000E+000	0.0000000E+000	17.9355	3.0895	72.0645	1.46602e-05	1.92316e-05	3816.98
2155.69	2.12243	0.900075	2.30539	-22.9807	6.63269	0.270934	0.0664694	82.0267	12.5032	1	9	0.00479393	0.00207944	0	7.98321e-05	0.39934	0.169351	0.433765	22.9807	12503.2	29483.4	32025	-67.0193	0.0000000E+000	0.0000000E+000	0.0000000E+000	67.0193	0.0000000E+000	0.0000000E+000	0.0000000E+000	-67.0193	0.0000000E+000	0.0000000E+000	0.0000000E+000	-22.9807	0.0000000E+000	0.0000000E+000	0.0000000E+000	22.9807	2.35806	67.0193	9.50203e-06	1.80088e-05	4076.07
1000.32	2.48838	1.40617	2.85821	-29.4705	7.56971	0.27093	0.0688748	113.147	27.3862	1	9	0.00474954	0.00166172	0	9.67205e-05	0.3046	0.172128	0.34987	29.4705	27386.2	48463	55665.7	-60.5295	0.0000000E+000	0.0000000E+000	0.0000000E+000	60.5295	0.0000000E+000	0.0000000E+000	0.0000000E+000	-60.5295	0.0000000E+000	0.0000000E+000	0.0000000E+000	-29.4705	0.0000000E+000	0.0000000E+000	0.0000000E+000	29.4705	1.76962	60.5295	6.94104e-06	1.86603e-05	3933.66
463.961	3.09019	2.26312	3.83027	-36.2175	8.75819	0.270896	-0.0141424	151.576	52.9161	1	10	0.00478728	0.00124985	0	9.87351e-05	0.210633	0.154258	0.261078	36.2175	52916.1	72254.4	89559	-53.7825	0.0000000E+000	0.0000000E+000	0.0000000E+000	53.7825	0.0000000E+000	0.0000000E+000	0.0000000E+000	-53.7825	0.0000000E+000	0.0000000E+000	0.0000000E+000	-36.2175	0.0000000E+000	0.0000000E+000	0.0000000E+000	36.2175	1.36545	53.7825	-1.63331e-06	-3.83111e-06	19154.9
215.345	4.2085	3.59345	5.53393	-40.4925	9.69246	0.270917	-0.0130293	205.672	86.7222	1	10	0.00473957	0.000856457	0	9.42557e-05	0.137423	0.11734	0.180703	40.4925	86722.2	101566	133553	-49.5075	0.0000000E+000	0.0000000E+000	0.0000000E+000	49.5075	0.0000000E+000	0.0000000E+000	0.0000000E+000	-49.5075	0.0000000E+000	0.0000000E+000	0.0000000E+000	-40.4925	0.0000000E+000	0.0000000E+000	0.0000000E+000	40.4925	1.17116	49.5075	-2.2033e-06	-3.52987e-06	20792.8
100.032	6.20326	5.35534	8.19513	-40.8044	10.6237	0.270903	-0.0131804	297.094	126.869	1	10	0.00472001	0.000575953	0	9.20378e-05	0.0923652	0.0797398	0.122024	40.8044	126869	146957	194145	-49.1956	0.0000000E+000	0.0000000E+000	0.0000000E+000	49.1956	0.0000000E+000	0.0000000E+000	0.0000000E+000	-49.1956	0.0000000E+000	0.0000000E+000	0.0000000E+000	-40.8044	0.0000000E+000	0.0000000E+000	0.0000000E+000	40.8044	1.15833	49.1956	-9.77949e-07	-3.5706e-06	20553.5
46.4415	9.51092	7.21684	11.939	-37.191	11.5576	0.2709	-0.0152089	474.861	173.509	1	10	0.00471841	0.000395209	0	8.92886e-05	0.0667244	0.0506302	0.0837589	37.191	173509	228664	287041	-52.809	0.0000000E+000	0.0000000E+000	0.0000000E+000	52.809	0.0000000E+000	0.0000000E+000	0.0000000E+000	-52.809	0.0000000E+000	0.0000000E+000	0.0000000E+000	-37.191	0.0000000E+000	0.0000000E+000	0.0000000E+000	37.191	1.31788	52.809	-1.61725e-06	-4.12008e-06	17811.9
21.5517	14.1126	8.23401	16.339	-30.2615	12.6844	0.27092	-0.0118311	896.864	227.77	1	11	0.00471345	0.000288478	0	8.46013e-05	0.0528633	0.0308432	0.0612032	30.2615	227770	390384	451972	-59.7385	0.0000000E+000	0.0000000E+000	0.0000000E+000	59.7385	0.0000000E+000	0.0000000E+000	0.0000000E+000	-59.7385	0.0000000E+000	0.0000000E+000	0.0000000E+000	-30.2615	0.0000000E+000	0.0000000E+000	0.0000000E+000	30.2615	1.71394	59.7385	-2.68747e-06	-3.20529e-06	22899
10.0032	18.7409	7.8926	20.3351	-22.838	13.6307	0.270915	-0.0115399	2015.86	303.676	1	11	0.00470534	0.00023139	0	8.34581e-05	0.045321	0.0190866	0.0491761	22.838	303676	721075	782412	-67.162	0.0000000E+000	0.0000000E+000	0.0000000E+000	67.162	0.0000000E+000	0.0000000E+000	0.0000000E+000	-67.162	0.0000000E+000	0.0000000E+000	0.0000000E+000	-22.838	0.0000000E+000	0.0000000E+000	0.0000000E+000	22.838	2.37449	67.162	1.93012e-07	-3.12632e-06	23476.4
4.63925	22.5848	6.91526	23.6198	-17.0241	14.4903	0.270915	-0.0109408	4960.93	425.235	1	11	0.00471168	0.00019948	0	8.20695e-05	0.0404822	0.0123953	0.0423374	17.0241	425235	1.38879e+06	1.45243e+06	-72.9759	0.0000000E+000	0.0000000E+000	0.0000000E+000	72.9759	0.0000000E+000	0.0000000E+000	0.0000000E+000	-72.9759	0.0000000E+000	0.0000000E+000	0.0000000E+000	-17.0241	0.0000000E+000	0.0000000E+000	0.0000000E+000	17.0241	3.26593	72.9759	1.26615e-06	-2.96403e-06	24761.9
2.15577	25.7348	5.91413	26.4056	-12.9425	16.2158	0.270927	-0.00932107	12483.2	626.204	1	11	0.00470716	0.000178264	0	7.23282e-05	0.0369086	0.00848199	0.0378707	12.9425	626204	2.72487e+06	2.7959e+06	-77.0575	0.0000000E+000	0.0000000E+000	0.0000000E+000	77.0575	0.0000000E+000	0.0000000E+000	0.0000000E+000	-77.0575	0.0000000E+000	0.0000000E+000	0.0000000E+000	-12.9425	0.0000000E+000	0.0000000E+000	0.0000000E+000	12.9425	4.35141	77.0575	-6.08825e-06	-2.52533e-06	29066.1
1.00006	28.3657	5.09265	28.8192	-10.1782	20.8792	0.270926	-0.00902674	31249.9	975.823	1	12	0.00472036	0.000163792	0	6.57482e-05	0.034153	0.00613167	0.034699	10.1782	975823	5.43527e+06	5.52217e+06	-79.8218	0.0000000E+000	0.0000000E+000	0.0000000E+000	79.8218	0.0000000E+000	0.0000000E+000	0.0000000E+000	-79.8218	0.0000000E+000	0.0000000E+000	0.0000000E+000	-10.1782	0.0000000E+000	0.0000000E+000	0.0000000E+000	10.1782	5.56994	79.8218	-2.40149e-06	-2.44558e-06	30013.7
0.464091	30.5502	4.33228	30.8558	-8.07122	28.5639	0.270943	-0.00721613	79159.1	1560.49	1	12	0.00471904	0.000152938	0	6.02854e-05	0.0320878	0.00455033	0.0324088	8.07122	1.56049e+06	1.10042e+07	1.11143e+07	-81.9288	0.0000000E+000	0.0000000E+000	0.0000000E+000	81.9288	0.0000000E+000	0.0000000E+000	0.0000000E+000	-81.9288	0.0000000E+000	0.0000000E+000	0.0000000E+000	-8.07122	0.0000000E+000	0.0000000E+000	0.0000000E+000	8.07122	7.05175	81.9288	-5.30801e-06	-1.95516e-06	37546.9
0.215268	32.2115	3.97869	32.4563	-7.04137	45.0438	0.270929	-0.00584026	185824	2792.44	1	12	0.00471505	0.000145274	0	1.00247e-05	0.0305783	0.00377696	0.0308107	7.04137	2.79244e+06	2.26076e+07	2.27794e+07	-82.9586	0.0000000E+000	0.0000000E+000	0.0000000E+000	82.9586	0.0000000E+000	0.0000000E+000	0.0000000E+000	-82.9586	0.0000000E+000	0.0000000E+000	0.0000000E+000	-7.04137	0.0000000E+000	0.0000000E+000	0.0000000E+000	7.04137	8.09601	82.9586	-3.31125e-05	-1.58229e-06	46389.8
0.0999041	33.7692	4.20457	34.03	-7.0973	80.4492	0.270932	-0.00499686	378892	5784.09	1	12	0.00471337	0.000138507	0	-9.71574e-05	0.0291607	0.00363076	0.0293859	7.0973	5.78409e+06	4.64552e+07	4.68139e+07	-82.9027	0.0000000E+000	0.0000000E+000	0.0000000E+000	82.9027	0.0000000E+000	0.0000000E+000	0.0000000E+000	-82.9027	0.0000000E+000	0.0000000E+000	0.0000000E+000	-7.0973	0.0000000E+000	0.0000000E+000	0.0000000E+000	7.0973	8.03156	82.9027	-5.80156e-05	-1.35381e-06	54220.4
0.0464052	35.4017	5.62761	35.8462	-9.03241	156.685	0.270934	-0.00433264	609438	15020.7	1	12	0.00471756	0.000131606	0	-0.000168118	0.027551	0.00437963	0.0278969	9.03241	1.50207e+07	9.44911e+07	9.56776e+07	-80.9676	0.0000000E+000	0.0000000E+000	0.0000000E+000	80.9676	0.0000000E+000	0.0000000E+000	0.0000000E+000	-80.9676	0.0000000E+000	0.0000000E+000	0.0000000E+000	-9.03241	0.0000000E+000	0.0000000E+000	0.0000000E+000	9.03241	6.29072	80.9676	-1.95155e-05	-1.17386e-06	62533.2
0.0215268	37.5054	8.09138	38.3683	-12.1743	320.915	0.270935	-0.00205025	913731	40636.7	1	12	0.00471505	0.000122889	0	-3.4408e-05	0.025477	0.00549639	0.0260632	12.1743	4.06367e+07	1.88361e+08	1.92694e+08	-77.8257	0.0000000E+000	0.0000000E+000	0.0000000E+000	77.8257	0.0000000E+000	0.0000000E+000	0.0000000E+000	-77.8257	0.0000000E+000	0.0000000E+000	0.0000000E+000	-12.1743	0.0000000E+000	0.0000000E+000	0.0000000E+000	12.1743	4.63523	77.8257	9.40142e-05	-5.55484e-07	132147
0.0146812	39.1768	10.0875	40.4547	-14.4392	464.109	0.270932	-0.000979631	1.07467e+06	66819.7	1	12	0.00471647	0.000116587	0	5.35816e-05	0.0239382	0.00616375	0.024719	14.4392	6.68197e+07	2.59508e+08	2.67973e+08	-75.5608	0.0000000E+000	0.0000000E+000	0.0000000E+000	75.5608	0.0000000E+000	0.0000000E+000	0.0000000E+000	-75.5608	0.0000000E+000	0.0000000E+000	0.0000000E+000	-14.4392	0.0000000E+000	0.0000000E+000	0.0000000E+000	14.4392	3.88371	75.5608	8.79896e-05	-2.65413e-07	276565

0.0100092	40.991	12.8305	42.9521	-17.3805	674.129	0.270934	-0.000326332	1.23931e+06	110585	1	12	0.00471284	0.000109723	0	1.63234e-05	0.0222187	0.00695463	0.0232817	17.3805	1.10585e+08	3.53298e+08	3.70201e+08	-72.6195	0.0000000E+000	0.0000000E+000	0.0000000E+000	72.6195	0.0000000E+000	0.0000000E+000	0.0000000E+000	-72.6195	0.0000000E+000	0.0000000E+000	0.0000000E+000	-17.3805	0.0000000E+000	0.0000000E+000	0.0000000E+000	17.3805	3.19481	72.6195	-3.72582e-05	-8.84143e-08	830242