File: txt/17708_R287_UA662_SOC00_C07.mpt
EC-Lab ASCII FILE
Nb header lines : 63

Potentio Electrochemical Impedance Spectroscopy

Run on channel : 7 (SN 66126)
User :
CE vs. WE compliance from -10 V to 10 V
Electrode connection : standard
Potential control : Ewe
Ewe ctrl range : min = -10.00 V, max = 10.00 V
Safety Limits :
	Do not start on E overload
Acquisition started on : 09/22/2025 10:03:44.761
Loaded Setting File :  C:\Users\Celltest\OneDrive - store-dot.com\Documents\EC-Lab\Data\Charmaine\17689_R288_UA670_SOC00_C04.mpr
Saved on :
	File : 17708_R287_UA662_SOC00_C07.mpr
	Directory : C:\Users\Celltest\OneDrive - store-dot.com\Documents\EC-Lab\Data\Charmaine\
	Host : 169.254.61.224
Device : VMP-3e (SN .003165)
Address : USB
EC-LAB for windows v11.62 (software)
Internet server v27.00 (firmware)
Command interpretor v12.03 (firmware)
Electrode material :
Initial state :
Electrolyte :
Comments :
Electrode surface area : 0.001 cm²
Characteristic mass : 0.001 g
Equivalent Weight : 0.000 g/eq.
Density : 0.000 g/cm3
Volume (V) : 0.001 cm³
Cycle Definition : Charge/Discharge alternance
Mode                Single sine
E (V)               0.0000
vs.                 Eoc
tE (h:m:s)          0:00:0.0000
record              0
dI                  0.000
unit dI             mA
dt (s)              0.000
fi                  100.000
unit fi             kHz
ff                  10.000
unit ff             mHz
Nd                  6
Points              per decade
spacing             Logarithmic
Va (mV)             5.0
pw                  0.10
Na                  2
corr                0
E range min (V)     -10.000
E range max (V)     10.000
I Range             Auto
Bandwidth           5
nc cycles           0
goto Ns'            0
nr cycles           0
inc. cycle          0

freq/Hz	Re(Z)/Ohm	-Im(Z)/Ohm	|Z|/Ohm	Phase(Z)/deg	time/s	<Ewe>/V	<I>/mA	Cs/µF	Cp/µF	cycle number	I Range	|Ewe|/V	|I|/A	Ns	(Q-Qo)/mA.h	Re(Y)/Ohm-1	Im(Y)/Ohm-1	|Y|/Ohm-1	Phase(Y)/deg	Re(C)/nF	Im(C)/nF	|C|/nF	Phase(C)/deg	Re(M)	Im(M)	|M|	Phase(M)/deg	Re(Permittivity)	Im(Permittivity)	|Permittivity|	Phase(Permittivity)/deg	Re(Resistivity)/Ohm.cm	Im(Resistivity)/Ohm.cm	|Resistivity|/Ohm.cm	Phase(Resistivity)/deg	Re(Conductivity)/mS/cm	Im(Conductivity)/mS/cm	|Conductivity|/mS/cm	Phase(Conductivity)/deg	Tan(Delta)	Loss Angle(Delta)/deg	dq/mA.h	Pwe/W	Rwe/Ohm
100004	1.13627	0.21758	1.15691	-10.8402	2.2275	0.277351	0.0723385	7.3145	0.258717	1	9	0.00488655	0.00422379	0	5.84625e-06	0.848948	0.162563	0.864372	10.8402	258.717	1351.09	1375.64	-79.1598	0.0000000E+000	0.0000000E+000	0.0000000E+000	79.1598	0.0000000E+000	0.0000000E+000	0.0000000E+000	-79.1598	0.0000000E+000	0.0000000E+000	0.0000000E+000	-10.8402	0.0000000E+000	0.0000000E+000	0.0000000E+000	10.8402	5.22228	79.1598	5.84625e-06	2.00632e-05	3834.08
46420.4	1.24503	0.288937	1.27812	-13.0655	3.1015	0.277378	0.0709607	11.8661	0.606419	1	9	0.00536365	0.00419652	0	1.93953e-05	0.762146	0.176873	0.7824	13.0655	606.419	2613.06	2682.51	-76.9345	0.0000000E+000	0.0000000E+000	0.0000000E+000	76.9345	0.0000000E+000	0.0000000E+000	0.0000000E+000	-76.9345	0.0000000E+000	0.0000000E+000	0.0000000E+000	-13.0655	0.0000000E+000	0.0000000E+000	0.0000000E+000	13.0655	4.30901	76.9345	1.2989e-05	1.9683e-05	3908.9
21544.7	1.38532	0.371598	1.4343	-15.0155	3.97748	0.277383	0.0603298	19.8796	1.33437	1	9	0.00535862	0.00373606	0	3.58943e-05	0.673401	0.180632	0.697206	15.0155	1334.37	4974.55	5150.4	-74.9845	0.0000000E+000	0.0000000E+000	0.0000000E+000	74.9845	0.0000000E+000	0.0000000E+000	0.0000000E+000	-74.9845	0.0000000E+000	0.0000000E+000	0.0000000E+000	-15.0155	0.0000000E+000	0.0000000E+000	0.0000000E+000	15.0155	3.72802	74.9845	4.63285e-06	1.67344e-05	4597.78
10002.2	1.56251	0.482521	1.63532	-17.1613	4.8525	0.277395	0.0673674	32.9767	2.87101	1	9	0.00535851	0.00327673	0	5.0399e-05	0.584275	0.180431	0.611501	17.1613	2871.01	9296.96	9730.17	-72.8387	0.0000000E+000	0.0000000E+000	0.0000000E+000	72.8387	0.0000000E+000	0.0000000E+000	0.0000000E+000	-72.8387	0.0000000E+000	0.0000000E+000	0.0000000E+000	-17.1613	0.0000000E+000	0.0000000E+000	0.0000000E+000	17.1613	3.23823	72.8387	9.60921e-06	1.86874e-05	4117.65
4641.49	1.77587	0.652821	1.89205	-20.1838	6.10167	0.277398	0.0614468	52.5254	6.25302	1	9	0.00527653	0.00278878	0	6.82265e-05	0.49607	0.182359	0.528526	20.1838	6253.02	17010.1	18123	-69.8162	0.0000000E+000	0.0000000E+000	0.0000000E+000	69.8162	0.0000000E+000	0.0000000E+000	0.0000000E+000	-69.8162	0.0000000E+000	0.0000000E+000	0.0000000E+000	-20.1838	0.0000000E+000	0.0000000E+000	0.0000000E+000	20.1838	2.7203	69.8162	1.38665e-05	1.70453e-05	4514.44
2155.69	2.02954	0.931885	2.23326	-24.6627	7.48168	0.2774	0.0566061	79.2267	13.7949	1	9	0.00508407	0.00227653	0	8.64648e-05	0.40693	0.186846	0.447776	24.6627	13794.9	30043.7	33059.4	-65.3373	0.0000000E+000	0.0000000E+000	0.0000000E+000	65.3373	0.0000000E+000	0.0000000E+000	0.0000000E+000	-65.3373	0.0000000E+000	0.0000000E+000	0.0000000E+000	-24.6627	0.0000000E+000	0.0000000E+000	0.0000000E+000	24.6627	2.17789	65.3373	7.53955e-06	1.57026e-05	4900.54
1000.32	2.39301	1.42175	2.7835	-30.7157	8.41769	0.277397	0.0541485	111.907	29.1959	1	9	0.00514655	0.00184895	0	0.000101253	0.30886	0.183502	0.35926	30.7157	29195.9	49140.9	57159.7	-59.2843	0.0000000E+000	0.0000000E+000	0.0000000E+000	59.2843	0.0000000E+000	0.0000000E+000	0.0000000E+000	-59.2843	0.0000000E+000	0.0000000E+000	0.0000000E+000	-30.7157	0.0000000E+000	0.0000000E+000	0.0000000E+000	30.7157	1.68314	59.2843	7.75084e-06	1.50206e-05	5122.89
463.961	3.00567	2.3189	3.79623	-37.6506	9.60619	0.277413	-0.00196299	147.93	55.1972	1	10	0.00498321	0.00131268	0	0.000103838	0.208563	0.160908	0.263419	37.6506	55197.2	71544.4	90362.2	-52.3494	0.0000000E+000	0.0000000E+000	0.0000000E+000	52.3494	0.0000000E+000	0.0000000E+000	0.0000000E+000	-52.3494	0.0000000E+000	0.0000000E+000	0.0000000E+000	-37.6506	0.0000000E+000	0.0000000E+000	0.0000000E+000	37.6506	1.29616	52.3494	-8.86472e-07	-5.4456e-07	141322
215.345	4.12018	3.71142	5.54532	-42.0123	10.5404	0.277399	-0.00235948	199.134	89.2019	1	10	0.00481015	0.000867426	0	0.000103578	0.133987	0.120695	0.180332	42.0123	89201.9	99026.1	133278	-47.9877	0.0000000E+000	0.0000000E+000	0.0000000E+000	47.9877	0.0000000E+000	0.0000000E+000	0.0000000E+000	-47.9877	0.0000000E+000	0.0000000E+000	0.0000000E+000	-42.0123	0.0000000E+000	0.0000000E+000	0.0000000E+000	42.0123	1.11013	47.9877	2.44699e-07	-6.54518e-07	117568
100.032	6.21703	5.64219	8.39559	-42.2249	11.4717	0.277407	-0.00228503	281.99	127.358	1	10	0.00475152	0.000565955	0	0.000103113	0.0882026	0.0800472	0.11911	42.2249	127358	140334	189509	-47.7751	0.0000000E+000	0.0000000E+000	0.0000000E+000	47.7751	0.0000000E+000	0.0000000E+000	0.0000000E+000	-47.7751	0.0000000E+000	0.0000000E+000	0.0000000E+000	-42.2249	0.0000000E+000	0.0000000E+000	0.0000000E+000	42.2249	1.10188	47.7751	-2.39772e-07	-6.33883e-07	121402
46.4415	9.88852	7.54791	12.44	-37.3545	12.4056	0.277397	-0.00310777	454.032	167.147	1	10	0.00473323	0.000380485	0	0.000102813	0.0638984	0.0487737	0.0803858	37.3545	167147	218980	275482	-52.6455	0.0000000E+000	0.0000000E+000	0.0000000E+000	52.6455	0.0000000E+000	0.0000000E+000	0.0000000E+000	-52.6455	0.0000000E+000	0.0000000E+000	0.0000000E+000	-37.3545	0.0000000E+000	0.0000000E+000	0.0000000E+000	37.3545	1.3101	52.6455	-1.67949e-07	-8.62085e-07	89259.1
21.5517	14.8382	8.16217	16.935	-28.8142	13.5323	0.277406	-0.00526967	904.758	210.172	1	11	0.00473704	0.000279719	0	0.000101537	0.0517383	0.0284601	0.0590494	28.8142	210172	382076	436067	-61.1858	0.0000000E+000	0.0000000E+000	0.0000000E+000	61.1858	0.0000000E+000	0.0000000E+000	0.0000000E+000	-61.1858	0.0000000E+000	0.0000000E+000	0.0000000E+000	-28.8142	0.0000000E+000	0.0000000E+000	0.0000000E+000	28.8142	1.81793	61.1858	-7.78828e-07	-1.46184e-06	52641.9
10.0032	19.2323	7.17712	20.5278	-20.4646	14.4787	0.277409	-0.00458197	2216.82	270.985	1	11	0.00472406	0.00023013	0	0.000101205	0.0456399	0.0170319	0.0487144	20.4646	270985	726149	775065	-69.5354	0.0000000E+000	0.0000000E+000	0.0000000E+000	69.5354	0.0000000E+000	0.0000000E+000	0.0000000E+000	-69.5354	0.0000000E+000	0.0000000E+000	0.0000000E+000	-20.4646	0.0000000E+000	0.0000000E+000	0.0000000E+000	20.4646	2.67967	69.5354	-9.44442e-08	-1.27108e-06	60543.6
4.63925	22.5657	5.80242	23.2998	-14.4203	15.3383	0.277416	-0.00448301	5912.39	366.672	1	11	0.00473136	0.000203065	0	9.88951e-05	0.0415667	0.0106882	0.0429189	14.4203	366672	1.42599e+06	1.47238e+06	-75.5797	0.0000000E+000	0.0000000E+000	0.0000000E+000	75.5797	0.0000000E+000	0.0000000E+000	0.0000000E+000	-75.5797	0.0000000E+000	0.0000000E+000	0.0000000E+000	-14.4203	0.0000000E+000	0.0000000E+000	0.0000000E+000	14.4203	3.88902	75.5797	-8.49128e-08	-1.24366e-06	61881.6
2.15577	24.9495	4.62426	25.3745	-10.5003	17.0638	0.277428	-0.00262837	15965.2	530.234	1	11	0.00473149	0.000186467	0	9.98156e-05	0.0387498	0.00718206	0.0394097	10.5003	530234	2.8608e+06	2.90952e+06	-79.4997	0.0000000E+000	0.0000000E+000	0.0000000E+000	79.4997	0.0000000E+000	0.0000000E+000	0.0000000E+000	-79.4997	0.0000000E+000	0.0000000E+000	0.0000000E+000	-10.5003	0.0000000E+000	0.0000000E+000	0.0000000E+000	10.5003	5.39535	79.4997	-1.48329e-06	-7.29182e-07	105551
1.00006	26.7575	3.68099	27.0095	-7.83294	21.7273	0.277424	-0.00270775	43234.2	803.017	1	12	0.00473453	0.000175291	0	8.70962e-05	0.0366786	0.00504583	0.037024	7.83294	803018	5.83721e+06	5.89218e+06	-82.1671	0.0000000E+000	0.0000000E+000	0.0000000E+000	82.1671	0.0000000E+000	0.0000000E+000	0.0000000E+000	-82.1671	0.0000000E+000	0.0000000E+000	0.0000000E+000	-7.83294	0.0000000E+000	0.0000000E+000	0.0000000E+000	7.83294	7.26909	82.1671	-7.12617e-06	-7.51193e-07	102456
0.464091	28.1066	3.09574	28.2765	-6.2854	29.413	0.277425	-0.0030375	110778	1327.79	1	12	0.00473296	0.000167381	0	9.14431e-05	0.0351524	0.0038718	0.035365	6.2854	1.32779e+06	1.20552e+07	1.21281e+07	-83.7146	0.0000000E+000	0.0000000E+000	0.0000000E+000	83.7146	0.0000000E+000	0.0000000E+000	0.0000000E+000	-83.7146	0.0000000E+000	0.0000000E+000	0.0000000E+000	-6.2854	0.0000000E+000	0.0000000E+000	0.0000000E+000	6.2854	9.07909	83.7146	5.45401e-06	-8.42679e-07	91333.5
0.215268	29.1967	2.915	29.3418	-5.70151	45.893	0.277423	-0.00211457	253631	2503.25	1	12	0.0047325	0.000161289	0	0.000110265	0.0339124	0.00338581	0.034081	5.70151	2.50325e+06	2.50726e+07	2.51973e+07	-84.2985	0.0000000E+000	0.0000000E+000	0.0000000E+000	84.2985	0.0000000E+000	0.0000000E+000	0.0000000E+000	-84.2985	0.0000000E+000	0.0000000E+000	0.0000000E+000	-5.70151	0.0000000E+000	0.0000000E+000	0.0000000E+000	5.70151	10.016	84.2985	8.28389e-06	-5.8663e-07	131196
0.0999041	30.1916	3.46704	30.39	-6.55086	81.2996	0.277431	-0.00037135	459491	5980.46	1	12	0.00473121	0.000155683	0	7.7699e-05	0.0326907	0.00375403	0.0329056	6.55086	5.98047e+06	5.20788e+07	5.24211e+07	-83.4491	0.0000000E+000	0.0000000E+000	0.0000000E+000	83.4491	0.0000000E+000	0.0000000E+000	0.0000000E+000	-83.4491	0.0000000E+000	0.0000000E+000	0.0000000E+000	-6.55086	0.0000000E+000	0.0000000E+000	0.0000000E+000	6.55086	8.70816	83.4491	-2.90801e-05	-1.03024e-07	747087
0.0464052	31.4215	4.72493	31.7748	-8.55164	157.535	0.277432	-0.000600995	725869	16050.3	1	12	0.00472977	0.000148853	0	-7.35728e-05	0.0311216	0.00467983	0.0314715	8.55164	1.60503e+07	1.06737e+08	1.07937e+08	-81.4484	0.0000000E+000	0.0000000E+000	0.0000000E+000	81.4484	0.0000000E+000	0.0000000E+000	0.0000000E+000	-81.4484	0.0000000E+000	0.0000000E+000	0.0000000E+000	-8.55164	0.0000000E+000	0.0000000E+000	0.0000000E+000	8.55164	6.65015	81.4484	-9.33363e-05	-1.66735e-07	461621
0.0215268	33.3272	7.44634	34.1489	-12.5948	321.766	0.277435	-0.0017685	992883	47209.6	1	12	0.00472875	0.000138474	0	-0.000190656	0.0285788	0.00638541	0.0292835	12.5948	4.72096e+07	2.11293e+08	2.16503e+08	-77.4052	0.0000000E+000	0.0000000E+000	0.0000000E+000	77.4052	0.0000000E+000	0.0000000E+000	0.0000000E+000	-77.4052	0.0000000E+000	0.0000000E+000	0.0000000E+000	-12.5948	0.0000000E+000	0.0000000E+000	0.0000000E+000	12.5948	4.47564	77.4052	-2.50952e-05	-4.90644e-07	156876
0.0100092	35.7789	11.6637	37.6321	-18.0557	674.983	0.277443	-0.000802594	1.36328e+06	130961	1	12	0.00473228	0.000125751	0	0.000225536	0.0252645	0.00823609	0.0265731	18.0557	1.30961e+08	4.01728e+08	4.22536e+08	-71.9443	0.0000000E+000	0.0000000E+000	0.0000000E+000	71.9443	0.0000000E+000	0.0000000E+000	0.0000000E+000	-71.9443	0.0000000E+000	0.0000000E+000	0.0000000E+000	-18.0557	0.0000000E+000	0.0000000E+000	0.0000000E+000	18.0557	3.06753	71.9443	0.000302357	-2.22674e-07	345683