File: txt/17706_R287_UA662_SOC00_C05.mpt
EC-Lab ASCII FILE
Nb header lines : 63

Potentio Electrochemical Impedance Spectroscopy

Run on channel : 5 (SN 65912)
User :
CE vs. WE compliance from -10 V to 10 V
Electrode connection : standard
Potential control : Ewe
Ewe ctrl range : min = -10.00 V, max = 10.00 V
Safety Limits :
	Do not start on E overload
Acquisition started on : 09/22/2025 10:03:28.043
Loaded Setting File :  C:\Users\Celltest\OneDrive - store-dot.com\Documents\EC-Lab\Data\Gyutae\17740_R277_UA674_SOC00_C04.mpr
Saved on :
	File : 17706_R287_UA662_SOC00_C05.mpr
	Directory : C:\Users\Celltest\OneDrive - store-dot.com\Documents\EC-Lab\Data\Charmaine\
	Host : 169.254.61.224
Device : VMP-3e (SN .003165)
Address : USB
EC-LAB for windows v11.62 (software)
Internet server v27.00 (firmware)
Command interpretor v12.03 (firmware)
Electrode material :
Initial state :
Electrolyte :
Comments :
Electrode surface area : 0.001 cm²
Characteristic mass : 0.001 g
Equivalent Weight : 0.000 g/eq.
Density : 0.000 g/cm3
Volume (V) : 0.001 cm³
Cycle Definition : Charge/Discharge alternance
Mode                Single sine
E (V)               0.0000
vs.                 Eoc
tE (h:m:s)          0:00:0.0000
record              0
dI                  0.000
unit dI             mA
dt (s)              0.000
fi                  100.000
unit fi             kHz
ff                  10.000
unit ff             mHz
Nd                  6
Points              per decade
spacing             Logarithmic
Va (mV)             5.0
pw                  0.10
Na                  2
corr                0
E range min (V)     -10.000
E range max (V)     10.000
I Range             Auto
Bandwidth           5
nc cycles           0
goto Ns'            0
nr cycles           0
inc. cycle          0

freq/Hz	Re(Z)/Ohm	-Im(Z)/Ohm	|Z|/Ohm	Phase(Z)/deg	time/s	<Ewe>/V	<I>/mA	Cs/µF	Cp/µF	cycle number	I Range	|Ewe|/V	|I|/A	Ns	(Q-Qo)/mA.h	Re(Y)/Ohm-1	Im(Y)/Ohm-1	|Y|/Ohm-1	Phase(Y)/deg	Re(C)/nF	Im(C)/nF	|C|/nF	Phase(C)/deg	Re(M)	Im(M)	|M|	Phase(M)/deg	Re(Permittivity)	Im(Permittivity)	|Permittivity|	Phase(Permittivity)/deg	Re(Resistivity)/Ohm.cm	Im(Resistivity)/Ohm.cm	|Resistivity|/Ohm.cm	Phase(Resistivity)/deg	Re(Conductivity)/mS/cm	Im(Conductivity)/mS/cm	|Conductivity|/mS/cm	Phase(Conductivity)/deg	Tan(Delta)	Loss Angle(Delta)/deg	dq/mA.h	Pwe/W	Rwe/Ohm
100004	1.13379	0.239765	1.15887	-11.9405	1.8645	0.275352	-0.0017159	6.6377	0.284134	1	9	0.00489759	0.00422619	0	2.06451e-06	0.844241	0.178533	0.862912	11.9405	284.134	1343.6	1373.32	-78.0595	0.0000000E+000	0.0000000E+000	0.0000000E+000	78.0595	0.0000000E+000	0.0000000E+000	0.0000000E+000	-78.0595	0.0000000E+000	0.0000000E+000	0.0000000E+000	-11.9405	0.0000000E+000	0.0000000E+000	0.0000000E+000	11.9405	4.72876	78.0595	2.06451e-06	-4.72477e-07	160471
46420.4	1.25836	0.298023	1.29317	-13.3241	3.02049	0.275333	-0.00735774	11.5043	0.611013	1	9	0.00505917	0.00391223	0	-1.84093e-05	0.752478	0.178213	0.773294	13.3241	611.014	2579.92	2651.28	-76.6759	0.0000000E+000	0.0000000E+000	0.0000000E+000	76.6759	0.0000000E+000	0.0000000E+000	0.0000000E+000	-76.6759	0.0000000E+000	0.0000000E+000	0.0000000E+000	-13.3241	0.0000000E+000	0.0000000E+000	0.0000000E+000	13.3241	4.22236	76.6759	-7.0068e-06	-2.02583e-06	37420.9
21544.7	1.40843	0.379517	1.45866	-15.0808	4.03549	0.275334	-0.00808392	19.4648	1.31765	1	9	0.00527639	0.00361729	0	-1.90381e-05	0.661949	0.17837	0.68556	15.0808	1317.65	4889.95	5064.37	-74.9192	0.0000000E+000	0.0000000E+000	0.0000000E+000	74.9192	0.0000000E+000	0.0000000E+000	0.0000000E+000	-74.9192	0.0000000E+000	0.0000000E+000	0.0000000E+000	-15.0808	0.0000000E+000	0.0000000E+000	0.0000000E+000	15.0808	3.7111	74.9192	-1.25002e-06	-2.22578e-06	34059.4
10002.2	1.58883	0.479642	1.65965	-16.7982	4.76848	0.275334	-0.000189097	33.1746	2.7708	1	9	0.00494887	0.00298187	0	-2.21697e-05	0.576824	0.174133	0.602535	16.7982	2770.8	9178.4	9587.51	-73.2018	0.0000000E+000	0.0000000E+000	0.0000000E+000	73.2018	0.0000000E+000	0.0000000E+000	0.0000000E+000	-73.2018	0.0000000E+000	0.0000000E+000	0.0000000E+000	-16.7982	0.0000000E+000	0.0000000E+000	0.0000000E+000	16.7982	3.31254	73.2018	-1.27243e-06	-5.20649e-08	1.45605e+06
4641.49	1.80029	0.645034	1.91236	-19.7123	5.61771	0.275326	0.0279456	53.1594	6.04795	1	9	0.00454138	0.00237476	0	-3.71811e-05	0.492271	0.176378	0.522915	19.7123	6047.95	16879.8	17930.6	-70.2877	0.0000000E+000	0.0000000E+000	0.0000000E+000	70.2877	0.0000000E+000	0.0000000E+000	0.0000000E+000	-70.2877	0.0000000E+000	0.0000000E+000	0.0000000E+000	-19.7123	0.0000000E+000	0.0000000E+000	0.0000000E+000	19.7123	2.791	70.2877	1.70181e-06	7.69415e-06	9852.23
2155.69	2.05667	0.919337	2.2528	-24.0847	6.7747	0.275329	0.0303475	80.308	13.3741	1	9	0.00480822	0.00213433	0	-3.01121e-05	0.405249	0.181147	0.443893	24.0847	13374.1	29919.6	32772.7	-65.9153	0.0000000E+000	0.0000000E+000	0.0000000E+000	65.9153	0.0000000E+000	0.0000000E+000	0.0000000E+000	-65.9153	0.0000000E+000	0.0000000E+000	0.0000000E+000	-24.0847	0.0000000E+000	0.0000000E+000	0.0000000E+000	24.0847	2.23713	65.9153	9.37535e-07	8.35555e-06	9072.54
1000.32	2.42272	1.42209	2.80926	-30.4122	7.71068	0.275324	0.0276104	111.88	28.67	1	9	0.00476467	0.00169606	0	-2.4383e-05	0.306987	0.180196	0.355966	30.4122	28670	48842.9	56635.6	-59.5878	0.0000000E+000	0.0000000E+000	0.0000000E+000	59.5878	0.0000000E+000	0.0000000E+000	0.0000000E+000	-59.5878	0.0000000E+000	0.0000000E+000	0.0000000E+000	-30.4122	0.0000000E+000	0.0000000E+000	0.0000000E+000	30.4122	1.70363	59.5878	3.59173e-06	7.60179e-06	9971.74
463.961	3.01482	2.26626	3.77162	-36.9325	8.8992	0.275279	-0.0160109	151.366	54.6505	1	10	0.00481501	0.00127664	0	-2.79988e-05	0.211937	0.159315	0.265138	36.9325	54650.5	72701.9	90951.9	-53.0675	0.0000000E+000	0.0000000E+000	0.0000000E+000	53.0675	0.0000000E+000	0.0000000E+000	0.0000000E+000	-53.0675	0.0000000E+000	0.0000000E+000	0.0000000E+000	-36.9325	0.0000000E+000	0.0000000E+000	0.0000000E+000	36.9325	1.3303	53.0675	-2.3792e-06	-4.40747e-06	17193.2
215.345	4.12699	3.59726	5.4747	-41.0768	9.83343	0.275285	-0.0165266	205.454	88.7029	1	10	0.00476453	0.00087028	0	-3.08183e-05	0.137693	0.120019	0.182658	41.0768	88702.9	101765	134998	-48.9232	0.0000000E+000	0.0000000E+000	0.0000000E+000	48.9232	0.0000000E+000	0.0000000E+000	0.0000000E+000	-48.9232	0.0000000E+000	0.0000000E+000	0.0000000E+000	-41.0768	0.0000000E+000	0.0000000E+000	0.0000000E+000	41.0768	1.14726	48.9232	-1.12829e-06	-4.54954e-06	16657.1
100.032	6.20846	5.37146	8.2096	-40.8658	10.7647	0.275281	-0.0158304	296.202	126.803	1	10	0.00474699	0.000578224	0	-3.54623e-05	0.092117	0.0796982	0.121809	40.8658	126803	146562	193802	-49.1342	0.0000000E+000	0.0000000E+000	0.0000000E+000	49.1342	0.0000000E+000	0.0000000E+000	0.0000000E+000	-49.1342	0.0000000E+000	0.0000000E+000	0.0000000E+000	-40.8658	0.0000000E+000	0.0000000E+000	0.0000000E+000	40.8658	1.15582	49.1342	-2.38267e-06	-4.35779e-06	17389.4
46.4415	9.70956	7.03863	11.9924	-35.939	11.6975	0.275278	-0.0180793	486.884	167.722	1	10	0.00474563	0.00039572	0	-3.98143e-05	0.0675129	0.0489413	0.0833861	35.939	167722	231366	285764	-54.061	0.0000000E+000	0.0000000E+000	0.0000000E+000	54.061	0.0000000E+000	0.0000000E+000	0.0000000E+000	-54.061	0.0000000E+000	0.0000000E+000	0.0000000E+000	-35.939	0.0000000E+000	0.0000000E+000	0.0000000E+000	35.939	1.37947	54.061	-2.27552e-06	-4.97683e-06	15226.1
21.5517	14.2491	7.42626	16.0682	-27.5274	12.8233	0.275297	-0.00914272	994.415	212.41	1	11	0.00474858	0.000295527	0	-4.39197e-05	0.0551892	0.0287632	0.0622348	27.5274	212410	407561	459591	-62.4726	0.0000000E+000	0.0000000E+000	0.0000000E+000	62.4726	0.0000000E+000	0.0000000E+000	0.0000000E+000	-62.4726	0.0000000E+000	0.0000000E+000	0.0000000E+000	-27.5274	0.0000000E+000	0.0000000E+000	0.0000000E+000	27.5274	1.91874	62.4726	-2.02046e-06	-2.51696e-06	30111.1
10.0032	18.186	6.47629	19.3047	-19.6015	13.7697	0.275309	-0.0080252	2456.72	276.49	1	11	0.00474685	0.00024589	0	-4.79121e-05	0.0487988	0.0173779	0.0518007	19.6015	276490	776409	824170	-70.3985	0.0000000E+000	0.0000000E+000	0.0000000E+000	70.3985	0.0000000E+000	0.0000000E+000	0.0000000E+000	-70.3985	0.0000000E+000	0.0000000E+000	0.0000000E+000	-19.6015	0.0000000E+000	0.0000000E+000	0.0000000E+000	19.6015	2.80809	70.3985	-2.78159e-06	-2.20941e-06	34305.5
4.63925	21.0374	5.16978	21.6633	-13.8064	14.6293	0.275303	-0.00808328	6635.91	377.914	1	11	0.00474112	0.000218854	0	-5.12177e-05	0.0448272	0.0110159	0.0461609	13.8064	377914	1.53785e+06	1.5836e+06	-76.1936	0.0000000E+000	0.0000000E+000	0.0000000E+000	76.1936	0.0000000E+000	0.0000000E+000	0.0000000E+000	-76.1936	0.0000000E+000	0.0000000E+000	0.0000000E+000	-13.8064	0.0000000E+000	0.0000000E+000	0.0000000E+000	13.8064	4.06931	76.1936	-4.16419e-06	-2.22535e-06	34058.3
2.15577	23.1949	4.08297	23.5515	-9.98342	16.3548	0.275307	-0.00698447	18081.8	543.446	1	11	0.00474505	0.000201475	0	-4.89427e-05	0.0418172	0.00736102	0.0424601	9.98342	543446	3.08726e+06	3.13472e+06	-80.0166	0.0000000E+000	0.0000000E+000	0.0000000E+000	80.0166	0.0000000E+000	0.0000000E+000	0.0000000E+000	-80.0166	0.0000000E+000	0.0000000E+000	0.0000000E+000	-9.98342	0.0000000E+000	0.0000000E+000	0.0000000E+000	9.98342	5.6809	80.0166	2.1222e-06	-1.92287e-06	39417
1.00006	24.8104	3.27921	25.0262	-7.52918	21.0181	0.275306	-0.00535476	48531.4	833.243	1	12	0.00474553	0.000189622	0	-6.14871e-05	0.0396136	0.00523576	0.0399581	7.52918	833243	6.3043e+06	6.35912e+06	-82.4708	0.0000000E+000	0.0000000E+000	0.0000000E+000	82.4708	0.0000000E+000	0.0000000E+000	0.0000000E+000	-82.4708	0.0000000E+000	0.0000000E+000	0.0000000E+000	-7.52918	0.0000000E+000	0.0000000E+000	0.0000000E+000	7.52918	7.56598	82.4708	-1.06954e-05	-1.4742e-06	51413.5
0.464091	26.0485	2.75473	26.1938	-6.03681	28.7029	0.275314	-0.00516123	124491	1376.9	1	12	0.00474443	0.000181128	0	-8.67233e-05	0.0379653	0.00401498	0.038177	6.03681	1.3769e+06	1.30198e+07	1.30924e+07	-83.9632	0.0000000E+000	0.0000000E+000	0.0000000E+000	83.9632	0.0000000E+000	0.0000000E+000	0.0000000E+000	-83.9632	0.0000000E+000	0.0000000E+000	0.0000000E+000	-6.03681	0.0000000E+000	0.0000000E+000	0.0000000E+000	6.03681	9.45592	83.9632	-1.22178e-05	-1.42096e-06	53342.7
0.215268	26.9861	2.73376	27.1242	-5.78447	45.1829	0.275309	-0.00521518	270446	2747.18	1	12	0.00474756	0.00017503	0	-8.72689e-05	0.0366797	0.00371574	0.0368674	5.78447	2.74718e+06	2.71186e+07	2.72573e+07	-84.2155	0.0000000E+000	0.0000000E+000	0.0000000E+000	84.2155	0.0000000E+000	0.0000000E+000	0.0000000E+000	-84.2155	0.0000000E+000	0.0000000E+000	0.0000000E+000	-5.78447	0.0000000E+000	0.0000000E+000	0.0000000E+000	5.78447	9.87142	84.2155	5.20455e-06	-1.43578e-06	52789.9
0.0999041	27.9411	3.20992	28.1248	-6.5535	80.5911	0.275313	-0.00292551	496299	6464.73	1	12	0.00474668	0.000168772	0	-5.6202e-05	0.0353234	0.00405801	0.0355558	6.5535	6.46473e+06	5.62729e+07	5.66431e+07	-83.4465	0.0000000E+000	0.0000000E+000	0.0000000E+000	83.4465	0.0000000E+000	0.0000000E+000	0.0000000E+000	-83.4465	0.0000000E+000	0.0000000E+000	0.0000000E+000	-6.5535	0.0000000E+000	0.0000000E+000	0.0000000E+000	6.5535	8.70461	83.4465	1.57567e-05	-8.05432e-07	94107.6
0.0464052	29.0984	4.63982	29.466	-9.05969	156.828	0.275308	-0.000610482	739184	18327.9	1	12	0.0047464	0.000161081	0	-0.000110375	0.033514	0.0053439	0.0339374	9.05969	1.83279e+07	1.14942e+08	1.16394e+08	-80.9403	0.0000000E+000	0.0000000E+000	0.0000000E+000	80.9403	0.0000000E+000	0.0000000E+000	0.0000000E+000	-80.9403	0.0000000E+000	0.0000000E+000	0.0000000E+000	-9.05969	0.0000000E+000	0.0000000E+000	0.0000000E+000	9.05969	6.27146	80.9403	-5.3201e-05	-1.68071e-07	450968
0.0215268	30.8012	7.04344	31.5962	-12.8806	321.057	0.275309	-0.000819059	1.04968e+06	52162	1	12	0.00474583	0.000150202	0	-0.000457767	0.0308529	0.00705527	0.0316493	12.8806	5.2162e+07	2.28106e+08	2.33994e+08	-77.1194	0.0000000E+000	0.0000000E+000	0.0000000E+000	77.1194	0.0000000E+000	0.0000000E+000	0.0000000E+000	-77.1194	0.0000000E+000	0.0000000E+000	0.0000000E+000	-12.8806	0.0000000E+000	0.0000000E+000	0.0000000E+000	12.8806	4.37303	77.1194	-0.000212668	-2.25494e-07	336128
0.0100092	33.4748	11.5561	35.4134	-19.0455	674.274	0.275309	-0.00170964	1.37598e+06	146520	1	12	0.00474566	0.000134008	0	-0.000771299	0.0266922	0.00921459	0.0282379	19.0455	1.4652e+08	4.2443e+08	4.49009e+08	-70.9545	0.0000000E+000	0.0000000E+000	0.0000000E+000	70.9545	0.0000000E+000	0.0000000E+000	0.0000000E+000	-70.9545	0.0000000E+000	0.0000000E+000	0.0000000E+000	-19.0455	0.0000000E+000	0.0000000E+000	0.0000000E+000	19.0455	2.89673	70.9545	-8.91332e-05	-4.70678e-07	161034