File: txt/17707_R287_UA662_SOC00_C06.mpt
EC-Lab ASCII FILE

Nb header lines : 63

Potentio Electrochemical Impedance Spectroscopy

Run on channel : 6 (SN 65795)
User :
CE vs. WE compliance from -10 V to 10 V
Electrode connection : standard
Potential control : Ewe
Ewe ctrl range : min = -10.00 V, max = 10.00 V
Safety Limits :
	Do not start on E overload
Acquisition started on : 09/22/2025 10:03:34.717
Loaded Setting File :  C:\Users\Celltest\OneDrive - store-dot.com\Documents\EC-Lab\Data\Charmaine\17689_R288_UA670_SOC00_C04.mpr
Saved on :
	File : 17707_R287_UA662_SOC00_C06.mpr
	Directory : C:\Users\Celltest\OneDrive - store-dot.com\Documents\EC-Lab\Data\Charmaine\
	Host : 169.254.61.224
Device : VMP-3e (SN .003165)
Address : USB
EC-LAB for windows v11.62 (software)
Internet server v27.00 (firmware)
Command interpretor v12.03 (firmware)
Electrode material :
Initial state :
Electrolyte :
Comments :
Electrode surface area : 0.001 cm²
Characteristic mass : 0.001 g
Equivalent Weight : 0.000 g/eq.
Density : 0.000 g/cm3
Volume (V) : 0.001 cm³
Cycle Definition : Charge/Discharge alternance
Mode                Single sine
E (V)               0.0000
vs.                 Eoc
tE (h:m:s)          0:00:0.0000
record              0
dI                  0.000
unit dI             mA
dt (s)              0.000
fi                  100.000
unit fi             kHz
ff                  10.000
unit ff             mHz
Nd                  6
Points              per decade
spacing             Logarithmic
Va (mV)             5.0
pw                  0.10
Na                  2
corr                0
E range min (V)     -10.000
E range max (V)     10.000
I Range             Auto
Bandwidth           5
nc cycles           0
goto Ns'            0
nr cycles           0
inc. cycle          0

freq/Hz	Re(Z)/Ohm	-Im(Z)/Ohm	|Z|/Ohm	Phase(Z)/deg	time/s	<Ewe>/V	<I>/mA	Cs/µF	Cp/µF	cycle number	I Range	|Ewe|/V	|I|/A	Ns	(Q-Qo)/mA.h	Re(Y)/Ohm-1	Im(Y)/Ohm-1	|Y|/Ohm-1	Phase(Y)/deg	Re(C)/nF	Im(C)/nF	|C|/nF	Phase(C)/deg	Re(M)	Im(M)	|M|	Phase(M)/deg	Re(Permittivity)	Im(Permittivity)	|Permittivity|	Phase(Permittivity)/deg	Re(Resistivity)/Ohm.cm	Im(Resistivity)/Ohm.cm	|Resistivity|/Ohm.cm	Phase(Resistivity)/deg	Re(Conductivity)/mS/cm	Im(Conductivity)/mS/cm	|Conductivity|/mS/cm	Phase(Conductivity)/deg	Tan(Delta)	Loss Angle(Delta)/deg	dq/mA.h	Pwe/W	Rwe/Ohm
100004	1.21312	0.242189	1.23706	-11.2902	1.8645	0.26953	0.0227529	6.57128	0.25187	1	9	0.00460663	0.00372385	0	-3.86818e-06	0.792724	0.15826	0.808367	11.2902	251.869	1261.61	1286.51	-78.7099	0.0000000E+000	0.0000000E+000	0.0000000E+000	78.7099	0.0000000E+000	0.0000000E+000	0.0000000E+000	-78.7099	0.0000000E+000	0.0000000E+000	0.0000000E+000	-11.2902	0.0000000E+000	0.0000000E+000	0.0000000E+000	11.2902	5.00899	78.7099	-3.86818e-06	6.1326e-06	11846
46420.4	1.33178	0.292145	1.36345	-12.3726	2.87949	0.269536	0.028657	11.7358	0.538805	1	9	0.00505944	0.00371076	0	5.8082e-06	0.716399	0.157152	0.733433	12.3726	538.805	2456.22	2514.62	-77.6274	0.0000000E+000	0.0000000E+000	0.0000000E+000	77.6274	0.0000000E+000	0.0000000E+000	0.0000000E+000	-77.6274	0.0000000E+000	0.0000000E+000	0.0000000E+000	-12.3726	0.0000000E+000	0.0000000E+000	0.0000000E+000	12.3726	4.55864	77.6274	-2.06973e-07	7.7241e-06	9405.57
21544.7	1.47685	0.373474	1.52334	-14.1917	3.75349	0.269537	0.0197357	19.7797	1.1889	1	9	0.00535213	0.0035134	0	3.46608e-07	0.636416	0.16094	0.65645	14.1917	1188.9	4701.33	4849.33	-75.8083	0.0000000E+000	0.0000000E+000	0.0000000E+000	75.8083	0.0000000E+000	0.0000000E+000	0.0000000E+000	-75.8083	0.0000000E+000	0.0000000E+000	0.0000000E+000	-14.1917	0.0000000E+000	0.0000000E+000	0.0000000E+000	14.1917	3.95436	75.8083	-4.14359e-06	5.31949e-06	13657.4
10002.2	1.64714	0.477561	1.71497	-16.1687	4.48748	0.269532	0.0247644	33.3192	2.58369	1	9	0.00523133	0.00305039	0	1.53588e-06	0.560037	0.162374	0.583101	16.1687	2583.69	8911.28	9278.27	-73.8313	0.0000000E+000	0.0000000E+000	0.0000000E+000	73.8313	0.0000000E+000	0.0000000E+000	0.0000000E+000	-73.8313	0.0000000E+000	0.0000000E+000	0.0000000E+000	-16.1687	0.0000000E+000	0.0000000E+000	0.0000000E+000	16.1687	3.44906	73.8313	4.22039e-06	6.67481e-06	10883.9
4641.49	1.8607	0.642484	1.9685	-19.0494	5.33667	0.269492	0.0367961	53.3705	5.68532	1	9	0.00505759	0.00256926	0	5.21691e-06	0.480182	0.165803	0.508001	19.0494	5685.32	16465.3	17419.2	-70.9506	0.0000000E+000	0.0000000E+000	0.0000000E+000	70.9506	0.0000000E+000	0.0000000E+000	0.0000000E+000	-70.9506	0.0000000E+000	0.0000000E+000	0.0000000E+000	-19.0494	0.0000000E+000	0.0000000E+000	0.0000000E+000	19.0494	2.8961	70.9506	6.08587e-06	9.91625e-06	7323.92
2155.69	2.11611	0.92754	2.31046	-23.669	6.2707	0.269495	0.041918	79.5978	12.8283	1	9	0.0049346	0.00213576	0	1.43647e-05	0.396406	0.173754	0.432814	23.669	12828.3	29266.7	31954.7	-66.331	0.0000000E+000	0.0000000E+000	0.0000000E+000	66.331	0.0000000E+000	0.0000000E+000	0.0000000E+000	-66.331	0.0000000E+000	0.0000000E+000	0.0000000E+000	-23.669	0.0000000E+000	0.0000000E+000	0.0000000E+000	23.669	2.28142	66.331	6.29738e-06	1.12967e-05	6429.1
1000.32	2.46838	1.42746	2.85141	-30.0408	7.20671	0.269498	0.0384165	111.459	27.9336	1	9	0.00486831	0.00170733	0	2.33235e-05	0.303593	0.175568	0.350704	30.0408	27933.6	48302.9	55798.4	-59.9592	0.0000000E+000	0.0000000E+000	0.0000000E+000	59.9592	0.0000000E+000	0.0000000E+000	0.0000000E+000	-59.9592	0.0000000E+000	0.0000000E+000	0.0000000E+000	-30.0408	0.0000000E+000	0.0000000E+000	0.0000000E+000	30.0408	1.72921	59.9592	2.94004e-06	1.03532e-05	7015.18
463.961	3.07338	2.32575	3.85418	-37.1162	8.39519	0.269512	-0.0144597	147.495	53.7076	1	10	0.00489603	0.00127031	0	2.27645e-05	0.206895	0.156566	0.259458	37.1162	53707.6	70972.4	89003.4	-52.8838	0.0000000E+000	0.0000000E+000	0.0000000E+000	52.8838	0.0000000E+000	0.0000000E+000	0.0000000E+000	-52.8838	0.0000000E+000	0.0000000E+000	0.0000000E+000	-37.1162	0.0000000E+000	0.0000000E+000	0.0000000E+000	37.1162	1.32146	52.8838	-1.37325e-06	-3.89707e-06	18638.8
215.345	4.17553	3.74723	5.61042	-41.9057	9.32941	0.269505	-0.0148417	197.231	87.9846	1	10	0.00484362	0.000863325	0	1.81073e-05	0.132654	0.119048	0.17824	41.9057	87984.6	98040.9	131732	-48.0943	0.0000000E+000	0.0000000E+000	0.0000000E+000	48.0943	0.0000000E+000	0.0000000E+000	0.0000000E+000	-48.0943	0.0000000E+000	0.0000000E+000	0.0000000E+000	-41.9057	0.0000000E+000	0.0000000E+000	0.0000000E+000	41.9057	1.1143	48.0943	-2.56723e-06	-3.9999e-06	18158.6
100.032	6.23264	5.76123	8.48749	-42.7492	10.2607	0.269499	-0.0146591	276.163	127.244	1	10	0.00482397	0.000568362	0	1.52892e-05	0.0865193	0.0799754	0.11782	42.7492	127244	137656	187457	-47.2508	0.0000000E+000	0.0000000E+000	0.0000000E+000	47.2508	0.0000000E+000	0.0000000E+000	0.0000000E+000	-47.2508	0.0000000E+000	0.0000000E+000	0.0000000E+000	-42.7492	0.0000000E+000	0.0000000E+000	0.0000000E+000	42.7492	1.08182	47.2508	-1.28873e-06	-3.95062e-06	18384.5
46.4415	9.93385	7.89792	12.6909	-38.4865	11.1935	0.269498	-0.0169994	433.911	168.051	1	10	0.00481689	0.000379555	0	1.21666e-05	0.0616785	0.0490376	0.0787967	38.4865	168051	211372	270036	-51.5135	0.0000000E+000	0.0000000E+000	0.0000000E+000	51.5135	0.0000000E+000	0.0000000E+000	0.0000000E+000	-51.5135	0.0000000E+000	0.0000000E+000	0.0000000E+000	-38.4865	0.0000000E+000	0.0000000E+000	0.0000000E+000	38.4865	1.25778	51.5135	-1.77285e-06	-4.5813e-06	15853.4
21.5517	15.234	8.74657	17.5664	-29.8621	12.3194	0.269516	-0.0109791	844.307	209.32	1	11	0.00481277	0.000273976	0	7.19194e-06	0.0493684	0.0283447	0.0569269	29.8621	209320	364576	420393	-60.1379	0.0000000E+000	0.0000000E+000	0.0000000E+000	60.1379	0.0000000E+000	0.0000000E+000	0.0000000E+000	-60.1379	0.0000000E+000	0.0000000E+000	0.0000000E+000	-29.8621	0.0000000E+000	0.0000000E+000	0.0000000E+000	29.8621	1.74172	60.1379	-2.67772e-06	-2.95904e-06	24548.2
10.0032	20.1052	7.7226	21.5374	-21.0122	13.2647	0.269512	-0.0104862	2060.24	264.886	1	11	0.00481306	0.000223475	0	6.30527e-06	0.0433434	0.0166486	0.0464309	21.0122	264886	689611	738734	-68.9878	0.0000000E+000	0.0000000E+000	0.0000000E+000	68.9878	0.0000000E+000	0.0000000E+000	0.0000000E+000	-68.9878	0.0000000E+000	0.0000000E+000	0.0000000E+000	-21.0122	0.0000000E+000	0.0000000E+000	0.0000000E+000	21.0122	2.60343	68.9878	3.00042e-07	-2.82617e-06	25701.5
4.63925	23.5779	6.07315	24.3475	-14.4442	14.1243	0.269513	-0.0103016	5648.82	351.461	1	11	0.00481128	0.000197609	0	5.0163e-06	0.0397737	0.0102448	0.041072	14.4442	351461	1.36448e+06	1.40902e+06	-75.5558	0.0000000E+000	0.0000000E+000	0.0000000E+000	75.5558	0.0000000E+000	0.0000000E+000	0.0000000E+000	-75.5558	0.0000000E+000	0.0000000E+000	0.0000000E+000	-14.4442	0.0000000E+000	0.0000000E+000	0.0000000E+000	14.4442	3.88232	75.5558	1.41758e-06	-2.77641e-06	26162.3
2.15577	26.0295	4.73018	26.4558	-10.2996	15.8497	0.269517	-0.00853649	15607.8	498.948	1	11	0.00481119	0.000181858	0	-4.46218e-06	0.0371898	0.00675829	0.0377989	10.2996	498948	2.74563e+06	2.7906e+06	-79.7004	0.0000000E+000	0.0000000E+000	0.0000000E+000	79.7004	0.0000000E+000	0.0000000E+000	0.0000000E+000	-79.7004	0.0000000E+000	0.0000000E+000	0.0000000E+000	-10.2996	0.0000000E+000	0.0000000E+000	0.0000000E+000	10.2996	5.50285	79.7004	-6.07218e-06	-2.30073e-06	31572.4
1.00006	27.8979	3.78888	28.1541	-7.73415	20.5141	0.269526	-0.00777517	42003.1	760.714	1	12	0.00481455	0.000171007	0	-1.05084e-05	0.0351957	0.00478001	0.0355189	7.73415	760714	5.60122e+06	5.65264e+06	-82.2659	0.0000000E+000	0.0000000E+000	0.0000000E+000	82.2659	0.0000000E+000	0.0000000E+000	0.0000000E+000	-82.2659	0.0000000E+000	0.0000000E+000	0.0000000E+000	-7.73415	0.0000000E+000	0.0000000E+000	0.0000000E+000	7.73415	7.36311	82.2659	-1.85624e-06	-2.09561e-06	34665
0.464091	29.3383	3.16257	29.5082	-6.15254	28.1988	0.269523	-0.00666799	108437	1245.58	1	12	0.00481573	0.000163199	0	-1.33145e-05	0.0336936	0.00363206	0.0338888	6.15254	1.24558e+06	1.15549e+07	1.16218e+07	-83.8475	0.0000000E+000	0.0000000E+000	0.0000000E+000	83.8475	0.0000000E+000	0.0000000E+000	0.0000000E+000	-83.8475	0.0000000E+000	0.0000000E+000	0.0000000E+000	-6.15254	0.0000000E+000	0.0000000E+000	0.0000000E+000	6.15254	9.27672	83.8475	-3.76205e-06	-1.79718e-06	40420.5
0.215268	30.4378	3.00051	30.5854	-5.62992	44.6778	0.269518	-0.00508931	246403	2371.42	1	12	0.00481573	0.000157452	0	-6.09137e-05	0.0325377	0.0032075	0.0326954	5.62992	2.37142e+06	2.40562e+07	2.41728e+07	-84.3701	0.0000000E+000	0.0000000E+000	0.0000000E+000	84.3701	0.0000000E+000	0.0000000E+000	0.0000000E+000	-84.3701	0.0000000E+000	0.0000000E+000	0.0000000E+000	-5.62992	0.0000000E+000	0.0000000E+000	0.0000000E+000	5.62992	10.1442	84.3701	-3.20838e-05	-1.37166e-06	52957.6
0.0999041	31.5101	3.39219	31.6921	-6.14447	80.0833	0.269517	-0.00454203	469630	5380.4	1	12	0.00481615	0.000151967	0	-0.000168429	0.0313723	0.00337736	0.0315536	6.14447	5.3804e+06	4.99785e+07	5.02673e+07	-83.8555	0.0000000E+000	0.0000000E+000	0.0000000E+000	83.8555	0.0000000E+000	0.0000000E+000	0.0000000E+000	-83.8555	0.0000000E+000	0.0000000E+000	0.0000000E+000	-6.14447	0.0000000E+000	0.0000000E+000	0.0000000E+000	6.14447	9.28899	83.8555	-5.85402e-05	-1.22415e-06	59338.4
0.0464052	32.6923	4.86622	33.0525	-8.46627	156.319	0.269516	-0.00407427	704793	15277	1	12	0.00481465	0.000145667	0	-0.000235951	0.0299252	0.00445435	0.0302549	8.46627	1.5277e+07	1.02634e+08	1.03765e+08	-81.5337	0.0000000E+000	0.0000000E+000	0.0000000E+000	81.5337	0.0000000E+000	0.0000000E+000	0.0000000E+000	-81.5337	0.0000000E+000	0.0000000E+000	0.0000000E+000	-8.46627	0.0000000E+000	0.0000000E+000	0.0000000E+000	8.46627	6.71821	81.5337	-1.49809e-05	-1.09808e-06	66150.8
0.0215268	34.361	7.38805	35.1463	-12.1346	320.55	0.269508	-0.00185848	1.00072e+06	44219.2	1	12	0.00481677	0.000137049	0	-6.41019e-05	0.0278167	0.00598094	0.0284525	12.1346	4.42192e+07	2.05659e+08	2.10359e+08	-77.8654	0.0000000E+000	0.0000000E+000	0.0000000E+000	77.8654	0.0000000E+000	0.0000000E+000	0.0000000E+000	-77.8654	0.0000000E+000	0.0000000E+000	0.0000000E+000	-12.1346	0.0000000E+000	0.0000000E+000	0.0000000E+000	12.1346	4.6509	77.8654	0.000118544	-5.00876e-07	145015
0.0146812	35.7511	9.37728	36.9604	-14.6972	463.745	0.269509	-0.000554725	1.15607e+06	74415.2	1	12	0.00481478	0.000130269	0	6.21898e-05	0.0261707	0.0068644	0.027056	14.6972	7.44152e+07	2.8371e+08	2.93307e+08	-75.3028	0.0000000E+000	0.0000000E+000	0.0000000E+000	75.3028	0.0000000E+000	0.0000000E+000	0.0000000E+000	-75.3028	0.0000000E+000	0.0000000E+000	0.0000000E+000	-14.6972	0.0000000E+000	0.0000000E+000	0.0000000E+000	14.6972	3.81252	75.3028	0.000126292	-1.49503e-07	485842

0.0100092	37.2962	12.1341	39.2205	-18.022	673.766	0.269504	-3.36967e-05	1.31043e+06	125431	1	12	0.00481466	0.000122759	0	5.46842e-05	0.0242459	0.00788829	0.0254969	18.022	1.25431e+08	3.85533e+08	4.05424e+08	-71.978	0.0000000E+000	0.0000000E+000	0.0000000E+000	71.978	0.0000000E+000	0.0000000E+000	0.0000000E+000	-71.978	0.0000000E+000	0.0000000E+000	0.0000000E+000	-18.022	0.0000000E+000	0.0000000E+000	0.0000000E+000	18.022	3.07366	71.978	-7.50559e-06	-9.0814e-09	7.99793e+06