File: txt/17702_R287_UA661_SOC00_C01.mpt
EC-Lab ASCII FILE

Nb header lines : 63

Potentio Electrochemical Impedance Spectroscopy

Run on channel : 1 (SN 66354)
User :
CE vs. WE compliance from -10 V to 10 V
Electrode connection : standard
Potential control : Ewe
Ewe ctrl range : min = -10.00 V, max = 10.00 V
Safety Limits :
	Do not start on E overload
Acquisition started on : 09/22/2025 10:02:39.571
Loaded Setting File :  C:\Users\Celltest\OneDrive - store-dot.com\Documents\EC-Lab\Data\txt_done\14380_R229_UA592_SOC00_C01.mpr
Saved on :
	File : 17702_R287_UA661_SOC00_C01.mpr
	Directory : C:\Users\Celltest\OneDrive - store-dot.com\Documents\EC-Lab\Data\Charmaine\
	Host : 169.254.61.224
Device : VMP-3e (SN .003165)
Address : USB
EC-LAB for windows v11.62 (software)
Internet server v27.00 (firmware)
Command interpretor v12.03 (firmware)
Electrode material :
Initial state :
Electrolyte :
Comments :
Electrode surface area : 0.001 cm²
Characteristic mass : 0.001 g
Equivalent Weight : 0.000 g/eq.
Density : 0.000 g/cm3
Volume (V) : 0.001 cm³
Cycle Definition : Charge/Discharge alternance
Mode                Single sine
E (V)               0.0000
vs.                 Eoc
tE (h:m:s)          0:00:0.0000
record              0
dI                  0.000
unit dI             mA
dt (s)              0.000
fi                  100.000
unit fi             kHz
ff                  10.000
unit ff             mHz
Nd                  6
Points              per decade
spacing             Logarithmic
Va (mV)             5.0
pw                  0.10
Na                  2
corr                0
E range min (V)     -10.000
E range max (V)     10.000
I Range             Auto
Bandwidth           5
nc cycles           0
goto Ns'            0
nr cycles           0
inc. cycle          0

freq/Hz	Re(Z)/Ohm	-Im(Z)/Ohm	|Z|/Ohm	Phase(Z)/deg	time/s	<Ewe>/V	<I>/mA	Cs/µF	Cp/µF	cycle number	I Range	|Ewe|/V	|I|/A	Ns	(Q-Qo)/mA.h	Re(Y)/Ohm-1	Im(Y)/Ohm-1	|Y|/Ohm-1	Phase(Y)/deg	Re(C)/nF	Im(C)/nF	|C|/nF	Phase(C)/deg	Re(M)	Im(M)	|M|	Phase(M)/deg	Re(Permittivity)	Im(Permittivity)	|Permittivity|	Phase(Permittivity)/deg	Re(Resistivity)/Ohm.cm	Im(Resistivity)/Ohm.cm	|Resistivity|/Ohm.cm	Phase(Resistivity)/deg	Re(Conductivity)/mS/cm	Im(Conductivity)/mS/cm	|Conductivity|/mS/cm	Phase(Conductivity)/deg	Tan(Delta)	Loss Angle(Delta)/deg	dq/mA.h	Pwe/W	Rwe/Ohm
100004	1.23634	0.231494	1.25783	-10.6053	2.06849	0.273288	0.0768139	6.87486	0.232863	1	9	0.00474689	0.00377388	0	1.65764e-05	0.781441	0.146318	0.795021	10.6053	232.863	1243.66	1265.27	-79.3947	0.0000000E+000	0.0000000E+000	0.0000000E+000	79.3947	0.0000000E+000	0.0000000E+000	0.0000000E+000	-79.3947	0.0000000E+000	0.0000000E+000	0.0000000E+000	-10.6053	0.0000000E+000	0.0000000E+000	0.0000000E+000	10.6053	5.34071	79.3947	1.65764e-05	2.09923e-05	3557.79
46420.4	1.35093	0.27488	1.37862	-11.5012	3.22448	0.273298	0.0782482	12.4729	0.495871	1	9	0.00500791	0.00363256	0	5.21115e-05	0.7108	0.144629	0.725365	11.5012	495.871	2437.02	2486.96	-78.4988	0.0000000E+000	0.0000000E+000	0.0000000E+000	78.4988	0.0000000E+000	0.0000000E+000	0.0000000E+000	-78.4988	0.0000000E+000	0.0000000E+000	0.0000000E+000	-11.5012	0.0000000E+000	0.0000000E+000	0.0000000E+000	11.5012	4.91463	78.4988	2.26582e-05	2.13851e-05	3492.71
21544.7	1.48329	0.350254	1.52409	-13.286	4.23948	0.273286	0.0819177	21.091	1.11389	1	9	0.00531278	0.00348588	0	6.13453e-05	0.63857	0.150787	0.656131	13.286	1113.89	4717.24	4846.97	-76.714	0.0000000E+000	0.0000000E+000	0.0000000E+000	76.714	0.0000000E+000	0.0000000E+000	0.0000000E+000	-76.714	0.0000000E+000	0.0000000E+000	0.0000000E+000	-13.286	0.0000000E+000	0.0000000E+000	0.0000000E+000	13.286	4.23491	76.714	8.68202e-06	2.23869e-05	3336.1
10002.2	1.63179	0.449024	1.69244	-15.3854	4.9725	0.273287	0.0769629	35.4368	2.49438	1	9	0.00487902	0.00288283	0	7.65159e-05	0.569686	0.156762	0.590861	15.3854	2494.38	9064.82	9401.75	-74.6146	0.0000000E+000	0.0000000E+000	0.0000000E+000	74.6146	0.0000000E+000	0.0000000E+000	0.0000000E+000	-74.6146	0.0000000E+000	0.0000000E+000	0.0000000E+000	-15.3854	0.0000000E+000	0.0000000E+000	0.0000000E+000	15.3854	3.63409	74.6146	6.76723e-06	2.10329e-05	3550.89
4641.49	1.82173	0.632216	1.92831	-19.1389	6.04669	0.273274	0.1055	54.2373	5.83008	1	9	0.00499586	0.0025908	0	9.16524e-05	0.489924	0.170024	0.518589	19.1389	5830.08	16799.3	17782.2	-70.8611	0.0000000E+000	0.0000000E+000	0.0000000E+000	70.8611	0.0000000E+000	0.0000000E+000	0.0000000E+000	-70.8611	0.0000000E+000	0.0000000E+000	0.0000000E+000	-19.1389	0.0000000E+000	0.0000000E+000	0.0000000E+000	19.1389	2.88149	70.8611	1.72374e-05	2.88304e-05	2590.29
2155.69	2.08394	0.936732	2.28479	-24.204	6.98068	0.273284	0.100154	78.8167	13.2482	1	9	0.00488381	0.00213753	0	0.000117286	0.399202	0.179442	0.437677	24.204	13248.2	29473.1	32313.8	-65.796	0.0000000E+000	0.0000000E+000	0.0000000E+000	65.796	0.0000000E+000	0.0000000E+000	0.0000000E+000	-65.796	0.0000000E+000	0.0000000E+000	0.0000000E+000	-24.204	0.0000000E+000	0.0000000E+000	0.0000000E+000	24.204	2.22469	65.796	1.07224e-05	2.73704e-05	2728.65
1000.32	2.46033	1.46039	2.86111	-30.6922	7.91671	0.273274	0.101905	108.946	28.3844	1	9	0.00484083	0.00169194	0	0.00014359	0.300555	0.178401	0.349514	30.6922	28384.4	47819.5	55609.1	-59.3078	0.0000000E+000	0.0000000E+000	0.0000000E+000	59.3078	0.0000000E+000	0.0000000E+000	0.0000000E+000	-59.3078	0.0000000E+000	0.0000000E+000	0.0000000E+000	-30.6922	0.0000000E+000	0.0000000E+000	0.0000000E+000	30.6922	1.68471	59.3078	1.29359e-05	2.78479e-05	2681.66
463.961	3.11014	2.33422	3.88865	-36.8889	9.10519	0.273259	-0.0103371	146.959	52.9521	1	10	0.00487381	0.00125334	0	0.00014749	0.205676	0.154363	0.257159	36.8889	52952.1	70554.2	88214.6	-53.1111	0.0000000E+000	0.0000000E+000	0.0000000E+000	53.1111	0.0000000E+000	0.0000000E+000	0.0000000E+000	-53.1111	0.0000000E+000	0.0000000E+000	0.0000000E+000	-36.8889	0.0000000E+000	0.0000000E+000	0.0000000E+000	36.8889	1.33241	53.1111	-1.7385e-06	-2.8247e-06	26434.8
215.345	4.23485	3.66864	5.60293	-40.9023	10.0385	0.27326	-0.0115335	201.457	86.3695	1	10	0.00483758	0.000863402	0	0.000145259	0.134899	0.116862	0.178478	40.9023	86369.5	99699.6	131908	-49.0977	0.0000000E+000	0.0000000E+000	0.0000000E+000	49.0977	0.0000000E+000	0.0000000E+000	0.0000000E+000	-49.0977	0.0000000E+000	0.0000000E+000	0.0000000E+000	-40.9023	0.0000000E+000	0.0000000E+000	0.0000000E+000	40.9023	1.15434	49.0977	-7.0732e-07	-3.15163e-06	23692.8
100.032	6.18344	5.53782	8.30075	-41.8472	10.9697	0.273247	-0.010762	287.304	127.875	1	10	0.0048164	0.000580236	0	0.000142545	0.0897421	0.0803719	0.120471	41.8472	127875	142783	191674	-48.1528	0.0000000E+000	0.0000000E+000	0.0000000E+000	48.1528	0.0000000E+000	0.0000000E+000	0.0000000E+000	-48.1528	0.0000000E+000	0.0000000E+000	0.0000000E+000	-41.8472	0.0000000E+000	0.0000000E+000	0.0000000E+000	41.8472	1.11658	48.1528	-1.37749e-06	-2.94068e-06	25390
46.4415	9.58858	7.66989	12.2788	-38.6563	11.9036	0.273245	-0.0143473	446.811	174.338	1	10	0.00481003	0.000391735	0	0.000140199	0.0635982	0.0508721	0.0814414	38.6563	174338	217951	279099	-51.3437	0.0000000E+000	0.0000000E+000	0.0000000E+000	51.3437	0.0000000E+000	0.0000000E+000	0.0000000E+000	-51.3437	0.0000000E+000	0.0000000E+000	0.0000000E+000	-38.6563	0.0000000E+000	0.0000000E+000	0.0000000E+000	38.6563	1.25016	51.3437	-1.38653e-06	-3.92033e-06	19045
21.5517	14.5865	9.00677	17.1432	-31.6941	13.0304	0.273279	-0.00507685	819.916	226.32	1	11	0.00481347	0.00028078	0	0.000136916	0.0496328	0.0306468	0.0583322	31.6941	226320	366528	430771	-58.3059	0.0000000E+000	0.0000000E+000	0.0000000E+000	58.3059	0.0000000E+000	0.0000000E+000	0.0000000E+000	-58.3059	0.0000000E+000	0.0000000E+000	0.0000000E+000	-31.6941	0.0000000E+000	0.0000000E+000	0.0000000E+000	31.6941	1.61951	58.3059	-1.46363e-06	-1.38739e-06	53828.4
10.0032	19.8605	8.8374	21.738	-23.9878	13.9757	0.27328	-0.00427807	1800.35	297.556	1	11	0.00483543	0.000222442	0	0.000136666	0.0420293	0.0187019	0.0460025	23.9878	297556	668704	731918	-66.0122	0.0000000E+000	0.0000000E+000	0.0000000E+000	66.0122	0.0000000E+000	0.0000000E+000	0.0000000E+000	-66.0122	0.0000000E+000	0.0000000E+000	0.0000000E+000	-23.9878	0.0000000E+000	0.0000000E+000	0.0000000E+000	23.9878	2.24732	66.0122	-7.56739e-08	-1.16911e-06	63879.2
4.63925	24.1621	7.63634	25.3401	-17.539	14.8353	0.273298	-0.00371241	4492.49	407.983	1	11	0.00480711	0.000189704	0	0.000134538	0.0376287	0.0118924	0.0394632	17.539	407983	1.29089e+06	1.35383e+06	-72.461	0.0000000E+000	0.0000000E+000	0.0000000E+000	72.461	0.0000000E+000	0.0000000E+000	0.0000000E+000	-72.461	0.0000000E+000	0.0000000E+000	0.0000000E+000	-17.539	0.0000000E+000	0.0000000E+000	0.0000000E+000	17.539	3.16409	72.461	-1.47671e-07	-1.01459e-06	73617.3
2.15577	27.6275	6.54904	28.3931	-13.3357	16.5607	0.273314	-0.00117182	11273	599.751	1	11	0.00481544	0.000169599	0	0.000136123	0.0342702	0.00812367	0.0352198	13.3357	599751	2.53008e+06	2.60019e+06	-76.6643	0.0000000E+000	0.0000000E+000	0.0000000E+000	76.6643	0.0000000E+000	0.0000000E+000	0.0000000E+000	-76.6643	0.0000000E+000	0.0000000E+000	0.0000000E+000	-13.3357	0.0000000E+000	0.0000000E+000	0.0000000E+000	13.3357	4.21855	76.6643	-8.09143e-07	-3.20274e-07	233239
1.00006	30.4316	5.53118	30.9301	-10.3015	21.2253	0.273311	-0.00161507	28772.3	920.123	1	12	0.00481557	0.000155692	0	0.000125731	0.0318098	0.00578168	0.0323309	10.3015	920124	5.06236e+06	5.1453e+06	-79.6985	0.0000000E+000	0.0000000E+000	0.0000000E+000	79.6985	0.0000000E+000	0.0000000E+000	0.0000000E+000	-79.6985	0.0000000E+000	0.0000000E+000	0.0000000E+000	-10.3015	0.0000000E+000	0.0000000E+000	0.0000000E+000	10.3015	5.50182	79.6985	-5.81978e-06	-4.41416e-07	169226
0.464091	32.7188	4.72425	33.0581	-8.21613	28.9106	0.273309	-0.00199723	72591.2	1482.5	1	12	0.00481339	0.000145604	0	0.00013022	0.0299393	0.00432292	0.0302498	8.21613	1.4825e+06	1.02674e+07	1.03738e+07	-81.7839	0.0000000E+000	0.0000000E+000	0.0000000E+000	81.7839	0.0000000E+000	0.0000000E+000	0.0000000E+000	-81.7839	0.0000000E+000	0.0000000E+000	0.0000000E+000	-8.21613	0.0000000E+000	0.0000000E+000	0.0000000E+000	8.21613	6.92571	81.7839	5.28704e-06	-5.4586e-07	136844
0.215268	34.5494	4.18897	34.8025	-6.91312	45.3886	0.273306	-0.00130099	176496	2556.98	1	12	0.00481671	0.000138401	0	0.000149334	0.0285247	0.00345849	0.0287336	6.91312	2.55698e+06	2.10893e+07	2.12437e+07	-83.0869	0.0000000E+000	0.0000000E+000	0.0000000E+000	83.0869	0.0000000E+000	0.0000000E+000	0.0000000E+000	-83.0869	0.0000000E+000	0.0000000E+000	0.0000000E+000	-6.91312	0.0000000E+000	0.0000000E+000	0.0000000E+000	6.91312	8.24772	83.0869	9.28227e-06	-3.55568e-07	210076
0.0999041	36.0224	4.47781	36.2996	-7.08589	80.7952	0.273301	-0.000149084	355771	5413.76	1	12	0.004814	0.000132619	0	0.000127397	0.0273381	0.0033983	0.0275485	7.08589	5.41375e+06	4.35517e+07	4.38869e+07	-82.9141	0.0000000E+000	0.0000000E+000	0.0000000E+000	82.9141	0.0000000E+000	0.0000000E+000	0.0000000E+000	-82.9141	0.0000000E+000	0.0000000E+000	0.0000000E+000	-7.08589	0.0000000E+000	0.0000000E+000	0.0000000E+000	7.08589	8.04463	82.9141	-2.14376e-05	-4.07448e-08	1.8332e+06
0.0464052	37.5003	5.63755	37.9217	-8.54944	157.032	0.273306	-0.000346271	608364	13445.2	1	12	0.00481273	0.000126912	0	1.26708e-06	0.0260771	0.00392026	0.0263701	8.54944	1.34452e+07	8.94361e+07	9.04411e+07	-81.4506	0.0000000E+000	0.0000000E+000	0.0000000E+000	81.4506	0.0000000E+000	0.0000000E+000	0.0000000E+000	-81.4506	0.0000000E+000	0.0000000E+000	0.0000000E+000	-8.54944	0.0000000E+000	0.0000000E+000	0.0000000E+000	8.54944	6.65189	81.4506	-7.9486e-05	-9.46381e-08	789284
0.0215268	39.7164	8.54174	40.6246	-12.1376	321.261	0.273301	-0.00163475	865555	38265.7	1	12	0.00481737	0.000118583	0	-0.000122149	0.0240654	0.00517569	0.0246156	12.1376	3.82657e+07	1.77924e+08	1.81992e+08	-77.8624	0.0000000E+000	0.0000000E+000	0.0000000E+000	77.8624	0.0000000E+000	0.0000000E+000	0.0000000E+000	-77.8624	0.0000000E+000	0.0000000E+000	0.0000000E+000	-12.1376	0.0000000E+000	0.0000000E+000	0.0000000E+000	12.1376	4.64969	77.8624	-3.84525e-05	-4.4678e-07	167182
0.0146812	40.9438	10.7029	42.3196	-14.6495	464.457	0.273302	-0.00149064	1.01288e+06	64785.3	1	12	0.00481472	0.00011377	0	-4.23304e-05	0.0228615	0.00597609	0.0236297	14.6495	6.47854e+07	2.47836e+08	2.56164e+08	-75.3505	0.0000000E+000	0.0000000E+000	0.0000000E+000	75.3505	0.0000000E+000	0.0000000E+000	0.0000000E+000	-75.3505	0.0000000E+000	0.0000000E+000	0.0000000E+000	-14.6495	0.0000000E+000	0.0000000E+000	0.0000000E+000	14.6495	3.8255	75.3505	7.98186e-05	-4.07396e-07	183345

0.0100092	42.5252	13.2073	44.529	-17.2536	674.478	0.273306	-0.000908576	1.20395e+06	105914	1	12	0.00481405	0.00010811	0	0.000199519	0.0214468	0.00666086	0.0224573	17.2536	1.05914e+08	3.41023e+08	3.57092e+08	-72.7464	0.0000000E+000	0.0000000E+000	0.0000000E+000	72.7464	0.0000000E+000	0.0000000E+000	0.0000000E+000	-72.7464	0.0000000E+000	0.0000000E+000	0.0000000E+000	-17.2536	0.0000000E+000	0.0000000E+000	0.0000000E+000	17.2536	3.21982	72.7464	0.00024185	-2.48319e-07	300807