File: txt/17705_R287_UA661_SOC00_C04.mpt
EC-Lab ASCII FILE

Nb header lines : 63

Potentio Electrochemical Impedance Spectroscopy

Run on channel : 4 (SN 66756)
User :
CE vs. WE compliance from -10 V to 10 V
Electrode connection : standard
Potential control : Ewe
Ewe ctrl range : min = -10.00 V, max = 10.00 V
Safety Limits :
	Do not start on E overload
Acquisition started on : 09/22/2025 10:03:07.935
Loaded Setting File :  C:\Users\Celltest\OneDrive - store-dot.com\Documents\EC-Lab\Data\Gyutae\17739_R277_UA674_SOC00_C03.mpr
Saved on :
	File : 17705_R287_UA661_SOC00_C04.mpr
	Directory : C:\Users\Celltest\OneDrive - store-dot.com\Documents\EC-Lab\Data\Charmaine\
	Host : 169.254.61.224
Device : VMP-3e (SN .003165)
Address : USB
EC-LAB for windows v11.62 (software)
Internet server v27.00 (firmware)
Command interpretor v12.03 (firmware)
Electrode material :
Initial state :
Electrolyte :
Comments :
Electrode surface area : 0.001 cm²
Characteristic mass : 0.001 g
Equivalent Weight : 0.000 g/eq.
Density : 0.000 g/cm3
Volume (V) : 0.001 cm³
Cycle Definition : Charge/Discharge alternance
Mode                Single sine
E (V)               0.0000
vs.                 Eoc
tE (h:m:s)          0:00:0.0000
record              0
dI                  0.000
unit dI             mA
dt (s)              0.000
fi                  100.000
unit fi             kHz
ff                  10.000
unit ff             mHz
Nd                  6
Points              per decade
spacing             Logarithmic
Va (mV)             5.0
pw                  0.10
Na                  2
corr                0
E range min (V)     -10.000
E range max (V)     10.000
I Range             Auto
Bandwidth           5
nc cycles           0
goto Ns'            0
nr cycles           0
inc. cycle          0

freq/Hz	Re(Z)/Ohm	-Im(Z)/Ohm	|Z|/Ohm	Phase(Z)/deg	time/s	<Ewe>/V	<I>/mA	Cs/µF	Cp/µF	cycle number	I Range	|Ewe|/V	|I|/A	Ns	(Q-Qo)/mA.h	Re(Y)/Ohm-1	Im(Y)/Ohm-1	|Y|/Ohm-1	Phase(Y)/deg	Re(C)/nF	Im(C)/nF	|C|/nF	Phase(C)/deg	Re(M)	Im(M)	|M|	Phase(M)/deg	Re(Permittivity)	Im(Permittivity)	|Permittivity|	Phase(Permittivity)/deg	Re(Resistivity)/Ohm.cm	Im(Resistivity)/Ohm.cm	|Resistivity|/Ohm.cm	Phase(Resistivity)/deg	Re(Conductivity)/mS/cm	Im(Conductivity)/mS/cm	|Conductivity|/mS/cm	Phase(Conductivity)/deg	Tan(Delta)	Loss Angle(Delta)/deg	dq/mA.h	Pwe/W	Rwe/Ohm
100004	1.28512	0.289186	1.31726	-12.6818	2.0665	0.281091	-0.0104285	5.50335	0.265241	1	9	0.00469514	0.00356434	0	-1.13527e-05	0.740634	0.166662	0.759154	12.6818	265.241	1178.71	1208.19	-77.3182	0.0000000E+000	0.0000000E+000	0.0000000E+000	77.3182	0.0000000E+000	0.0000000E+000	0.0000000E+000	-77.3182	0.0000000E+000	0.0000000E+000	0.0000000E+000	-12.6818	0.0000000E+000	0.0000000E+000	0.0000000E+000	12.6818	4.44393	77.3182	-1.13527e-05	-2.93136e-06	26954
46420.4	1.42477	0.349472	1.467	-13.7816	3.2235	0.281099	-0.0129088	9.81069	0.556753	1	9	0.00506234	0.00345081	0	-1.51735e-05	0.662038	0.162387	0.681662	13.7816	556.753	2269.84	2337.12	-76.2184	0.0000000E+000	0.0000000E+000	0.0000000E+000	76.2184	0.0000000E+000	0.0000000E+000	0.0000000E+000	-76.2184	0.0000000E+000	0.0000000E+000	0.0000000E+000	-13.7816	0.0000000E+000	0.0000000E+000	0.0000000E+000	13.7816	4.07692	76.2184	-8.05024e-07	-3.62865e-06	21775.8
21544.7	1.60006	0.44944	1.66198	-15.6895	4.23949	0.281115	-0.023091	16.4365	1.20199	1	9	0.00520686	0.00313293	0	-1.23069e-05	0.579274	0.162712	0.601692	15.6895	1201.99	4279.21	4444.82	-74.3105	0.0000000E+000	0.0000000E+000	0.0000000E+000	74.3105	0.0000000E+000	0.0000000E+000	0.0000000E+000	-74.3105	0.0000000E+000	0.0000000E+000	0.0000000E+000	-15.6895	0.0000000E+000	0.0000000E+000	0.0000000E+000	15.6895	3.56011	74.3105	2.91283e-06	-6.49122e-06	12174.2
10002.2	1.80818	0.584542	1.90032	-17.9148	5.11348	0.281208	-0.0176456	27.2212	2.57565	1	9	0.00492545	0.00259191	0	-1.49055e-05	0.500714	0.161869	0.526228	17.9148	2575.66	7967.34	8373.32	-72.0852	0.0000000E+000	0.0000000E+000	0.0000000E+000	72.0852	0.0000000E+000	0.0000000E+000	0.0000000E+000	-72.0852	0.0000000E+000	0.0000000E+000	0.0000000E+000	-17.9148	0.0000000E+000	0.0000000E+000	0.0000000E+000	17.9148	3.09333	72.0852	-2.40618e-06	-4.96208e-06	15936.5
4641.49	2.08915	0.784393	2.23156	-20.5791	5.96271	0.281116	0.020062	43.7149	5.40109	1	9	0.00452267	0.00202669	0	-2.79234e-05	0.419523	0.157514	0.448118	20.5791	5401.09	14385.3	15365.8	-69.4209	0.0000000E+000	0.0000000E+000	0.0000000E+000	69.4209	0.0000000E+000	0.0000000E+000	0.0000000E+000	-69.4209	0.0000000E+000	0.0000000E+000	0.0000000E+000	-20.5791	0.0000000E+000	0.0000000E+000	0.0000000E+000	20.5791	2.6634	69.4209	7.96762e-07	5.63973e-06	14012.4
2155.69	2.44032	1.06367	2.66206	-23.5511	7.11969	0.281107	0.025843	69.4105	11.0817	1	9	0.00492237	0.00184908	0	-2.02904e-05	0.344358	0.150097	0.375649	23.5511	11081.7	25424	27734.2	-66.4489	0.0000000E+000	0.0000000E+000	0.0000000E+000	66.4489	0.0000000E+000	0.0000000E+000	0.0000000E+000	-66.4489	0.0000000E+000	0.0000000E+000	0.0000000E+000	-23.5511	0.0000000E+000	0.0000000E+000	0.0000000E+000	23.5511	2.29424	66.4489	2.55124e-06	7.26466e-06	10877.5
1000.32	2.92747	1.52481	3.30077	-27.5133	8.30968	0.281101	-0.0159058	104.344	22.2671	1	10	0.00500625	0.00151669	0	-1.77002e-05	0.268696	0.139953	0.302959	27.5133	22267.1	42750.6	48202	-62.4867	0.0000000E+000	0.0000000E+000	0.0000000E+000	62.4867	0.0000000E+000	0.0000000E+000	0.0000000E+000	-62.4867	0.0000000E+000	0.0000000E+000	0.0000000E+000	-27.5133	0.0000000E+000	0.0000000E+000	0.0000000E+000	27.5133	1.91989	62.4867	1.82721e-06	-4.47114e-06	17672.8
463.961	3.61441	2.25755	4.26151	-31.9888	9.24419	0.281101	-0.0155496	151.95	42.6431	1	10	0.00493054	0.00115699	0	-2.08204e-05	0.199026	0.124311	0.234659	31.9888	42643.1	68273	80496.2	-58.0112	0.0000000E+000	0.0000000E+000	0.0000000E+000	58.0112	0.0000000E+000	0.0000000E+000	0.0000000E+000	-58.0112	0.0000000E+000	0.0000000E+000	0.0000000E+000	-31.9888	0.0000000E+000	0.0000000E+000	0.0000000E+000	31.9888	1.60103	58.0112	-1.80103e-06	-4.371e-06	18077.7
215.345	4.67768	3.36892	5.76457	-35.7619	10.1784	0.281067	-0.015973	219.38	74.9278	1	10	0.00487876	0.000846335	0	-2.33014e-05	0.140766	0.101381	0.173474	35.7619	74927.8	104036	128209	-54.2381	0.0000000E+000	0.0000000E+000	0.0000000E+000	54.2381	0.0000000E+000	0.0000000E+000	0.0000000E+000	-54.2381	0.0000000E+000	0.0000000E+000	0.0000000E+000	-35.7619	0.0000000E+000	0.0000000E+000	0.0000000E+000	35.7619	1.38848	54.2381	-1.16647e-06	-4.48948e-06	17596.4
100.032	6.5187	5.01195	8.22272	-37.5552	11.1087	0.281057	-0.0158555	317.449	117.939	1	10	0.00488169	0.000593683	0	-2.79786e-05	0.0964118	0.074127	0.121614	37.5552	117939	153395	193493	-52.4448	0.0000000E+000	0.0000000E+000	0.0000000E+000	52.4448	0.0000000E+000	0.0000000E+000	0.0000000E+000	-52.4448	0.0000000E+000	0.0000000E+000	0.0000000E+000	-37.5552	0.0000000E+000	0.0000000E+000	0.0000000E+000	37.5552	1.30063	52.4448	-2.3365e-06	-4.4563e-06	17726.2
46.4415	9.64038	6.69263	11.7358	-34.7695	12.0426	0.281046	-0.0179407	512.055	166.528	1	10	0.00487954	0.000415784	0	-3.2245e-05	0.0699957	0.048593	0.0852096	34.7695	166528	239875	292013	-55.2305	0.0000000E+000	0.0000000E+000	0.0000000E+000	55.2305	0.0000000E+000	0.0000000E+000	0.0000000E+000	-55.2305	0.0000000E+000	0.0000000E+000	0.0000000E+000	-34.7695	0.0000000E+000	0.0000000E+000	0.0000000E+000	34.7695	1.44045	55.2305	-2.35533e-06	-5.04215e-06	15665.3
21.5517	13.8813	7.49936	15.7776	-28.3801	13.1693	0.281071	-0.00480826	984.723	222.476	1	11	0.00486358	0.000308259	0	-3.59973e-05	0.0557637	0.0301262	0.0633812	28.3801	222476	411803	468057	-61.6199	0.0000000E+000	0.0000000E+000	0.0000000E+000	61.6199	0.0000000E+000	0.0000000E+000	0.0000000E+000	-61.6199	0.0000000E+000	0.0000000E+000	0.0000000E+000	-28.3801	0.0000000E+000	0.0000000E+000	0.0000000E+000	28.3801	1.851	61.6199	-1.59042e-06	-1.35146e-06	58455.9
10.0032	18.2512	7.22949	19.6309	-21.609	14.1157	0.281136	-0.00395933	2200.76	298.474	1	11	0.0049051	0.000249866	0	-3.91697e-05	0.0473599	0.0187597	0.05094	21.609	298474	753515	810476	-68.391	0.0000000E+000	0.0000000E+000	0.0000000E+000	68.391	0.0000000E+000	0.0000000E+000	0.0000000E+000	-68.391	0.0000000E+000	0.0000000E+000	0.0000000E+000	-21.609	0.0000000E+000	0.0000000E+000	0.0000000E+000	21.609	2.52456	68.391	-2.38708e-06	-1.11311e-06	71006.1
4.63925	21.8373	6.29477	22.7265	-16.08	14.9763	0.281151	-0.00334561	5449.95	418.107	1	11	0.0049159	0.000216307	0	-4.06533e-05	0.04228	0.0121875	0.0440015	16.08	418107	1.45046e+06	1.50952e+06	-73.92	0.0000000E+000	0.0000000E+000	0.0000000E+000	73.92	0.0000000E+000	0.0000000E+000	0.0000000E+000	-73.92	0.0000000E+000	0.0000000E+000	0.0000000E+000	-16.08	0.0000000E+000	0.0000000E+000	0.0000000E+000	16.08	3.46912	73.92	-3.56899e-06	-9.40621e-07	84035.6
2.15577	24.4129	5.24561	24.9701	-12.1268	16.7018	0.281164	-0.00256415	14074.2	621.116	1	11	0.00486824	0.000194963	0	-3.73921e-05	0.0391542	0.00841307	0.0400478	12.1268	621116	2.89066e+06	2.95663e+06	-77.8732	0.0000000E+000	0.0000000E+000	0.0000000E+000	77.8732	0.0000000E+000	0.0000000E+000	0.0000000E+000	-77.8732	0.0000000E+000	0.0000000E+000	0.0000000E+000	-12.1268	0.0000000E+000	0.0000000E+000	0.0000000E+000	12.1268	4.65397	77.8732	3.46383e-06	-7.20947e-07	109652
1.00006	26.7711	4.54436	27.1541	-9.63404	21.3642	0.281106	-0.00120943	35020.3	980.832	1	12	0.00486762	0.000179259	0	-4.00324e-05	0.0363075	0.00616315	0.0368269	9.63404	980833	5.77815e+06	5.86081e+06	-80.366	0.0000000E+000	0.0000000E+000	0.0000000E+000	80.366	0.0000000E+000	0.0000000E+000	0.0000000E+000	-80.366	0.0000000E+000	0.0000000E+000	0.0000000E+000	-9.63404	0.0000000E+000	0.0000000E+000	0.0000000E+000	9.63404	5.89107	80.366	-4.48655e-06	-3.39977e-07	232429
0.464091	28.8661	3.99792	29.1416	-7.88523	29.0489	0.281128	-0.00120106	85779.5	1614.45	1	12	0.00489408	0.000167941	0	-5.92958e-05	0.0339907	0.00470767	0.0343152	7.88523	1.61445e+06	1.16568e+07	1.1768e+07	-82.1148	0.0000000E+000	0.0000000E+000	0.0000000E+000	82.1148	0.0000000E+000	0.0000000E+000	0.0000000E+000	-82.1148	0.0000000E+000	0.0000000E+000	0.0000000E+000	-7.88523	0.0000000E+000	0.0000000E+000	0.0000000E+000	7.88523	7.22028	82.1148	-1.01443e-05	-3.37652e-07	234067
0.215268	30.2834	3.76314	30.5163	-7.08349	45.5288	0.281134	-0.00217699	196468	2987.63	1	12	0.00487594	0.000159781	0	-5.78582e-05	0.0325192	0.00404097	0.0327693	7.08349	2.98763e+06	2.40426e+07	2.42275e+07	-82.9165	0.0000000E+000	0.0000000E+000	0.0000000E+000	82.9165	0.0000000E+000	0.0000000E+000	0.0000000E+000	-82.9165	0.0000000E+000	0.0000000E+000	0.0000000E+000	-7.08349	0.0000000E+000	0.0000000E+000	0.0000000E+000	7.08349	8.04738	82.9165	6.22693e-06	-6.12026e-07	129139
0.0999041	31.6128	4.04751	31.8709	-7.2961	80.9343	0.281126	-0.00133576	393595	6348	1	12	0.00486907	0.000152775	0	-4.47822e-06	0.0311226	0.00398474	0.0313766	7.2961	6.348e+06	4.95807e+07	4.99854e+07	-82.7039	0.0000000E+000	0.0000000E+000	0.0000000E+000	82.7039	0.0000000E+000	0.0000000E+000	0.0000000E+000	-82.7039	0.0000000E+000	0.0000000E+000	0.0000000E+000	-7.2961	0.0000000E+000	0.0000000E+000	0.0000000E+000	7.2961	7.81044	82.7039	3.21705e-05	-3.75516e-07	210462
0.0464052	33.2838	5.49609	33.7346	-9.37653	157.171	0.281125	0.000227669	624021	16563.7	1	12	0.00487094	0.00014439	0	2.07975e-05	0.0292471	0.00482952	0.0296432	9.37653	1.65637e+07	1.00308e+08	1.01667e+08	-80.6235	0.0000000E+000	0.0000000E+000	0.0000000E+000	80.6235	0.0000000E+000	0.0000000E+000	0.0000000E+000	-80.6235	0.0000000E+000	0.0000000E+000	0.0000000E+000	-9.37653	0.0000000E+000	0.0000000E+000	0.0000000E+000	9.37653	6.05591	80.6235	-3.80462e-06	6.40035e-08	1.23479e+06
0.0215268	35.361	8.19682	36.2986	-13.0509	321.401	0.281131	0.000120511	901978	45994.7	1	12	0.00486806	0.000134112	0	-0.000225191	0.0268377	0.00622109	0.0275493	13.0509	4.59947e+07	1.9842e+08	2.03682e+08	-76.9491	0.0000000E+000	0.0000000E+000	0.0000000E+000	76.9491	0.0000000E+000	0.0000000E+000	0.0000000E+000	-76.9491	0.0000000E+000	0.0000000E+000	0.0000000E+000	-13.0509	0.0000000E+000	0.0000000E+000	0.0000000E+000	13.0509	4.31399	76.9491	-0.000171261	3.38794e-08	2.33283e+06
0.0146812	36.9596	10.1252	38.3214	-15.3205	464.596	0.281126	-0.000724019	1.07067e+06	74744.8	1	12	0.00487501	0.000127214	0	-0.000463155	0.0251677	0.0068948	0.0260951	15.3205	7.47448e+07	2.72837e+08	2.8289e+08	-74.6795	0.0000000E+000	0.0000000E+000	0.0000000E+000	74.6795	0.0000000E+000	0.0000000E+000	0.0000000E+000	-74.6795	0.0000000E+000	0.0000000E+000	0.0000000E+000	-15.3205	0.0000000E+000	0.0000000E+000	0.0000000E+000	15.3205	3.65025	74.6795	-0.000237964	-2.0354e-07	388285

0.0100092	38.9173	12.7312	40.9468	-18.1147	674.617	0.281125	-0.00132653	1.24898e+06	120740	1	12	0.00487821	0.000119135	0	-0.000660136	0.0232115	0.00759327	0.0244219	18.1147	1.2074e+08	3.69084e+08	3.88331e+08	-71.8853	0.0000000E+000	0.0000000E+000	0.0000000E+000	71.8853	0.0000000E+000	0.0000000E+000	0.0000000E+000	-71.8853	0.0000000E+000	0.0000000E+000	0.0000000E+000	-18.1147	0.0000000E+000	0.0000000E+000	0.0000000E+000	18.1147	3.05685	71.8853	-0.000196981	-3.72921e-07	211925