File: txt/17703_R287_UA661_SOC00_C02.mpt
EC-Lab ASCII FILE

Nb header lines : 63

Potentio Electrochemical Impedance Spectroscopy

Run on channel : 2 (SN 66139)
User :
CE vs. WE compliance from -10 V to 10 V
Electrode connection : standard
Potential control : Ewe
Ewe ctrl range : min = -10.00 V, max = 10.00 V
Safety Limits :
	Do not start on E overload
Acquisition started on : 09/22/2025 10:02:49.569
Loaded Setting File :  C:\Users\Celltest\OneDrive - store-dot.com\Documents\EC-Lab\Data\Gyutae\17737_R277_UA674_SOC00_C01.mpr
Saved on :
	File : 17703_R287_UA661_SOC00_C02.mpr
	Directory : C:\Users\Celltest\OneDrive - store-dot.com\Documents\EC-Lab\Data\Charmaine\
	Host : 169.254.61.224
Device : VMP-3e (SN .003165)
Address : USB
EC-LAB for windows v11.62 (software)
Internet server v27.00 (firmware)
Command interpretor v12.03 (firmware)
Electrode material :
Initial state :
Electrolyte :
Comments :
Electrode surface area : 0.001 cm²
Characteristic mass : 0.001 g
Equivalent Weight : 0.000 g/eq.
Density : 0.000 g/cm3
Volume (V) : 0.001 cm³
Cycle Definition : Charge/Discharge alternance
Mode                Single sine
E (V)               0.0000
vs.                 Eoc
tE (h:m:s)          0:00:0.0000
record              0
dI                  0.000
unit dI             mA
dt (s)              0.000
fi                  100.000
unit fi             kHz
ff                  10.000
unit ff             mHz
Nd                  6
Points              per decade
spacing             Logarithmic
Va (mV)             5.0
pw                  0.10
Na                  2
corr                0
E range min (V)     -10.000
E range max (V)     10.000
I Range             Auto
Bandwidth           5
nc cycles           0
goto Ns'            0
nr cycles           0
inc. cycle          0

freq/Hz	Re(Z)/Ohm	-Im(Z)/Ohm	|Z|/Ohm	Phase(Z)/deg	time/s	<Ewe>/V	<I>/mA	Cs/µF	Cp/µF	cycle number	I Range	|Ewe|/V	|I|/A	Ns	(Q-Qo)/mA.h	Re(Y)/Ohm-1	Im(Y)/Ohm-1	|Y|/Ohm-1	Phase(Y)/deg	Re(C)/nF	Im(C)/nF	|C|/nF	Phase(C)/deg	Re(M)	Im(M)	|M|	Phase(M)/deg	Re(Permittivity)	Im(Permittivity)	|Permittivity|	Phase(Permittivity)/deg	Re(Resistivity)/Ohm.cm	Im(Resistivity)/Ohm.cm	|Resistivity|/Ohm.cm	Phase(Resistivity)/deg	Re(Conductivity)/mS/cm	Im(Conductivity)/mS/cm	|Conductivity|/mS/cm	Phase(Conductivity)/deg	Tan(Delta)	Loss Angle(Delta)/deg	dq/mA.h	Pwe/W	Rwe/Ohm
100004	1.31741	0.29781	1.35066	-12.738	2.06748	0.282716	0.0191467	5.34398	0.259809	1	9	0.00455631	0.00337341	0	-2.19025e-06	0.722159	0.163249	0.740381	12.738	259.809	1149.31	1178.31	-77.262	0.0000000E+000	0.0000000E+000	0.0000000E+000	77.262	0.0000000E+000	0.0000000E+000	0.0000000E+000	-77.262	0.0000000E+000	0.0000000E+000	0.0000000E+000	-12.738	0.0000000E+000	0.0000000E+000	0.0000000E+000	12.738	4.42368	77.262	-2.19025e-06	5.41308e-06	14765.8
46420.4	1.46613	0.374518	1.51321	-14.3296	3.22448	0.282713	0.0193143	9.15459	0.560772	1	9	0.00508302	0.0033591	0	-5.76408e-06	0.640287	0.163559	0.660847	14.3296	560.772	2195.26	2265.75	-75.6704	0.0000000E+000	0.0000000E+000	0.0000000E+000	75.6704	0.0000000E+000	0.0000000E+000	0.0000000E+000	-75.6704	0.0000000E+000	0.0000000E+000	0.0000000E+000	-14.3296	0.0000000E+000	0.0000000E+000	0.0000000E+000	14.3296	3.91471	75.6704	-5.41707e-06	5.46041e-06	14637.5
21544.7	1.65272	0.492104	1.72443	-16.5811	4.23949	0.282713	0.0153662	15.0115	1.22249	1	9	0.005179	0.00300331	0	-1.84439e-06	0.555787	0.165487	0.579901	16.5811	1222.49	4105.71	4283.85	-73.4189	0.0000000E+000	0.0000000E+000	0.0000000E+000	73.4189	0.0000000E+000	0.0000000E+000	0.0000000E+000	-73.4189	0.0000000E+000	0.0000000E+000	0.0000000E+000	-16.5811	0.0000000E+000	0.0000000E+000	0.0000000E+000	16.5811	3.35849	73.4189	6.69829e-06	4.34424e-06	18398.3
10002.2	1.88582	0.63138	1.9887	-18.5108	5.1135	0.282712	0.0149751	25.2019	2.54024	1	9	0.00483797	0.00243273	0	4.70746e-06	0.476825	0.159643	0.50284	18.5108	2540.24	7587.22	8001.17	-71.4892	0.0000000E+000	0.0000000E+000	0.0000000E+000	71.4892	0.0000000E+000	0.0000000E+000	0.0000000E+000	-71.4892	0.0000000E+000	0.0000000E+000	0.0000000E+000	-18.5108	0.0000000E+000	0.0000000E+000	0.0000000E+000	18.5108	2.98681	71.4892	1.56692e-06	4.23365e-06	18878.8
4641.49	2.19118	0.847617	2.34941	-21.1481	6.18567	0.282728	0.0668587	40.4542	5.26558	1	9	0.0049513	0.00210747	0	4.97344e-06	0.396973	0.153562	0.425639	21.1481	5265.58	13612.1	14595	-68.8519	0.0000000E+000	0.0000000E+000	0.0000000E+000	68.8519	0.0000000E+000	0.0000000E+000	0.0000000E+000	-68.8519	0.0000000E+000	0.0000000E+000	0.0000000E+000	-21.1481	0.0000000E+000	0.0000000E+000	0.0000000E+000	21.1481	2.5851	68.8519	9.57484e-06	1.89029e-05	4228.75
2155.69	2.57868	1.13815	2.81869	-23.8152	7.1197	0.282726	0.0586459	64.8684	10.5765	1	9	0.00483932	0.00171687	0	1.91481e-05	0.324567	0.143254	0.354775	23.8152	10576.5	23962.8	26193.1	-66.1848	0.0000000E+000	0.0000000E+000	0.0000000E+000	66.1848	0.0000000E+000	0.0000000E+000	0.0000000E+000	-66.1848	0.0000000E+000	0.0000000E+000	0.0000000E+000	-23.8152	0.0000000E+000	0.0000000E+000	0.0000000E+000	23.8152	2.26568	66.1848	5.18471e-06	1.65807e-05	4820.89
1000.32	3.07627	1.60113	3.468	-27.4959	8.31071	0.282683	-0.013824	99.3701	21.1811	1	10	0.00491697	0.00141781	0	2.72686e-05	0.25578	0.133127	0.288351	27.4959	21181.1	40695.6	45877.8	-62.5041	0.0000000E+000	0.0000000E+000	0.0000000E+000	62.5041	0.0000000E+000	0.0000000E+000	0.0000000E+000	-62.5041	0.0000000E+000	0.0000000E+000	0.0000000E+000	-27.4959	0.0000000E+000	0.0000000E+000	0.0000000E+000	27.4959	1.92131	62.5041	6.66792e-07	-3.90782e-06	20448.7
463.961	3.79083	2.3758	4.47379	-32.0763	9.24522	0.282678	-0.0136229	144.387	40.719	1	10	0.00485282	0.00108472	0	2.37901e-05	0.189401	0.118702	0.223524	32.0763	40719	64971.3	76676.6	-57.9237	0.0000000E+000	0.0000000E+000	0.0000000E+000	57.9237	0.0000000E+000	0.0000000E+000	0.0000000E+000	-57.9237	0.0000000E+000	0.0000000E+000	0.0000000E+000	-32.0763	0.0000000E+000	0.0000000E+000	0.0000000E+000	32.0763	1.5956	57.9237	-2.06143e-06	-3.85088e-06	20750.2
215.345	4.89584	3.58808	6.06989	-36.2371	10.1794	0.282676	-0.0146343	205.98	71.9758	1	10	0.00480786	0.000792084	0	1.96214e-05	0.132882	0.0973869	0.164748	36.2371	71975.8	98209.1	121760	-53.7629	0.0000000E+000	0.0000000E+000	0.0000000E+000	53.7629	0.0000000E+000	0.0000000E+000	0.0000000E+000	-53.7629	0.0000000E+000	0.0000000E+000	0.0000000E+000	-36.2371	0.0000000E+000	0.0000000E+000	0.0000000E+000	36.2371	1.36447	53.7629	-1.8628e-06	-4.13676e-06	19316
100.032	6.80567	5.38627	8.67923	-38.3595	11.1107	0.28268	-0.01472	295.388	113.765	1	10	0.00479516	0.000552487	0	1.66077e-05	0.0903459	0.0715033	0.115218	38.3595	113765	143744	183316	-51.6405	0.0000000E+000	0.0000000E+000	0.0000000E+000	51.6405	0.0000000E+000	0.0000000E+000	0.0000000E+000	-51.6405	0.0000000E+000	0.0000000E+000	0.0000000E+000	-38.3595	0.0000000E+000	0.0000000E+000	0.0000000E+000	38.3595	1.26352	51.6405	-1.37074e-06	-4.16103e-06	19203.8
46.4415	10.142	7.36035	12.5314	-35.9695	12.0445	0.282664	-0.0179013	465.602	160.626	1	10	0.00479377	0.000382542	0	1.36496e-05	0.0645844	0.0468707	0.0797998	35.9695	160626	221330	273473	-54.0305	0.0000000E+000	0.0000000E+000	0.0000000E+000	54.0305	0.0000000E+000	0.0000000E+000	0.0000000E+000	-54.0305	0.0000000E+000	0.0000000E+000	0.0000000E+000	-35.9695	0.0000000E+000	0.0000000E+000	0.0000000E+000	35.9695	1.37793	54.0305	-1.71738e-06	-5.06006e-06	15790.1
21.5517	14.8733	8.49662	17.1291	-29.7379	13.1703	0.282693	-0.00683639	869.144	213.852	1	11	0.00479852	0.000280138	0	9.08249e-06	0.0506916	0.0289585	0.0583801	29.7379	213852	374347	431125	-60.2621	0.0000000E+000	0.0000000E+000	0.0000000E+000	60.2621	0.0000000E+000	0.0000000E+000	0.0000000E+000	-60.2621	0.0000000E+000	0.0000000E+000	0.0000000E+000	-29.7379	0.0000000E+000	0.0000000E+000	0.0000000E+000	29.7379	1.75049	60.2621	-2.1266e-06	-1.9326e-06	41351.1
10.0032	19.6851	8.21643	21.331	-22.6554	14.1167	0.2827	-0.00618894	1936.41	287.304	1	11	0.00478981	0.000224547	0	9.31521e-06	0.0432628	0.0180576	0.0468801	22.6554	287304	688328	745882	-67.3446	0.0000000E+000	0.0000000E+000	0.0000000E+000	67.3446	0.0000000E+000	0.0000000E+000	0.0000000E+000	-67.3446	0.0000000E+000	0.0000000E+000	0.0000000E+000	-22.6554	0.0000000E+000	0.0000000E+000	0.0000000E+000	22.6554	2.39582	67.3446	6.16098e-07	-1.74961e-06	45678.3
4.63925	23.732	7.24608	24.8136	-16.979	14.9763	0.282704	-0.00588189	4734.44	403.735	1	11	0.00478651	0.000192899	0	7.56887e-06	0.0385439	0.0117686	0.0403005	16.979	403735	1.32229e+06	1.38256e+06	-73.021	0.0000000E+000	0.0000000E+000	0.0000000E+000	73.021	0.0000000E+000	0.0000000E+000	0.0000000E+000	-73.021	0.0000000E+000	0.0000000E+000	0.0000000E+000	-16.979	0.0000000E+000	0.0000000E+000	0.0000000E+000	16.979	3.27515	73.021	1.30745e-06	-1.66283e-06	48063.4
2.15577	27.0343	6.2343	27.7438	-12.9858	16.7008	0.282711	-0.00381928	11842.2	597.961	1	11	0.0047942	0.000172803	0	4.40251e-06	0.0351223	0.00809944	0.0360441	12.9858	597961	2.59299e+06	2.66104e+06	-77.0142	0.0000000E+000	0.0000000E+000	0.0000000E+000	77.0142	0.0000000E+000	0.0000000E+000	0.0000000E+000	-77.0142	0.0000000E+000	0.0000000E+000	0.0000000E+000	-12.9858	0.0000000E+000	0.0000000E+000	0.0000000E+000	12.9858	4.33638	77.0142	-3.79025e-06	-1.07975e-06	74022
1.00006	29.7357	5.29898	30.2042	-10.1042	21.3652	0.282713	-0.0035137	30033.1	924.381	1	12	0.00479314	0.000158691	0	-5.39337e-06	0.0325945	0.00580843	0.033108	10.1042	924381	5.18724e+06	5.26896e+06	-79.8958	0.0000000E+000	0.0000000E+000	0.0000000E+000	79.8958	0.0000000E+000	0.0000000E+000	0.0000000E+000	-79.8958	0.0000000E+000	0.0000000E+000	0.0000000E+000	-10.1042	0.0000000E+000	0.0000000E+000	0.0000000E+000	10.1042	5.61159	79.8958	-4.11832e-06	-9.9337e-07	80460.2
0.464091	31.9286	4.51535	32.2463	-8.0494	29.0495	0.282712	-0.00347336	75949.7	1489.19	1	12	0.00479356	0.000148655	0	2.29914e-06	0.0307058	0.00434242	0.0310113	8.0494	1.48919e+06	1.05302e+07	1.0635e+07	-81.9506	0.0000000E+000	0.0000000E+000	0.0000000E+000	81.9506	0.0000000E+000	0.0000000E+000	0.0000000E+000	-81.9506	0.0000000E+000	0.0000000E+000	0.0000000E+000	-8.0494	0.0000000E+000	0.0000000E+000	0.0000000E+000	8.0494	7.07112	81.9506	5.56437e-06	-9.81959e-07	81394.4
0.215268	33.7001	4.14273	33.9538	-7.00816	45.5285	0.282717	-0.00209917	178466	2656.75	1	12	0.00479459	0.000141209	0	1.51172e-06	0.0292318	0.00359344	0.0294518	7.00816	2.65675e+06	2.16121e+07	2.17747e+07	-82.9918	0.0000000E+000	0.0000000E+000	0.0000000E+000	82.9918	0.0000000E+000	0.0000000E+000	0.0000000E+000	-82.9918	0.0000000E+000	0.0000000E+000	0.0000000E+000	-7.00816	0.0000000E+000	0.0000000E+000	0.0000000E+000	7.00816	8.13476	82.9918	-4.88899e-06	-5.93472e-07	134680
0.0999041	35.1021	4.49262	35.3884	-7.29348	80.9349	0.282712	-0.00136645	354599	5714.98	1	12	0.00479423	0.000135474	0	-6.51885e-05	0.0280292	0.00358738	0.0282578	7.29348	5.71497e+06	4.46527e+07	4.50169e+07	-82.7065	0.0000000E+000	0.0000000E+000	0.0000000E+000	82.7065	0.0000000E+000	0.0000000E+000	0.0000000E+000	-82.7065	0.0000000E+000	0.0000000E+000	0.0000000E+000	-7.29348	0.0000000E+000	0.0000000E+000	0.0000000E+000	7.29348	7.81327	82.7065	-4.47654e-05	-3.86311e-07	206895
0.0464052	36.8151	5.82863	37.2736	-8.99649	157.17	0.282714	-0.00180149	588420	14388.5	1	12	0.00479297	0.000128589	0	-0.00019545	0.0264986	0.0041953	0.0268286	8.99649	1.43885e+07	9.08816e+07	9.20136e+07	-81.0035	0.0000000E+000	0.0000000E+000	0.0000000E+000	81.0035	0.0000000E+000	0.0000000E+000	0.0000000E+000	-81.0035	0.0000000E+000	0.0000000E+000	0.0000000E+000	-8.99649	0.0000000E+000	0.0000000E+000	0.0000000E+000	8.99649	6.31625	81.0035	-6.76504e-05	-5.09307e-07	156934
0.0215268	38.9678	8.82244	39.9541	-12.7569	321.401	0.282707	-0.00211352	838016	40860.9	1	12	0.00479441	0.000119998	0	-0.000175541	0.0244109	0.00552672	0.0250287	12.7569	4.08609e+07	1.80478e+08	1.85046e+08	-77.2431	0.0000000E+000	0.0000000E+000	0.0000000E+000	77.2431	0.0000000E+000	0.0000000E+000	0.0000000E+000	-77.2431	0.0000000E+000	0.0000000E+000	0.0000000E+000	-12.7569	0.0000000E+000	0.0000000E+000	0.0000000E+000	12.7569	4.4169	77.2431	5.05129e-05	-5.97506e-07	133761
0.0146812	40.3783	10.7242	41.7782	-14.874	464.596	0.282709	-0.00131677	1.01087e+06	66607.8	1	12	0.00479297	0.000114724	0	-1.56112e-05	0.0231339	0.0061442	0.023936	14.874	6.66077e+07	2.50789e+08	2.59484e+08	-75.1261	0.0000000E+000	0.0000000E+000	0.0000000E+000	75.1261	0.0000000E+000	0.0000000E+000	0.0000000E+000	-75.1261	0.0000000E+000	0.0000000E+000	0.0000000E+000	-14.874	0.0000000E+000	0.0000000E+000	0.0000000E+000	14.874	3.76516	75.1261	0.00015993	-3.72262e-07	214699

0.0100092	42.3531	13.1968	44.3615	-17.3065	674.616	0.282709	-0.000554806	1.20491e+06	106630	1	12	0.00479368	0.000108059	0	0.000210202	0.0215215	0.00670589	0.0225421	17.3065	1.0663e+08	3.42212e+08	3.5844e+08	-72.6935	0.0000000E+000	0.0000000E+000	0.0000000E+000	72.6935	0.0000000E+000	0.0000000E+000	0.0000000E+000	-72.6935	0.0000000E+000	0.0000000E+000	0.0000000E+000	-17.3065	0.0000000E+000	0.0000000E+000	0.0000000E+000	17.3065	3.20935	72.6935	0.000225813	-1.56848e-07	509564