File: txt/17711_R287_UA663_SOC00_C01.mpt
EC-Lab ASCII FILE
Nb header lines : 63

Potentio Electrochemical Impedance Spectroscopy

Run on channel : 1 (SN 66354)
User :
CE vs. WE compliance from -10 V to 10 V
Electrode connection : standard
Potential control : Ewe
Ewe ctrl range : min = -10.00 V, max = 10.00 V
Safety Limits :
	Do not start on E overload
Acquisition started on : 09/22/2025 10:24:53.423
Loaded Setting File :  C:\Users\Celltest\OneDrive - store-dot.com\Documents\EC-Lab\Data\txt_done\14380_R229_UA592_SOC00_C01.mpr
Saved on :
	File : 17711_R287_UA663_SOC00_C01.mpr
	Directory : C:\Users\Celltest\OneDrive - store-dot.com\Documents\EC-Lab\Data\Charmaine\
	Host : 169.254.61.224
Device : VMP-3e (SN .003165)
Address : USB
EC-LAB for windows v11.62 (software)
Internet server v27.00 (firmware)
Command interpretor v12.03 (firmware)
Electrode material :
Initial state :
Electrolyte :
Comments :
Electrode surface area : 0.001 cm²
Characteristic mass : 0.001 g
Equivalent Weight : 0.000 g/eq.
Density : 0.000 g/cm3
Volume (V) : 0.001 cm³
Cycle Definition : Charge/Discharge alternance
Mode                Single sine
E (V)               0.0000
vs.                 Eoc
tE (h:m:s)          0:00:0.0000
record              0
dI                  0.000
unit dI             mA
dt (s)              0.000
fi                  100.000
unit fi             kHz
ff                  10.000
unit ff             mHz
Nd                  6
Points              per decade
spacing             Logarithmic
Va (mV)             5.0
pw                  0.10
Na                  2
corr                0
E range min (V)     -10.000
E range max (V)     10.000
I Range             Auto
Bandwidth           5
nc cycles           0
goto Ns'            0
nr cycles           0
inc. cycle          0

freq/Hz	Re(Z)/Ohm	-Im(Z)/Ohm	|Z|/Ohm	Phase(Z)/deg	time/s	<Ewe>/V	<I>/mA	Cs/µF	Cp/µF	cycle number	I Range	|Ewe|/V	|I|/A	Ns	(Q-Qo)/mA.h	Re(Y)/Ohm-1	Im(Y)/Ohm-1	|Y|/Ohm-1	Phase(Y)/deg	Re(C)/nF	Im(C)/nF	|C|/nF	Phase(C)/deg	Re(M)	Im(M)	|M|	Phase(M)/deg	Re(Permittivity)	Im(Permittivity)	|Permittivity|	Phase(Permittivity)/deg	Re(Resistivity)/Ohm.cm	Im(Resistivity)/Ohm.cm	|Resistivity|/Ohm.cm	Phase(Resistivity)/deg	Re(Conductivity)/mS/cm	Im(Conductivity)/mS/cm	|Conductivity|/mS/cm	Phase(Conductivity)/deg	Tan(Delta)	Loss Angle(Delta)/deg	dq/mA.h	Pwe/W	Rwe/Ohm
100004	1.02737	0.221932	1.05106	-12.1898	2.06648	0.269834	0.0792168	7.17106	0.319717	1	9	0.00478176	0.00454945	0	8.71217e-06	0.929966	0.200892	0.951417	12.1898	319.717	1480.03	1514.17	-77.8102	0.0000000E+000	0.0000000E+000	0.0000000E+000	77.8102	0.0000000E+000	0.0000000E+000	0.0000000E+000	-77.8102	0.0000000E+000	0.0000000E+000	0.0000000E+000	-12.1898	0.0000000E+000	0.0000000E+000	0.0000000E+000	12.1898	4.62919	77.8102	8.71217e-06	2.13754e-05	3406.27
46420.4	1.13664	0.268726	1.16797	-13.3017	3.0815	0.269831	0.0816011	12.7586	0.675392	1	9	0.00504165	0.00431658	0	3.14795e-05	0.833214	0.19699	0.856184	13.3017	675.392	2856.72	2935.48	-76.6983	0.0000000E+000	0.0000000E+000	0.0000000E+000	76.6983	0.0000000E+000	0.0000000E+000	0.0000000E+000	-76.6983	0.0000000E+000	0.0000000E+000	0.0000000E+000	-13.3017	0.0000000E+000	0.0000000E+000	0.0000000E+000	13.3017	4.22973	76.6983	1.42189e-05	2.20185e-05	3306.71
21544.7	1.26967	0.344574	1.31559	-15.1837	4.09648	0.269835	0.0801295	21.4386	1.47068	1	9	0.00538258	0.00409136	0	5.18213e-05	0.733578	0.199085	0.760113	15.1837	1470.68	5419.09	5615.11	-74.8163	0.0000000E+000	0.0000000E+000	0.0000000E+000	74.8163	0.0000000E+000	0.0000000E+000	0.0000000E+000	-74.8163	0.0000000E+000	0.0000000E+000	0.0000000E+000	-15.1837	0.0000000E+000	0.0000000E+000	0.0000000E+000	15.1837	3.68475	74.8163	1.03634e-05	2.16217e-05	3367.48
10002.2	1.42393	0.443727	1.49146	-17.3082	4.82948	0.269833	0.0744296	35.8598	3.17406	1	9	0.0050103	0.00335932	0	7.15794e-05	0.640123	0.199477	0.670483	17.3082	3174.06	10185.6	10668.7	-72.6918	0.0000000E+000	0.0000000E+000	0.0000000E+000	72.6918	0.0000000E+000	0.0000000E+000	0.0000000E+000	-72.6918	0.0000000E+000	0.0000000E+000	0.0000000E+000	-17.3082	0.0000000E+000	0.0000000E+000	0.0000000E+000	17.3082	3.20901	72.6918	1.07259e-05	2.00836e-05	3625.35
4641.49	1.61275	0.613682	1.72556	-20.8328	5.67869	0.269782	0.0880833	55.8753	7.06716	1	9	0.0045118	0.00261468	0	8.10279e-05	0.541633	0.206102	0.579521	20.8328	7067.16	18572.4	19871.6	-69.1672	0.0000000E+000	0.0000000E+000	0.0000000E+000	69.1672	0.0000000E+000	0.0000000E+000	0.0000000E+000	-69.1672	0.0000000E+000	0.0000000E+000	0.0000000E+000	-20.8328	0.0000000E+000	0.0000000E+000	0.0000000E+000	20.8328	2.62799	69.1672	1.22145e-05	2.37633e-05	3062.8
2155.69	1.86093	0.901464	2.06778	-25.8462	6.83569	0.26978	0.0870216	81.9003	15.5659	1	9	0.00488504	0.00236246	0	0.000105438	0.435234	0.210834	0.48361	25.8462	15565.9	32133.4	35705	-64.1538	0.0000000E+000	0.0000000E+000	0.0000000E+000	64.1538	0.0000000E+000	0.0000000E+000	0.0000000E+000	-64.1538	0.0000000E+000	0.0000000E+000	0.0000000E+000	-25.8462	0.0000000E+000	0.0000000E+000	0.0000000E+000	25.8462	2.06435	64.1538	9.50279e-06	2.34767e-05	3100.15
1000.32	2.22557	1.40899	2.63408	-32.3376	7.7717	0.269782	0.0895362	112.921	32.3094	1	9	0.00484464	0.00183921	0	0.000127626	0.320761	0.203071	0.379639	32.3376	32309.4	51034.4	60402	-57.6624	0.0000000E+000	0.0000000E+000	0.0000000E+000	57.6624	0.0000000E+000	0.0000000E+000	0.0000000E+000	-57.6624	0.0000000E+000	0.0000000E+000	0.0000000E+000	-32.3376	0.0000000E+000	0.0000000E+000	0.0000000E+000	32.3376	1.57955	57.6624	1.01781e-05	2.41553e-05	3013.11
463.961	2.8539	2.26248	3.64192	-38.4063	8.96022	0.269795	-0.0138796	151.619	58.5145	1	10	0.0048871	0.0013419	0	0.000142017	0.215168	0.170579	0.274581	38.4063	58514.6	73810.3	94190.8	-51.5937	0.0000000E+000	0.0000000E+000	0.0000000E+000	51.5937	0.0000000E+000	0.0000000E+000	0.0000000E+000	-51.5937	0.0000000E+000	0.0000000E+000	0.0000000E+000	-38.4063	0.0000000E+000	0.0000000E+000	0.0000000E+000	38.4063	1.2614	51.5937	3.39569e-06	-3.74463e-06	19438.3
215.345	3.96539	3.55835	5.32787	-41.9033	9.89442	0.269793	-0.0152921	207.7	92.6462	1	10	0.00483873	0.000908193	0	0.000138808	0.139694	0.125355	0.187692	41.9033	92646.2	103244	138718	-48.0967	0.0000000E+000	0.0000000E+000	0.0000000E+000	48.0967	0.0000000E+000	0.0000000E+000	0.0000000E+000	-48.0967	0.0000000E+000	0.0000000E+000	0.0000000E+000	-41.9033	0.0000000E+000	0.0000000E+000	0.0000000E+000	41.9033	1.11439	48.0967	-1.15259e-06	-4.12569e-06	17642.7
100.032	5.90963	5.31267	7.94658	-41.9551	10.8257	0.269787	-0.015007	299.48	133.855	1	10	0.00481623	0.000606076	0	0.00013525	0.0935836	0.0841302	0.12584	41.9551	133855	148895	200217	-48.0449	0.0000000E+000	0.0000000E+000	0.0000000E+000	48.0449	0.0000000E+000	0.0000000E+000	0.0000000E+000	-48.0449	0.0000000E+000	0.0000000E+000	0.0000000E+000	-41.9551	0.0000000E+000	0.0000000E+000	0.0000000E+000	41.9551	1.11237	48.0449	-1.79406e-06	-4.04869e-06	17977.4
46.4415	9.20704	7.18891	11.6812	-37.9829	11.7595	0.269792	-0.0181059	476.706	180.552	1	10	0.00480902	0.00041169	0	0.000131993	0.0674756	0.0526853	0.0856078	37.9829	180552	231238	293377	-52.0171	0.0000000E+000	0.0000000E+000	0.0000000E+000	52.0171	0.0000000E+000	0.0000000E+000	0.0000000E+000	-52.0171	0.0000000E+000	0.0000000E+000	0.0000000E+000	-37.9829	0.0000000E+000	0.0000000E+000	0.0000000E+000	37.9829	1.28073	52.0171	-1.82484e-06	-4.88483e-06	14900.7
21.5517	13.889	8.26599	16.1626	-30.7589	12.8853	0.269828	-0.00739759	893.394	233.673	1	11	0.00482456	0.000298501	0	0.000127936	0.0531675	0.0316425	0.0618711	30.7589	233673	392631	456905	-59.2411	0.0000000E+000	0.0000000E+000	0.0000000E+000	59.2411	0.0000000E+000	0.0000000E+000	0.0000000E+000	-59.2411	0.0000000E+000	0.0000000E+000	0.0000000E+000	-30.7589	0.0000000E+000	0.0000000E+000	0.0000000E+000	30.7589	1.68026	59.2411	-1.87489e-06	-1.99608e-06	36475.2
10.0032	18.5528	7.81704	20.1324	-22.8476	13.8317	0.269821	-0.00647928	2035.35	306.854	1	11	0.00481098	0.000238967	0	0.000126783	0.045774	0.0192864	0.0496711	22.8476	306854	728282	790288	-67.1524	0.0000000E+000	0.0000000E+000	0.0000000E+000	67.1524	0.0000000E+000	0.0000000E+000	0.0000000E+000	-67.1524	0.0000000E+000	0.0000000E+000	0.0000000E+000	-22.8476	0.0000000E+000	0.0000000E+000	0.0000000E+000	22.8476	2.37338	67.1524	-6.47641e-07	-1.74825e-06	41643.8
4.63925	22.3862	6.65847	23.3555	-16.5644	14.6923	0.269828	-0.00596203	5152.26	418.763	1	11	0.00480597	0.000205775	0	0.000123954	0.0410396	0.0122067	0.0428165	16.5644	418763	1.40791e+06	1.46887e+06	-73.4356	0.0000000E+000	0.0000000E+000	0.0000000E+000	73.4356	0.0000000E+000	0.0000000E+000	0.0000000E+000	-73.4356	0.0000000E+000	0.0000000E+000	0.0000000E+000	-16.5644	0.0000000E+000	0.0000000E+000	0.0000000E+000	16.5644	3.36207	73.4356	-8.08367e-07	-1.60872e-06	45257.8
2.15577	25.3805	5.50546	25.9707	-12.2388	16.4178	0.269844	-0.00343875	13409.9	602.62	1	11	0.00481542	0.000185417	0	0.000125293	0.0376297	0.00816253	0.0385049	12.2388	602619	2.77811e+06	2.84272e+06	-77.7612	0.0000000E+000	0.0000000E+000	0.0000000E+000	77.7612	0.0000000E+000	0.0000000E+000	0.0000000E+000	-77.7612	0.0000000E+000	0.0000000E+000	0.0000000E+000	-12.2388	0.0000000E+000	0.0000000E+000	0.0000000E+000	12.2388	4.61006	77.7612	-1.01556e-06	-9.27927e-07	78471.7
1.00006	27.69	4.52171	28.0568	-9.27439	21.0813	0.269848	-0.00351701	35195.7	914.153	1	12	0.0048149	0.000171613	0	0.000111219	0.0351761	0.00574416	0.035642	9.27439	914153	5.59809e+06	5.67224e+06	-80.7256	0.0000000E+000	0.0000000E+000	0.0000000E+000	80.7256	0.0000000E+000	0.0000000E+000	0.0000000E+000	-80.7256	0.0000000E+000	0.0000000E+000	0.0000000E+000	-9.27439	0.0000000E+000	0.0000000E+000	0.0000000E+000	9.27439	6.1238	80.7256	-8.48951e-06	-9.49058e-07	76726.6
0.464091	29.5657	3.8051	29.8095	-7.33365	28.7669	0.26984	-0.00398183	90126.2	1468.5	1	12	0.00481763	0.000161614	0	0.000110342	0.0332719	0.00428209	0.0335463	7.33365	1.4685e+06	1.14102e+07	1.15043e+07	-82.6664	0.0000000E+000	0.0000000E+000	0.0000000E+000	82.6664	0.0000000E+000	0.0000000E+000	0.0000000E+000	-82.6664	0.0000000E+000	0.0000000E+000	0.0000000E+000	-7.33365	0.0000000E+000	0.0000000E+000	0.0000000E+000	7.33365	7.77001	82.6664	2.54147e-06	-1.07446e-06	67767.8
0.215268	31.1099	3.41553	31.2968	-6.26537	45.247	0.269843	-0.00304232	216463	2578.1	1	12	0.00481318	0.000153791	0	0.000126762	0.0317613	0.00348705	0.0319522	6.26537	2.5781e+06	2.34822e+07	2.36233e+07	-83.7346	0.0000000E+000	0.0000000E+000	0.0000000E+000	83.7346	0.0000000E+000	0.0000000E+000	0.0000000E+000	-83.7346	0.0000000E+000	0.0000000E+000	0.0000000E+000	-6.26537	0.0000000E+000	0.0000000E+000	0.0000000E+000	6.26537	9.10835	83.7346	7.94163e-06	-8.20949e-07	88696.5
0.0999041	32.5455	3.73199	32.7588	-6.54154	80.6535	0.26984	-0.00138581	426870	5540.16	1	12	0.00481388	0.000146949	0	9.75572e-05	0.0303274	0.00347765	0.0305262	6.54154	5.54016e+06	4.8314e+07	4.86306e+07	-83.4585	0.0000000E+000	0.0000000E+000	0.0000000E+000	83.4585	0.0000000E+000	0.0000000E+000	0.0000000E+000	-83.4585	0.0000000E+000	0.0000000E+000	0.0000000E+000	-6.54154	0.0000000E+000	0.0000000E+000	0.0000000E+000	6.54154	8.72067	83.4585	-2.64876e-05	-3.73947e-07	194716
0.0464052	34.0854	4.88085	34.433	-8.14907	156.89	0.269838	-0.00101539	702681	14118.8	1	12	0.00481379	0.000139801	0	-5.73947e-05	0.0287486	0.00411666	0.0290419	8.14907	1.41188e+07	9.85986e+07	9.96043e+07	-81.8509	0.0000000E+000	0.0000000E+000	0.0000000E+000	81.8509	0.0000000E+000	0.0000000E+000	0.0000000E+000	-81.8509	0.0000000E+000	0.0000000E+000	0.0000000E+000	-8.14907	0.0000000E+000	0.0000000E+000	0.0000000E+000	8.14907	6.98349	81.8509	-9.79878e-05	-2.73991e-07	265748
0.0215268	36.3424	7.56172	37.1208	-11.7538	321.118	0.269832	-0.00207392	977733	40572.1	1	12	0.00481555	0.000129727	0	-0.000239592	0.0263742	0.00548765	0.0269391	11.7538	4.05721e+07	1.94994e+08	1.9917e+08	-78.2462	0.0000000E+000	0.0000000E+000	0.0000000E+000	78.2462	0.0000000E+000	0.0000000E+000	0.0000000E+000	-78.2462	0.0000000E+000	0.0000000E+000	0.0000000E+000	-11.7538	0.0000000E+000	0.0000000E+000	0.0000000E+000	11.7538	4.80611	78.2462	-7.02787e-05	-5.5961e-07	130107
0.0100092	39.1508	12.019	40.9541	-17.066	674.334	0.269836	-0.00128367	1.32299e+06	113945	1	12	0.00481397	0.000117545	0	5.09526e-05	0.0233424	0.00716591	0.0244176	17.066	1.13945e+08	3.71165e+08	3.88262e+08	-72.934	0.0000000E+000	0.0000000E+000	0.0000000E+000	72.934	0.0000000E+000	0.0000000E+000	0.0000000E+000	-72.934	0.0000000E+000	0.0000000E+000	0.0000000E+000	-17.066	0.0000000E+000	0.0000000E+000	0.0000000E+000	17.066	3.25742	72.934	0.000236911	-3.46381e-07	210206