File: txt/17710_R287_UA662_SOC00_C08.mpt
EC-Lab ASCII FILE

Nb header lines : 63

Potentio Electrochemical Impedance Spectroscopy

Run on channel : 8 (SN 65398)
User :
CE vs. WE compliance from -10 V to 10 V
Electrode connection : standard
Potential control : Ewe
Ewe ctrl range : min = -10.00 V, max = 10.00 V
Safety Limits :
	Do not start on E overload
Acquisition started on : 09/22/2025 10:03:51.870
Loaded Setting File :  C:\Users\Celltest\OneDrive - store-dot.com\Documents\EC-Lab\Data\Charmaine\17688_R288_UA670_SOC00_C03.mpr
Saved on :
	File : 17710_R287_UA662_SOC00_C08.mpr
	Directory : C:\Users\Celltest\OneDrive - store-dot.com\Documents\EC-Lab\Data\Charmaine\
	Host : 169.254.61.224
Device : VMP-3e (SN .003165)
Address : USB
EC-LAB for windows v11.62 (software)
Internet server v27.00 (firmware)
Command interpretor v12.03 (firmware)
Electrode material :
Initial state :
Electrolyte :
Comments :
Electrode surface area : 0.001 cm²
Characteristic mass : 0.001 g
Equivalent Weight : 0.000 g/eq.
Density : 0.000 g/cm3
Volume (V) : 0.001 cm³
Cycle Definition : Charge/Discharge alternance
Mode                Single sine
E (V)               0.0000
vs.                 Eoc
tE (h:m:s)          0:00:0.0000
record              0
dI                  0.000
unit dI             mA
dt (s)              0.000
fi                  100.000
unit fi             kHz
ff                  10.000
unit ff             mHz
Nd                  6
Points              per decade
spacing             Logarithmic
Va (mV)             5.0
pw                  0.10
Na                  2
corr                0
E range min (V)     -10.000
E range max (V)     10.000
I Range             Auto
Bandwidth           5
nc cycles           0
goto Ns'            0
nr cycles           0
inc. cycle          0

freq/Hz	Re(Z)/Ohm	-Im(Z)/Ohm	|Z|/Ohm	Phase(Z)/deg	time/s	<Ewe>/V	<I>/mA	Cs/µF	Cp/µF	cycle number	I Range	|Ewe|/V	|I|/A	Ns	(Q-Qo)/mA.h	Re(Y)/Ohm-1	Im(Y)/Ohm-1	|Y|/Ohm-1	Phase(Y)/deg	Re(C)/nF	Im(C)/nF	|C|/nF	Phase(C)/deg	Re(M)	Im(M)	|M|	Phase(M)/deg	Re(Permittivity)	Im(Permittivity)	|Permittivity|	Phase(Permittivity)/deg	Re(Resistivity)/Ohm.cm	Im(Resistivity)/Ohm.cm	|Resistivity|/Ohm.cm	Phase(Resistivity)/deg	Re(Conductivity)/mS/cm	Im(Conductivity)/mS/cm	|Conductivity|/mS/cm	Phase(Conductivity)/deg	Tan(Delta)	Loss Angle(Delta)/deg	dq/mA.h	Pwe/W	Rwe/Ohm
100004	1.34163	0.237224	1.36245	-10.0272	2.07749	0.272291	0.0486257	6.70881	0.203387	1	9	0.00490996	0.00360378	0	6.6592e-06	0.722763	0.127797	0.733974	10.0272	203.387	1150.27	1168.11	-79.9728	0.0000000E+000	0.0000000E+000	0.0000000E+000	79.9728	0.0000000E+000	0.0000000E+000	0.0000000E+000	-79.9728	0.0000000E+000	0.0000000E+000	0.0000000E+000	-10.0272	0.0000000E+000	0.0000000E+000	0.0000000E+000	10.0272	5.65556	79.9728	6.6592e-06	1.32403e-05	5599.73
46420.4	1.45821	0.329419	1.49496	-12.7298	3.09248	0.272301	0.0506533	10.4079	0.505364	1	9	0.00508747	0.00340309	0	2.43379e-05	0.652474	0.147398	0.668916	12.7298	505.364	2237.05	2293.42	-77.2702	0.0000000E+000	0.0000000E+000	0.0000000E+000	77.2702	0.0000000E+000	0.0000000E+000	0.0000000E+000	-77.2702	0.0000000E+000	0.0000000E+000	0.0000000E+000	-12.7298	0.0000000E+000	0.0000000E+000	0.0000000E+000	12.7298	4.42661	77.2702	7.28203e-06	1.37929e-05	5375.78
21544.7	1.62615	0.443131	1.68545	-15.2432	4.1075	0.2723	0.0444963	16.6705	1.15234	1	9	0.00507808	0.00301289	0	2.89902e-05	0.57244	0.155992	0.593314	15.2432	1152.34	4228.73	4382.93	-74.7568	0.0000000E+000	0.0000000E+000	0.0000000E+000	74.7568	0.0000000E+000	0.0000000E+000	0.0000000E+000	-74.7568	0.0000000E+000	0.0000000E+000	0.0000000E+000	-15.2432	0.0000000E+000	0.0000000E+000	0.0000000E+000	15.2432	3.66968	74.7568	4.86841e-06	1.21163e-05	6119.61
10002.2	1.84605	0.583927	1.9362	-17.5527	5.12248	0.272292	0.0430454	27.2499	2.47845	1	9	0.00506226	0.00261453	0	3.81532e-05	0.492428	0.15576	0.516475	17.5527	2478.45	7835.49	8218.13	-72.4473	0.0000000E+000	0.0000000E+000	0.0000000E+000	72.4473	0.0000000E+000	0.0000000E+000	0.0000000E+000	-72.4473	0.0000000E+000	0.0000000E+000	0.0000000E+000	-17.5527	0.0000000E+000	0.0000000E+000	0.0000000E+000	17.5527	3.16144	72.4473	6.80802e-06	1.17209e-05	6325.69
4641.49	2.13636	0.771072	2.27125	-19.8459	6.37271	0.272289	0.0314569	44.4701	5.12538	1	9	0.00548325	0.0024142	0	4.53619e-05	0.414136	0.149473	0.440285	19.8459	5125.38	14200.6	15097.2	-70.1541	0.0000000E+000	0.0000000E+000	0.0000000E+000	70.1541	0.0000000E+000	0.0000000E+000	0.0000000E+000	-70.1541	0.0000000E+000	0.0000000E+000	0.0000000E+000	-19.8459	0.0000000E+000	0.0000000E+000	0.0000000E+000	19.8459	2.77064	70.1541	8.48153e-06	8.56537e-06	8655.94
2155.69	2.50074	1.02417	2.70234	-22.2714	7.7527	0.272289	0.033782	72.0877	10.3545	1	9	0.00510831	0.00189033	0	5.2703e-05	0.342444	0.140247	0.37005	22.2714	10354.5	25282.7	27320.9	-67.7286	0.0000000E+000	0.0000000E+000	0.0000000E+000	67.7286	0.0000000E+000	0.0000000E+000	0.0000000E+000	-67.7286	0.0000000E+000	0.0000000E+000	0.0000000E+000	-22.2714	0.0000000E+000	0.0000000E+000	0.0000000E+000	22.2714	2.44172	67.7286	5.08356e-06	9.19847e-06	8060.18
1000.32	2.98127	1.39439	3.29125	-25.0663	9.1677	0.272298	-0.00148213	114.103	20.4807	1	10	0.00517345	0.00157188	0	6.39152e-05	0.27522	0.128725	0.303836	25.0663	20480.7	43788.6	48341.5	-64.9337	0.0000000E+000	0.0000000E+000	0.0000000E+000	64.9337	0.0000000E+000	0.0000000E+000	0.0000000E+000	-64.9337	0.0000000E+000	0.0000000E+000	0.0000000E+000	-25.0663	0.0000000E+000	0.0000000E+000	0.0000000E+000	25.0663	2.13804	64.9337	3.71451e-06	-4.03582e-07	183721
463.961	3.61953	1.98249	4.1269	-28.7104	10.1022	0.272303	-0.00119012	173.032	39.9303	1	10	0.00499086	0.00120935	0	6.39161e-05	0.212522	0.116403	0.242313	28.7104	39930.3	72902.7	83121.8	-61.2896	0.0000000E+000	0.0000000E+000	0.0000000E+000	61.2896	0.0000000E+000	0.0000000E+000	0.0000000E+000	-61.2896	0.0000000E+000	0.0000000E+000	0.0000000E+000	-28.7104	0.0000000E+000	0.0000000E+000	0.0000000E+000	28.7104	1.82575	61.2896	-3.65286e-08	-3.24074e-07	228803
215.345	4.59223	2.88975	5.42579	-32.1809	11.0364	0.272302	-0.00162536	255.756	72.5471	1	10	0.00483749	0.000891573	0	6.49169e-05	0.15599	0.0981599	0.184305	32.1809	72547.1	115288	136214	-57.8191	0.0000000E+000	0.0000000E+000	0.0000000E+000	57.8191	0.0000000E+000	0.0000000E+000	0.0000000E+000	-57.8191	0.0000000E+000	0.0000000E+000	0.0000000E+000	-32.1809	0.0000000E+000	0.0000000E+000	0.0000000E+000	32.1809	1.58915	57.8191	4.53399e-07	-4.42589e-07	167533
100.032	6.28039	4.12948	7.51638	-33.3257	11.9677	0.272303	-0.00219639	385.288	116.294	1	10	0.00477145	0.000634807	0	6.33094e-05	0.111165	0.0730934	0.133043	33.3257	116294	176869	211676	-56.6743	0.0000000E+000	0.0000000E+000	0.0000000E+000	56.6743	0.0000000E+000	0.0000000E+000	0.0000000E+000	-56.6743	0.0000000E+000	0.0000000E+000	0.0000000E+000	-33.3257	0.0000000E+000	0.0000000E+000	0.0000000E+000	33.3257	1.52087	56.6743	-9.25789e-07	-5.98083e-07	123978
46.4415	9.01004	5.085	10.3459	-29.4391	12.9016	0.272295	-0.00229497	673.942	162.805	1	10	0.00475049	0.000459166	0	6.20733e-05	0.0841761	0.0475065	0.0966565	29.4391	162805	288471	331241	-60.5609	0.0000000E+000	0.0000000E+000	0.0000000E+000	60.5609	0.0000000E+000	0.0000000E+000	0.0000000E+000	-60.5609	0.0000000E+000	0.0000000E+000	0.0000000E+000	-29.4391	0.0000000E+000	0.0000000E+000	0.0000000E+000	29.4391	1.77188	60.5609	-5.94557e-07	-6.2491e-07	118649
21.5517	12.0976	4.95197	13.0718	-22.2611	13.7873	0.272286	-0.00411032	1491.28	214.015	1	10	0.00473822	0.000362475	0	6.11744e-05	0.0707986	0.0289805	0.0765003	22.2611	214015	522833	564939	-67.7389	0.0000000E+000	0.0000000E+000	0.0000000E+000	67.7389	0.0000000E+000	0.0000000E+000	0.0000000E+000	-67.7389	0.0000000E+000	0.0000000E+000	0.0000000E+000	-22.2611	0.0000000E+000	0.0000000E+000	0.0000000E+000	22.2611	2.44298	67.7389	-6.39333e-07	-1.11918e-06	66244.6
10.0032	14.5974	4.11182	15.1655	-15.7315	14.9927	0.2723	-0.00409811	3869.43	284.449	1	11	0.00474048	0.000312584	0	5.86214e-05	0.0634694	0.0178782	0.0659393	15.7315	284449	1.00982e+06	1.04912e+06	-74.2684	0.0000000E+000	0.0000000E+000	0.0000000E+000	74.2684	0.0000000E+000	0.0000000E+000	0.0000000E+000	-74.2684	0.0000000E+000	0.0000000E+000	0.0000000E+000	-15.7315	0.0000000E+000	0.0000000E+000	0.0000000E+000	15.7315	3.55011	74.2684	7.32659e-07	-1.11592e-06	66445.4
4.63925	16.3515	3.19076	16.6599	-11.0417	15.8523	0.272302	-0.00338807	10751.7	394.384	1	11	0.00474154	0.000284607	0	5.99811e-05	0.0589131	0.011496	0.0600242	11.0417	394384	2.02108e+06	2.0592e+06	-78.9583	0.0000000E+000	0.0000000E+000	0.0000000E+000	78.9583	0.0000000E+000	0.0000000E+000	0.0000000E+000	-78.9583	0.0000000E+000	0.0000000E+000	0.0000000E+000	-11.0417	0.0000000E+000	0.0000000E+000	0.0000000E+000	11.0417	5.12465	78.9583	1.92815e-06	-9.22577e-07	80370.9
2.15577	17.6108	2.50176	17.7876	-8.08523	17.5768	0.272309	-0.00270706	29510.2	583.751	1	11	0.00474101	0.000266534	0	5.11212e-05	0.05566	0.00790695	0.0562188	8.08523	583751	4.10924e+06	4.1505e+06	-81.9148	0.0000000E+000	0.0000000E+000	0.0000000E+000	81.9148	0.0000000E+000	0.0000000E+000	0.0000000E+000	-81.9148	0.0000000E+000	0.0000000E+000	0.0000000E+000	-8.08523	0.0000000E+000	0.0000000E+000	0.0000000E+000	8.08523	7.03937	81.9148	-3.8934e-06	-7.37155e-07	100592
1.00006	18.5577	2.05134	18.6708	-6.30776	22.2403	0.272309	-0.00292653	77580.9	936.494	1	12	0.0047448	0.00025413	0	6.0711e-05	0.0532354	0.00588454	0.0535596	6.30776	936494	8.47213e+06	8.52373e+06	-83.6922	0.0000000E+000	0.0000000E+000	0.0000000E+000	83.6922	0.0000000E+000	0.0000000E+000	0.0000000E+000	-83.6922	0.0000000E+000	0.0000000E+000	0.0000000E+000	-6.30776	0.0000000E+000	0.0000000E+000	0.0000000E+000	6.30776	9.04665	83.6922	7.24259e-06	-7.96919e-07	93048.2
0.464091	19.304	1.84314	19.3918	-5.45404	29.9256	0.272315	-0.00125005	186063	1680.88	1	12	0.00474388	0.000244633	0	6.04466e-05	0.0513347	0.00490141	0.0515681	5.45404	1.68088e+06	1.76047e+07	1.76847e+07	-84.546	0.0000000E+000	0.0000000E+000	0.0000000E+000	84.546	0.0000000E+000	0.0000000E+000	0.0000000E+000	-84.546	0.0000000E+000	0.0000000E+000	0.0000000E+000	-5.45404	0.0000000E+000	0.0000000E+000	0.0000000E+000	5.45404	10.4735	84.546	-5.15965e-06	-3.40408e-07	217843
0.215268	19.906	1.95675	20.002	-5.61411	46.4039	0.272324	-0.000581719	377838	3616.03	1	12	0.00474051	0.000237002	0	6.36905e-06	0.0497553	0.00489092	0.0499951	5.61411	3.61603e+06	3.67858e+07	3.69631e+07	-84.3859	0.0000000E+000	0.0000000E+000	0.0000000E+000	84.3859	0.0000000E+000	0.0000000E+000	0.0000000E+000	-84.3859	0.0000000E+000	0.0000000E+000	0.0000000E+000	-5.61411	0.0000000E+000	0.0000000E+000	0.0000000E+000	5.61411	10.173	84.3859	-3.38608e-05	-1.58416e-07	468136
0.0999041	20.6187	2.56155	20.7772	-7.08182	81.8111	0.272309	-0.00263251	621920	9452.92	1	12	0.00473525	0.000227906	0	-5.42464e-05	0.0477626	0.00593375	0.0481297	7.08182	9.45292e+06	7.60894e+07	7.66744e+07	-82.9182	0.0000000E+000	0.0000000E+000	0.0000000E+000	82.9182	0.0000000E+000	0.0000000E+000	0.0000000E+000	-82.9182	0.0000000E+000	0.0000000E+000	0.0000000E+000	-7.08182	0.0000000E+000	0.0000000E+000	0.0000000E+000	7.08182	8.04931	82.9182	-2.21832e-05	-7.16857e-07	103441
0.0464052	21.4494	3.94696	21.8095	-10.4265	158.048	0.272305	-0.002509	868941	28459.4	1	12	0.00474265	0.000217458	0	4.83716e-05	0.0450945	0.00829798	0.0458516	10.4265	2.84594e+07	1.5466e+08	1.57256e+08	-79.5735	0.0000000E+000	0.0000000E+000	0.0000000E+000	79.5735	0.0000000E+000	0.0000000E+000	0.0000000E+000	-79.5735	0.0000000E+000	0.0000000E+000	0.0000000E+000	-10.4265	0.0000000E+000	0.0000000E+000	0.0000000E+000	10.4265	5.43439	79.5735	8.79855e-05	-6.83215e-07	108531
0.0215268	23.1067	6.32495	23.9567	-15.3085	322.277	0.272306	0.000203112	1.16892e+06	81478.8	1	12	0.00474512	0.000198071	0	0.00035518	0.0402609	0.0110206	0.041742	15.3085	8.14788e+07	2.97663e+08	3.08613e+08	-74.6915	0.0000000E+000	0.0000000E+000	0.0000000E+000	74.6915	0.0000000E+000	0.0000000E+000	0.0000000E+000	-74.6915	0.0000000E+000	0.0000000E+000	0.0000000E+000	-15.3085	0.0000000E+000	0.0000000E+000	0.0000000E+000	15.3085	3.65326	74.6915	0.00014867	5.53086e-08	1.34067e+06
0.0146812	24.1418	8.22868	25.5057	-18.8215	465.472	0.272308	0.000639968	1.31744e+06	137125	1	12	0.00474227	0.00018593	0	0.000350994	0.0371105	0.012649	0.039207	18.8215	1.37125e+08	4.02306e+08	4.25033e+08	-71.1785	0.0000000E+000	0.0000000E+000	0.0000000E+000	71.1785	0.0000000E+000	0.0000000E+000	0.0000000E+000	-71.1785	0.0000000E+000	0.0000000E+000	0.0000000E+000	-18.8215	0.0000000E+000	0.0000000E+000	0.0000000E+000	18.8215	2.93386	71.1785	-4.18567e-06	1.74268e-07	425502

0.0100092	25.2382	10.5121	27.3399	-22.6125	675.493	0.272314	0.000206001	1.51263e+06	223623	1	12	0.00474379	0.000173511	0	2.0008e-05	0.0337648	0.0140636	0.0365766	22.6125	2.23623e+08	5.36891e+08	5.81601e+08	-67.3875	0.0000000E+000	0.0000000E+000	0.0000000E+000	67.3875	0.0000000E+000	0.0000000E+000	0.0000000E+000	-67.3875	0.0000000E+000	0.0000000E+000	0.0000000E+000	-22.6125	0.0000000E+000	0.0000000E+000	0.0000000E+000	22.6125	2.40087	67.3875	-0.000330986	5.6097e-08	1.3219e+06