File: txt/17715_R287_UA663_SOC00_C05.mpt
EC-Lab ASCII FILE

Nb header lines : 63

Potentio Electrochemical Impedance Spectroscopy

Run on channel : 5 (SN 65912)
User :
CE vs. WE compliance from -10 V to 10 V
Electrode connection : standard
Potential control : Ewe
Ewe ctrl range : min = -10.00 V, max = 10.00 V
Safety Limits :
	Do not start on E overload
Acquisition started on : 09/22/2025 10:25:27.551
Loaded Setting File :  C:\Users\Celltest\OneDrive - store-dot.com\Documents\EC-Lab\Data\Gyutae\17740_R277_UA674_SOC00_C04.mpr
Saved on :
	File : 17715_R287_UA663_SOC00_C05.mpr
	Directory : C:\Users\Celltest\OneDrive - store-dot.com\Documents\EC-Lab\Data\Charmaine\
	Host : 169.254.61.224
Device : VMP-3e (SN .003165)
Address : USB
EC-LAB for windows v11.62 (software)
Internet server v27.00 (firmware)
Command interpretor v12.03 (firmware)
Electrode material :
Initial state :
Electrolyte :
Comments :
Electrode surface area : 0.001 cm²
Characteristic mass : 0.001 g
Equivalent Weight : 0.000 g/eq.
Density : 0.000 g/cm3
Volume (V) : 0.001 cm³
Cycle Definition : Charge/Discharge alternance
Mode                Single sine
E (V)               0.0000
vs.                 Eoc
tE (h:m:s)          0:00:0.0000
record              0
dI                  0.000
unit dI             mA
dt (s)              0.000
fi                  100.000
unit fi             kHz
ff                  10.000
unit ff             mHz
Nd                  6
Points              per decade
spacing             Logarithmic
Va (mV)             5.0
pw                  0.10
Na                  2
corr                0
E range min (V)     -10.000
E range max (V)     10.000
I Range             Auto
Bandwidth           5
nc cycles           0
goto Ns'            0
nr cycles           0
inc. cycle          0

freq/Hz	Re(Z)/Ohm	-Im(Z)/Ohm	|Z|/Ohm	Phase(Z)/deg	time/s	<Ewe>/V	<I>/mA	Cs/µF	Cp/µF	cycle number	I Range	|Ewe|/V	|I|/A	Ns	(Q-Qo)/mA.h	Re(Y)/Ohm-1	Im(Y)/Ohm-1	|Y|/Ohm-1	Phase(Y)/deg	Re(C)/nF	Im(C)/nF	|C|/nF	Phase(C)/deg	Re(M)	Im(M)	|M|	Phase(M)/deg	Re(Permittivity)	Im(Permittivity)	|Permittivity|	Phase(Permittivity)/deg	Re(Resistivity)/Ohm.cm	Im(Resistivity)/Ohm.cm	|Resistivity|/Ohm.cm	Phase(Resistivity)/deg	Re(Conductivity)/mS/cm	Im(Conductivity)/mS/cm	|Conductivity|/mS/cm	Phase(Conductivity)/deg	Tan(Delta)	Loss Angle(Delta)/deg	dq/mA.h	Pwe/W	Rwe/Ohm
100004	1.03561	0.217286	1.05816	-11.8496	1.86449	0.265116	-0.019591	7.32441	0.30884	1	9	0.00474683	0.00448593	0	-9.36499e-06	0.924899	0.194057	0.945038	11.8496	308.84	1471.97	1504.02	-78.1504	0.0000000E+000	0.0000000E+000	0.0000000E+000	78.1504	0.0000000E+000	0.0000000E+000	0.0000000E+000	-78.1504	0.0000000E+000	0.0000000E+000	0.0000000E+000	-11.8496	0.0000000E+000	0.0000000E+000	0.0000000E+000	11.8496	4.76612	78.1504	-9.36499e-06	-5.1939e-06	13532.6
46420.4	1.14984	0.257295	1.17828	-12.6131	3.02049	0.265092	-0.0176359	13.3254	0.635402	1	9	0.00501811	0.00425885	0	-1.21793e-05	0.828215	0.185326	0.848697	12.6131	635.402	2839.58	2909.81	-77.3869	0.0000000E+000	0.0000000E+000	0.0000000E+000	77.3869	0.0000000E+000	0.0000000E+000	0.0000000E+000	-77.3869	0.0000000E+000	0.0000000E+000	0.0000000E+000	-12.6131	0.0000000E+000	0.0000000E+000	0.0000000E+000	12.6131	4.46896	77.3869	-1.83043e-06	-4.67513e-06	15031.3
21544.7	1.27523	0.319937	1.31475	-14.084	4.0355	0.265092	-0.020522	23.0895	1.36728	1	9	0.00535134	0.00407023	0	-1.57697e-05	0.737735	0.185087	0.760599	14.084	1367.28	5449.8	5618.7	-75.916	0.0000000E+000	0.0000000E+000	0.0000000E+000	75.916	0.0000000E+000	0.0000000E+000	0.0000000E+000	-75.916	0.0000000E+000	0.0000000E+000	0.0000000E+000	-14.084	0.0000000E+000	0.0000000E+000	0.0000000E+000	14.084	3.98588	75.916	3.75638e-06	-5.44022e-06	12917.4
10002.2	1.41475	0.409444	1.47281	-16.141	4.62848	0.265089	-0.0203358	38.8624	3.00348	1	9	0.00495739	0.00336594	0	-1.93115e-05	0.65221	0.188756	0.678975	16.141	3003.48	10377.9	10803.8	-73.859	0.0000000E+000	0.0000000E+000	0.0000000E+000	73.859	0.0000000E+000	0.0000000E+000	0.0000000E+000	-73.859	0.0000000E+000	0.0000000E+000	0.0000000E+000	-16.141	0.0000000E+000	0.0000000E+000	0.0000000E+000	16.141	3.4553	73.859	1.01201e-07	-5.39081e-06	13035.6
4641.49	1.59387	0.558858	1.689	-19.3222	5.47767	0.265067	-0.00229315	61.3566	6.71744	1	9	0.00458597	0.0027152	0	-3.16481e-05	0.558716	0.195903	0.592065	19.3222	6717.44	19158.2	20301.7	-70.6778	0.0000000E+000	0.0000000E+000	0.0000000E+000	70.6778	0.0000000E+000	0.0000000E+000	0.0000000E+000	-70.6778	0.0000000E+000	0.0000000E+000	0.0000000E+000	-19.3222	0.0000000E+000	0.0000000E+000	0.0000000E+000	19.3222	2.852	70.6778	-2.90002e-07	-6.07839e-07	115591
2155.69	1.82106	0.815554	1.99534	-24.125	6.63468	0.265064	-0.00521647	90.5277	15.1235	1	9	0.00497374	0.00249268	0	-3.52281e-05	0.457394	0.204842	0.501168	24.125	15123.5	33769.4	37001.3	-65.875	0.0000000E+000	0.0000000E+000	0.0000000E+000	65.875	0.0000000E+000	0.0000000E+000	0.0000000E+000	-65.875	0.0000000E+000	0.0000000E+000	0.0000000E+000	-24.125	0.0000000E+000	0.0000000E+000	0.0000000E+000	24.125	2.23291	65.875	-1.83807e-06	-1.3827e-06	50812.9
1000.32	2.16212	1.26159	2.50327	-30.2634	7.57169	0.265066	-0.0114914	126.114	32.032	1	9	0.00491306	0.00196266	0	-3.80438e-05	0.345036	0.201327	0.399478	30.2634	32032	54896.6	63558.5	-59.7366	0.0000000E+000	0.0000000E+000	0.0000000E+000	59.7366	0.0000000E+000	0.0000000E+000	0.0000000E+000	-59.7366	0.0000000E+000	0.0000000E+000	0.0000000E+000	-30.2634	0.0000000E+000	0.0000000E+000	0.0000000E+000	30.2634	1.7138	59.7366	-1.9532e-06	-3.04598e-06	23066.5
463.961	2.71622	1.9983	3.3721	-36.3416	8.76018	0.265054	-0.0269578	171.663	60.2835	1	10	0.00496566	0.00147257	0	-4.46539e-05	0.238871	0.175736	0.296551	36.3416	60283.6	81941.3	101728	-53.6584	0.0000000E+000	0.0000000E+000	0.0000000E+000	53.6584	0.0000000E+000	0.0000000E+000	0.0000000E+000	-53.6584	0.0000000E+000	0.0000000E+000	0.0000000E+000	-36.3416	0.0000000E+000	0.0000000E+000	0.0000000E+000	36.3416	1.35926	53.6584	-5.89203e-06	-7.14526e-06	9832.2
215.345	3.71176	3.10731	4.84071	-39.9345	9.69445	0.265057	-0.0269894	237.849	98.0058	1	10	0.00490705	0.0010137	0	-5.01227e-05	0.158402	0.132607	0.206581	39.9345	98005.8	117070	152678	-50.0655	0.0000000E+000	0.0000000E+000	0.0000000E+000	50.0655	0.0000000E+000	0.0000000E+000	0.0000000E+000	-50.0655	0.0000000E+000	0.0000000E+000	0.0000000E+000	-39.9345	0.0000000E+000	0.0000000E+000	0.0000000E+000	39.9345	1.19452	50.0655	-2.38727e-06	-7.15373e-06	9820.77
100.032	5.45304	4.57592	7.11861	-40.0017	10.6257	0.265051	-0.0257756	347.699	143.671	1	10	0.00488747	0.000686576	0	-5.71443e-05	0.107609	0.0902999	0.140477	40.0017	143671	171210	223504	-49.9983	0.0000000E+000	0.0000000E+000	0.0000000E+000	49.9983	0.0000000E+000	0.0000000E+000	0.0000000E+000	-49.9983	0.0000000E+000	0.0000000E+000	0.0000000E+000	-40.0017	0.0000000E+000	0.0000000E+000	0.0000000E+000	40.0017	1.19168	49.9983	-3.59908e-06	-6.83186e-06	10283
46.4415	8.31604	6.04618	10.2817	-36.019	11.5596	0.265053	-0.0279575	566.803	196.005	1	10	0.00488465	0.000475084	0	-6.37194e-05	0.0786664	0.0571944	0.0972605	36.019	196005	269589	333311	-53.981	0.0000000E+000	0.0000000E+000	0.0000000E+000	53.981	0.0000000E+000	0.0000000E+000	0.0000000E+000	-53.981	0.0000000E+000	0.0000000E+000	0.0000000E+000	-36.019	0.0000000E+000	0.0000000E+000	0.0000000E+000	36.019	1.37542	53.981	-3.1835e-06	-7.41024e-06	9480.58
21.5517	12.1036	6.68323	13.8261	-28.9062	12.4453	0.265045	-0.0315394	1104.97	258.18	1	10	0.00487151	0.000352341	0	-6.98353e-05	0.0633158	0.0349611	0.0723268	28.9062	258180	467574	534118	-61.0938	0.0000000E+000	0.0000000E+000	0.0000000E+000	61.0938	0.0000000E+000	0.0000000E+000	0.0000000E+000	-61.0938	0.0000000E+000	0.0000000E+000	0.0000000E+000	-28.9062	0.0000000E+000	0.0000000E+000	0.0000000E+000	28.9062	1.81104	61.0938	-2.68536e-06	-8.35938e-06	8403.61
10.0032	15.9247	6.22313	17.0975	-21.3447	13.6517	0.265079	-0.0166371	2556.66	338.707	1	11	0.00487705	0.000285249	0	-7.95081e-05	0.0544762	0.0212884	0.0584881	21.3447	338707	866738	930568	-68.6553	0.0000000E+000	0.0000000E+000	0.0000000E+000	68.6553	0.0000000E+000	0.0000000E+000	0.0000000E+000	-68.6553	0.0000000E+000	0.0000000E+000	0.0000000E+000	-21.3447	0.0000000E+000	0.0000000E+000	0.0000000E+000	21.3447	2.55896	68.6553	-3.06385e-06	-4.41015e-06	15932.9
4.63925	18.9265	5.22455	19.6344	-15.4318	14.5113	0.265074	-0.0158553	6566.34	464.93	1	11	0.00487576	0.000248328	0	-8.20957e-05	0.0490949	0.0135524	0.0509311	15.4318	464930	1.68426e+06	1.74725e+06	-74.5682	0.0000000E+000	0.0000000E+000	0.0000000E+000	74.5682	0.0000000E+000	0.0000000E+000	0.0000000E+000	-74.5682	0.0000000E+000	0.0000000E+000	0.0000000E+000	-15.4318	0.0000000E+000	0.0000000E+000	0.0000000E+000	15.4318	3.62261	74.5682	-3.43103e-06	-4.20283e-06	16718.4
2.15577	21.2164	4.30581	21.6489	-11.4722	16.2368	0.265083	-0.014725	17146	678.268	1	11	0.00488052	0.00022544	0	-9.10427e-05	0.0452689	0.0091872	0.0461917	11.4722	678268	3.34209e+06	3.41022e+06	-78.5278	0.0000000E+000	0.0000000E+000	0.0000000E+000	78.5278	0.0000000E+000	0.0000000E+000	0.0000000E+000	-78.5278	0.0000000E+000	0.0000000E+000	0.0000000E+000	-11.4722	0.0000000E+000	0.0000000E+000	0.0000000E+000	11.4722	4.92739	78.5278	-2.42627e-06	-3.90334e-06	18002.2
1.00006	22.9657	3.50033	23.2309	-8.66605	20.9002	0.265095	-0.012595	45465.7	1032.21	1	12	0.00488138	0.000210124	0	-9.74503e-05	0.0425546	0.00648596	0.043046	8.66605	1.03221e+06	6.77234e+06	6.85055e+06	-81.3339	0.0000000E+000	0.0000000E+000	0.0000000E+000	81.3339	0.0000000E+000	0.0000000E+000	0.0000000E+000	-81.3339	0.0000000E+000	0.0000000E+000	0.0000000E+000	-8.66605	0.0000000E+000	0.0000000E+000	0.0000000E+000	8.66605	6.56103	81.3339	-6.54485e-06	-3.33885e-06	21047.7
0.464091	24.3484	2.93343	24.5244	-6.86975	28.5849	0.265095	-0.0107138	116907	1672.61	1	12	0.0048801	0.000198989	0	-0.000137009	0.0404829	0.00487728	0.0407756	6.86975	1.67261e+06	1.38832e+07	1.39836e+07	-83.1303	0.0000000E+000	0.0000000E+000	0.0000000E+000	83.1303	0.0000000E+000	0.0000000E+000	0.0000000E+000	-83.1303	0.0000000E+000	0.0000000E+000	0.0000000E+000	-6.86975	0.0000000E+000	0.0000000E+000	0.0000000E+000	6.86975	8.3003	83.1303	-2.60704e-05	-2.84018e-06	24743.4
0.215268	25.5263	2.71286	25.6701	-6.06644	45.065	0.265095	-0.00968309	272530	3043.78	1	12	0.00488083	0.000190137	0	-0.000213766	0.0387377	0.00411692	0.0389559	6.06644	3.04378e+06	2.86401e+07	2.88014e+07	-83.9336	0.0000000E+000	0.0000000E+000	0.0000000E+000	83.9336	0.0000000E+000	0.0000000E+000	0.0000000E+000	-83.9336	0.0000000E+000	0.0000000E+000	0.0000000E+000	-6.06644	0.0000000E+000	0.0000000E+000	0.0000000E+000	6.06644	9.40939	83.9336	-4.00539e-05	-2.56694e-06	27377.1
0.0999041	26.5014	3.11087	26.6834	-6.69503	80.4715	0.265094	-0.00812515	512100	6960.44	1	12	0.00488175	0.000182951	0	-0.000258327	0.0372209	0.00436918	0.0374765	6.69503	6.96044e+06	5.92958e+07	5.97029e+07	-83.305	0.0000000E+000	0.0000000E+000	0.0000000E+000	83.305	0.0000000E+000	0.0000000E+000	0.0000000E+000	-83.305	0.0000000E+000	0.0000000E+000	0.0000000E+000	-6.69503	0.0000000E+000	0.0000000E+000	0.0000000E+000	6.69503	8.51897	83.305	-1.22936e-05	-2.15393e-06	32626.3
0.0464052	27.607	4.16362	27.9192	-8.57658	156.708	0.265088	-0.00417953	823726	18319.8	1	12	0.0048782	0.000174726	0	-0.000212638	0.0354172	0.00534154	0.0358177	8.57658	1.83198e+07	1.2147e+08	1.22843e+08	-81.4234	0.0000000E+000	0.0000000E+000	0.0000000E+000	81.4234	0.0000000E+000	0.0000000E+000	0.0000000E+000	-81.4234	0.0000000E+000	0.0000000E+000	0.0000000E+000	-8.57658	0.0000000E+000	0.0000000E+000	0.0000000E+000	8.57658	6.63052	81.4234	3.58685e-05	-1.10794e-06	63425.3
0.0215268	29.261	6.66263	30.0099	-12.8274	320.936	0.265093	-0.000591548	1.10967e+06	54696.1	1	12	0.00488071	0.000162636	0	-0.000280949	0.0324907	0.00739801	0.0333223	12.8274	5.46961e+07	2.40215e+08	2.46363e+08	-77.1726	0.0000000E+000	0.0000000E+000	0.0000000E+000	77.1726	0.0000000E+000	0.0000000E+000	0.0000000E+000	-77.1726	0.0000000E+000	0.0000000E+000	0.0000000E+000	-12.8274	0.0000000E+000	0.0000000E+000	0.0000000E+000	12.8274	4.39181	77.1726	-8.2867e-05	-1.56815e-07	448134
0.0146812	30.2394	8.45455	31.3991	-15.6203	464.131	0.265093	-0.000491773	1.28224e+06	92964.1	1	12	0.00487797	0.000155354	0	-0.000546773	0.0306718	0.00857543	0.0318481	15.6203	9.29641e+07	3.32505e+08	3.45257e+08	-74.3797	0.0000000E+000	0.0000000E+000	0.0000000E+000	74.3797	0.0000000E+000	0.0000000E+000	0.0000000E+000	-74.3797	0.0000000E+000	0.0000000E+000	0.0000000E+000	-15.6203	0.0000000E+000	0.0000000E+000	0.0000000E+000	15.6203	3.57671	74.3797	-0.000265824	-1.30366e-07	539056

0.0100092	31.6569	10.6517	33.4009	-18.5967	674.151	0.26509	-0.00108674	1.4928e+06	151818	1	12	0.00487934	0.000146084	0	-0.00102405	0.0283761	0.00954778	0.0299393	18.5967	1.51818e+08	4.51206e+08	4.76062e+08	-71.4033	0.0000000E+000	0.0000000E+000	0.0000000E+000	71.4033	0.0000000E+000	0.0000000E+000	0.0000000E+000	-71.4033	0.0000000E+000	0.0000000E+000	0.0000000E+000	-18.5967	0.0000000E+000	0.0000000E+000	0.0000000E+000	18.5967	2.97201	71.4033	-0.000477274	-2.88084e-07	243932