File: txt/17714_R287_UA663_SOC00_C04.mpt
EC-Lab ASCII FILE

Nb header lines : 63

Potentio Electrochemical Impedance Spectroscopy

Run on channel : 4 (SN 66756)
User :
CE vs. WE compliance from -10 V to 10 V
Electrode connection : standard
Potential control : Ewe
Ewe ctrl range : min = -10.00 V, max = 10.00 V
Safety Limits :
	Do not start on E overload
Acquisition started on : 09/22/2025 10:25:21.346
Loaded Setting File :  C:\Users\Celltest\OneDrive - store-dot.com\Documents\EC-Lab\Data\Gyutae\17739_R277_UA674_SOC00_C03.mpr
Saved on :
	File : 17714_R287_UA663_SOC00_C04.mpr
	Directory : C:\Users\Celltest\OneDrive - store-dot.com\Documents\EC-Lab\Data\Charmaine\
	Host : 169.254.61.224
Device : VMP-3e (SN .003165)
Address : USB
EC-LAB for windows v11.62 (software)
Internet server v27.00 (firmware)
Command interpretor v12.03 (firmware)
Electrode material :
Initial state :
Electrolyte :
Comments :
Electrode surface area : 0.001 cm²
Characteristic mass : 0.001 g
Equivalent Weight : 0.000 g/eq.
Density : 0.000 g/cm3
Volume (V) : 0.001 cm³
Cycle Definition : Charge/Discharge alternance
Mode                Single sine
E (V)               0.0000
vs.                 Eoc
tE (h:m:s)          0:00:0.0000
record              0
dI                  0.000
unit dI             mA
dt (s)              0.000
fi                  100.000
unit fi             kHz
ff                  10.000
unit ff             mHz
Nd                  6
Points              per decade
spacing             Logarithmic
Va (mV)             5.0
pw                  0.10
Na                  2
corr                0
E range min (V)     -10.000
E range max (V)     10.000
I Range             Auto
Bandwidth           5
nc cycles           0
goto Ns'            0
nr cycles           0
inc. cycle          0

freq/Hz	Re(Z)/Ohm	-Im(Z)/Ohm	|Z|/Ohm	Phase(Z)/deg	time/s	<Ewe>/V	<I>/mA	Cs/µF	Cp/µF	cycle number	I Range	|Ewe|/V	|I|/A	Ns	(Q-Qo)/mA.h	Re(Y)/Ohm-1	Im(Y)/Ohm-1	|Y|/Ohm-1	Phase(Y)/deg	Re(C)/nF	Im(C)/nF	|C|/nF	Phase(C)/deg	Re(M)	Im(M)	|M|	Phase(M)/deg	Re(Permittivity)	Im(Permittivity)	|Permittivity|	Phase(Permittivity)/deg	Re(Resistivity)/Ohm.cm	Im(Resistivity)/Ohm.cm	|Resistivity|/Ohm.cm	Phase(Resistivity)/deg	Re(Conductivity)/mS/cm	Im(Conductivity)/mS/cm	|Conductivity|/mS/cm	Phase(Conductivity)/deg	Tan(Delta)	Loss Angle(Delta)/deg	dq/mA.h	Pwe/W	Rwe/Ohm
100004	1.18226	0.222776	1.20307	-10.6712	2.06648	0.279269	-0.0194358	7.1439	0.244957	1	9	0.00460826	0.00383042	0	-9.72625e-06	0.816831	0.153917	0.831206	10.6712	244.957	1299.98	1322.86	-79.3288	0.0000000E+000	0.0000000E+000	0.0000000E+000	79.3288	0.0000000E+000	0.0000000E+000	0.0000000E+000	-79.3288	0.0000000E+000	0.0000000E+000	0.0000000E+000	-10.6712	0.0000000E+000	0.0000000E+000	0.0000000E+000	10.6712	5.30697	79.3288	-9.72625e-06	-5.42782e-06	14368.8
46420.4	1.29413	0.268196	1.32163	-11.7083	3.08149	0.279267	-0.0120323	12.7838	0.526436	1	9	0.00506157	0.0038298	0	-2.33797e-05	0.7409	0.153544	0.756643	11.7083	526.436	2540.22	2594.2	-78.2917	0.0000000E+000	0.0000000E+000	0.0000000E+000	78.2917	0.0000000E+000	0.0000000E+000	0.0000000E+000	-78.2917	0.0000000E+000	0.0000000E+000	0.0000000E+000	-11.7083	0.0000000E+000	0.0000000E+000	0.0000000E+000	11.7083	4.82532	78.2917	-1.52993e-05	-3.36023e-06	23209.8
21544.7	1.42584	0.343533	1.46664	-13.5463	4.09649	0.279266	-0.018578	21.5036	1.17978	1	9	0.00528525	0.00360364	0	-2.91557e-05	0.662863	0.159706	0.68183	13.5463	1179.78	4896.7	5036.82	-76.4537	0.0000000E+000	0.0000000E+000	0.0000000E+000	76.4537	0.0000000E+000	0.0000000E+000	0.0000000E+000	-76.4537	0.0000000E+000	0.0000000E+000	0.0000000E+000	-13.5463	0.0000000E+000	0.0000000E+000	0.0000000E+000	13.5463	4.15052	76.4537	-3.94546e-07	-5.1882e-06	15032.1
10002.2	1.57714	0.440364	1.63747	-15.6006	4.6885	0.27926	-0.0231096	36.1336	2.61331	1	9	0.00465831	0.00284483	0	-3.27938e-05	0.588202	0.164236	0.6107	15.6006	2613.31	9359.43	9717.43	-74.3994	0.0000000E+000	0.0000000E+000	0.0000000E+000	74.3994	0.0000000E+000	0.0000000E+000	0.0000000E+000	-74.3994	0.0000000E+000	0.0000000E+000	0.0000000E+000	-15.6006	0.0000000E+000	0.0000000E+000	0.0000000E+000	15.6006	3.58145	74.3994	-3.46244e-06	-6.45359e-06	12084.1
4641.49	1.76934	0.610672	1.87176	-19.0417	5.71467	0.279239	-0.00157044	56.1507	5.97684	1	9	0.00482433	0.00257743	0	-4.82504e-05	0.505023	0.174304	0.534257	19.0417	5976.84	17317.1	18319.5	-70.9583	0.0000000E+000	0.0000000E+000	0.0000000E+000	70.9583	0.0000000E+000	0.0000000E+000	0.0000000E+000	-70.9583	0.0000000E+000	0.0000000E+000	0.0000000E+000	-19.0417	0.0000000E+000	0.0000000E+000	0.0000000E+000	19.0417	2.89736	70.9583	-2.83578e-06	-4.38528e-07	177809
2155.69	2.01939	0.894726	2.20872	-23.8966	6.64767	0.279242	-0.00350991	82.5171	13.5407	1	9	0.00470282	0.0021292	0	-5.05208e-05	0.413939	0.183403	0.45275	23.8966	13540.7	30561.2	33426.6	-66.1034	0.0000000E+000	0.0000000E+000	0.0000000E+000	66.1034	0.0000000E+000	0.0000000E+000	0.0000000E+000	-66.1034	0.0000000E+000	0.0000000E+000	0.0000000E+000	-23.8966	0.0000000E+000	0.0000000E+000	0.0000000E+000	23.8966	2.25699	66.1034	-1.85984e-06	-9.80114e-07	79558.1
1000.32	2.38965	1.38598	2.7625	-30.1134	7.5837	0.279241	-0.00414398	114.795	28.8958	1	9	0.00465323	0.00168443	0	-5.3785e-05	0.313135	0.181616	0.361991	30.1134	28895.8	49821	57594.3	-59.8866	0.0000000E+000	0.0000000E+000	0.0000000E+000	59.8866	0.0000000E+000	0.0000000E+000	0.0000000E+000	-59.8866	0.0000000E+000	0.0000000E+000	0.0000000E+000	-30.1134	0.0000000E+000	0.0000000E+000	0.0000000E+000	30.1134	1.72416	59.8866	-8.85623e-07	-1.15717e-06	67384.7
463.961	3.00191	2.20301	3.72354	-36.2738	8.77222	0.279234	-0.0172841	155.712	54.5059	1	10	0.00469461	0.00126079	0	-5.85653e-05	0.216514	0.158893	0.268562	36.2738	54505.9	74272	92126.2	-53.7262	0.0000000E+000	0.0000000E+000	0.0000000E+000	53.7262	0.0000000E+000	0.0000000E+000	0.0000000E+000	-53.7262	0.0000000E+000	0.0000000E+000	0.0000000E+000	-36.2738	0.0000000E+000	0.0000000E+000	0.0000000E+000	36.2738	1.36264	53.7262	-1.46121e-06	-4.82632e-06	16155.5
215.345	4.05822	3.44882	5.32574	-40.3591	9.70643	0.279232	-0.0180209	214.297	89.8664	1	10	0.00464695	0.000872545	0	-6.26911e-05	0.143079	0.121594	0.187767	40.3591	89866.4	105745	138773	-49.6409	0.0000000E+000	0.0000000E+000	0.0000000E+000	49.6409	0.0000000E+000	0.0000000E+000	0.0000000E+000	-49.6409	0.0000000E+000	0.0000000E+000	0.0000000E+000	-40.3591	0.0000000E+000	0.0000000E+000	0.0000000E+000	40.3591	1.1767	49.6409	-2.45387e-06	-5.032e-06	15494.9
100.032	5.92601	5.19377	7.8799	-41.2325	10.6377	0.279249	-0.0180153	306.336	133.083	1	10	0.00463319	0.000587976	0	-6.72124e-05	0.095438	0.0836452	0.126905	41.2325	133083	151846	201911	-48.7675	0.0000000E+000	0.0000000E+000	0.0000000E+000	48.7675	0.0000000E+000	0.0000000E+000	0.0000000E+000	-48.7675	0.0000000E+000	0.0000000E+000	0.0000000E+000	-41.2325	0.0000000E+000	0.0000000E+000	0.0000000E+000	41.2325	1.14099	48.7675	-2.22143e-06	-5.03074e-06	15500.7
46.4415	9.10134	7.12664	11.5596	-38.0621	11.5716	0.279244	-0.0197815	480.871	182.775	1	10	0.00462483	0.000400087	0	-7.16882e-05	0.0681119	0.0533338	0.0865085	38.0621	182775	233419	296464	-51.9379	0.0000000E+000	0.0000000E+000	0.0000000E+000	51.9379	0.0000000E+000	0.0000000E+000	0.0000000E+000	-51.9379	0.0000000E+000	0.0000000E+000	0.0000000E+000	-38.0621	0.0000000E+000	0.0000000E+000	0.0000000E+000	38.0621	1.27709	51.9379	-2.58473e-06	-5.52386e-06	14116.4
21.5517	13.7538	8.27895	16.0533	-31.0453	12.6984	0.279254	-0.00652181	891.996	237.238	1	11	0.00462867	0.000288331	0	-7.60221e-05	0.0533696	0.0321252	0.0622924	31.0453	237238	394124	460016	-58.9547	0.0000000E+000	0.0000000E+000	0.0000000E+000	58.9547	0.0000000E+000	0.0000000E+000	0.0000000E+000	-58.9547	0.0000000E+000	0.0000000E+000	0.0000000E+000	-31.0453	0.0000000E+000	0.0000000E+000	0.0000000E+000	31.0453	1.6613	58.9547	-2.00356e-06	-1.82124e-06	42818.5
10.0032	18.5021	7.99148	20.1542	-23.3607	13.6447	0.279269	-0.0055617	1990.92	313.025	1	11	0.0046231	0.000229387	0	-7.8773e-05	0.0455503	0.0196742	0.0496175	23.3607	313025	724723	789435	-66.6393	0.0000000E+000	0.0000000E+000	0.0000000E+000	66.6393	0.0000000E+000	0.0000000E+000	0.0000000E+000	-66.6393	0.0000000E+000	0.0000000E+000	0.0000000E+000	-23.3607	0.0000000E+000	0.0000000E+000	0.0000000E+000	23.3607	2.31522	66.6393	-1.71034e-06	-1.55321e-06	50212.8
4.63925	22.4807	6.9501	23.5305	-17.1795	14.5043	0.279274	-0.00466165	4936.07	430.627	1	11	0.00461831	0.000196269	0	-7.90862e-05	0.040602	0.0125525	0.042498	17.1795	430627	1.3929e+06	1.45794e+06	-72.8205	0.0000000E+000	0.0000000E+000	0.0000000E+000	72.8205	0.0000000E+000	0.0000000E+000	0.0000000E+000	-72.8205	0.0000000E+000	0.0000000E+000	0.0000000E+000	-17.1795	0.0000000E+000	0.0000000E+000	0.0000000E+000	17.1795	3.23458	72.8205	-1.98842e-06	-1.30188e-06	59909
2.15577	25.6239	5.81742	26.276	-12.7911	16.2288	0.279279	-0.00380217	12690.8	622.056	1	11	0.00463175	0.000176273	0	-8.17889e-05	0.0371131	0.00842581	0.0380575	12.7911	622056	2.73997e+06	2.80969e+06	-77.2089	0.0000000E+000	0.0000000E+000	0.0000000E+000	77.2089	0.0000000E+000	0.0000000E+000	0.0000000E+000	-77.2089	0.0000000E+000	0.0000000E+000	0.0000000E+000	-12.7911	0.0000000E+000	0.0000000E+000	0.0000000E+000	12.7911	4.40469	77.2089	6.4572e-07	-1.06186e-06	73452.4
1.00006	28.0575	4.76703	28.4596	-9.64259	20.8921	0.279277	-0.00299904	33384.4	936.66	1	12	0.00463025	0.000162695	0	-7.80584e-05	0.0346411	0.00588559	0.0351375	9.64259	936660	5.51294e+06	5.59195e+06	-80.3574	0.0000000E+000	0.0000000E+000	0.0000000E+000	80.3574	0.0000000E+000	0.0000000E+000	0.0000000E+000	-80.3574	0.0000000E+000	0.0000000E+000	0.0000000E+000	-9.64259	0.0000000E+000	0.0000000E+000	0.0000000E+000	9.64259	5.88575	80.3574	5.51679e-07	-8.3756e-07	93122.1
0.464091	29.996	3.96694	30.2571	-7.5336	28.5769	0.279279	-0.00231467	86449.3	1485.99	1	12	0.00462813	0.00015296	0	-9.61815e-05	0.0327648	0.00433311	0.03305	7.5336	1.48599e+06	1.12363e+07	1.13342e+07	-82.4664	0.0000000E+000	0.0000000E+000	0.0000000E+000	82.4664	0.0000000E+000	0.0000000E+000	0.0000000E+000	-82.4664	0.0000000E+000	0.0000000E+000	0.0000000E+000	-7.5336	0.0000000E+000	0.0000000E+000	0.0000000E+000	7.5336	7.56149	82.4664	-1.27293e-05	-6.4644e-07	120656
0.215268	31.5591	3.57472	31.7609	-6.46239	45.0569	0.27928	-0.0025494	206823	2619.98	1	12	0.00462954	0.000145762	0	-0.000129276	0.0312852	0.0035437	0.0314853	6.46239	2.61998e+06	2.31302e+07	2.32782e+07	-83.5376	0.0000000E+000	0.0000000E+000	0.0000000E+000	83.5376	0.0000000E+000	0.0000000E+000	0.0000000E+000	-83.5376	0.0000000E+000	0.0000000E+000	0.0000000E+000	-6.46239	0.0000000E+000	0.0000000E+000	0.0000000E+000	6.46239	8.8284	83.5376	-1.57443e-05	-7.11997e-07	109547
0.0999041	32.8598	3.92618	33.0935	-6.81357	80.4635	0.279279	-0.0027209	405757	5711.14	1	12	0.00463087	0.000139933	0	-0.000119127	0.030004	0.00358497	0.0302174	6.81357	5.71113e+06	4.77987e+07	4.81387e+07	-83.1864	0.0000000E+000	0.0000000E+000	0.0000000E+000	83.1864	0.0000000E+000	0.0000000E+000	0.0000000E+000	-83.1864	0.0000000E+000	0.0000000E+000	0.0000000E+000	-6.81357	0.0000000E+000	0.0000000E+000	0.0000000E+000	6.81357	8.36939	83.1864	1.48037e-05	-7.5989e-07	102642
0.0464052	34.3112	5.04469	34.6801	-8.36412	156.7	0.279279	-0.00128994	679859	14385.6	1	12	0.00462665	0.000133409	0	-3.58203e-05	0.0285283	0.00419444	0.028835	8.36412	1.43856e+07	9.78428e+07	9.88947e+07	-81.6359	0.0000000E+000	0.0000000E+000	0.0000000E+000	81.6359	0.0000000E+000	0.0000000E+000	0.0000000E+000	-81.6359	0.0000000E+000	0.0000000E+000	0.0000000E+000	-8.36412	0.0000000E+000	0.0000000E+000	0.0000000E+000	8.36412	6.80146	81.6359	4.97713e-05	-3.60254e-07	216505
0.0215268	36.3708	7.80785	37.1994	-12.116	320.928	0.279274	0.000314429	946911	41715.7	1	12	0.00462747	0.000124396	0	-6.11548e-05	0.0262833	0.00564233	0.0268821	12.116	4.17157e+07	1.94322e+08	1.98749e+08	-77.884	0.0000000E+000	0.0000000E+000	0.0000000E+000	77.884	0.0000000E+000	0.0000000E+000	0.0000000E+000	-77.884	0.0000000E+000	0.0000000E+000	0.0000000E+000	-12.116	0.0000000E+000	0.0000000E+000	0.0000000E+000	12.116	4.65824	77.884	-5.39352e-05	8.78119e-08	888193
0.0146812	37.5759	9.74195	38.8182	-14.5345	464.123	0.279271	7.85234e-05	1.11279e+06	70086.6	1	12	0.00462626	0.000119178	0	-0.00025163	0.0249367	0.00646511	0.0257611	14.5345	7.00866e+07	2.70332e+08	2.7927e+08	-75.4655	0.0000000E+000	0.0000000E+000	0.0000000E+000	75.4655	0.0000000E+000	0.0000000E+000	0.0000000E+000	-75.4655	0.0000000E+000	0.0000000E+000	0.0000000E+000	-14.5345	0.0000000E+000	0.0000000E+000	0.0000000E+000	14.5345	3.85712	75.4655	-0.000190475	2.19293e-08	3.55653e+06

0.0100092	39.2581	12.1012	41.0809	-17.1317	674.144	0.279275	-0.000445659	1.314e+06	114017	1	12	0.0046274	0.000112641	0	-0.000588872	0.0232622	0.00717048	0.0243422	17.1317	1.14017e+08	3.6989e+08	3.87064e+08	-72.8683	0.0000000E+000	0.0000000E+000	0.0000000E+000	72.8683	0.0000000E+000	0.0000000E+000	0.0000000E+000	-72.8683	0.0000000E+000	0.0000000E+000	0.0000000E+000	-17.1317	0.0000000E+000	0.0000000E+000	0.0000000E+000	17.1317	3.24416	72.8683	-0.000337242	-1.24461e-07	626656