File: txt/17737_R277_UA674_SOC00_C01.mpt
EC-Lab ASCII FILE
Nb header lines : 63

Potentio Electrochemical Impedance Spectroscopy

Run on channel : 1 (SN 66354)
User :
CE vs. WE compliance from -10 V to 10 V
Electrode connection : standard
Potential control : Ewe
Ewe ctrl range : min = -10.00 V, max = 10.00 V
Safety Limits :
	Do not start on E overload
Acquisition started on : 09/22/2025 08:10:49.990
Loaded Setting File :  C:\Users\Celltest\OneDrive - store-dot.com\Documents\EC-Lab\Data\txt_done\14380_R229_UA592_SOC00_C01.mpr
Saved on :
	File : 17737_R277_UA674_SOC00_C01.mpr
	Directory : C:\Users\Celltest\OneDrive - store-dot.com\Documents\EC-Lab\Data\Gyutae\
	Host : 169.254.61.224
Device : VMP-3e (SN .003165)
Address : USB
EC-LAB for windows v11.62 (software)
Internet server v27.00 (firmware)
Command interpretor v12.03 (firmware)
Electrode material :
Initial state :
Electrolyte :
Comments :
Electrode surface area : 0.001 cm²
Characteristic mass : 0.001 g
Equivalent Weight : 0.000 g/eq.
Density : 0.000 g/cm3
Volume (V) : 0.001 cm³
Cycle Definition : Charge/Discharge alternance
Mode                Single sine
E (V)               0.0000
vs.                 Eoc
tE (h:m:s)          0:00:0.0000
record              0
dI                  0.000
unit dI             mA
dt (s)              0.000
fi                  100.000
unit fi             kHz
ff                  10.000
unit ff             mHz
Nd                  6
Points              per decade
spacing             Logarithmic
Va (mV)             5.0
pw                  0.10
Na                  2
corr                0
E range min (V)     -10.000
E range max (V)     10.000
I Range             Auto
Bandwidth           5
nc cycles           0
goto Ns'            0
nr cycles           0
inc. cycle          0

freq/Hz	Re(Z)/Ohm	-Im(Z)/Ohm	|Z|/Ohm	Phase(Z)/deg	time/s	<Ewe>/V	<I>/mA	Cs/µF	Cp/µF	cycle number	I Range	|Ewe|/V	|I|/A	Ns	(Q-Qo)/mA.h	Re(Y)/Ohm-1	Im(Y)/Ohm-1	|Y|/Ohm-1	Phase(Y)/deg	Re(C)/nF	Im(C)/nF	|C|/nF	Phase(C)/deg	Re(M)	Im(M)	|M|	Phase(M)/deg	Re(Permittivity)	Im(Permittivity)	|Permittivity|	Phase(Permittivity)/deg	Re(Resistivity)/Ohm.cm	Im(Resistivity)/Ohm.cm	|Resistivity|/Ohm.cm	Phase(Resistivity)/deg	Re(Conductivity)/mS/cm	Im(Conductivity)/mS/cm	|Conductivity|/mS/cm	Phase(Conductivity)/deg	Tan(Delta)	Loss Angle(Delta)/deg	dq/mA.h	Pwe/W	Rwe/Ohm
100004	1.02147	0.29593	1.06347	-16.1569	1.89249	0.274877	0.0769629	5.37793	0.416431	1	9	0.0048074	0.00452048	0	3.33244e-06	0.903179	0.261661	0.940319	16.1569	416.431	1437.4	1496.51	-73.8431	0.0000000E+000	0.0000000E+000	0.0000000E+000	73.8431	0.0000000E+000	0.0000000E+000	0.0000000E+000	-73.8431	0.0000000E+000	0.0000000E+000	0.0000000E+000	-16.1569	0.0000000E+000	0.0000000E+000	0.0000000E+000	16.1569	3.45172	73.8431	3.33244e-06	2.11554e-05	3571.55
46420.4	1.1725	0.366057	1.22831	-17.3385	2.90748	0.274875	0.0761247	9.36618	0.831849	1	9	0.00504023	0.00410338	0	4.0101e-05	0.777133	0.242624	0.814127	17.3385	831.849	2664.45	2791.28	-72.6615	0.0000000E+000	0.0000000E+000	0.0000000E+000	72.6615	0.0000000E+000	0.0000000E+000	0.0000000E+000	-72.6615	0.0000000E+000	0.0000000E+000	0.0000000E+000	-17.3385	0.0000000E+000	0.0000000E+000	0.0000000E+000	17.3385	3.20304	72.6615	1.77154e-05	2.09248e-05	3610.85
21544.7	1.35822	0.464336	1.4354	-18.8741	3.92348	0.274873	0.077857	15.9092	1.66482	1	9	0.00537241	0.00374279	0	4.7122e-05	0.659211	0.225365	0.696669	18.8741	1664.82	4869.72	5146.44	-71.1259	0.0000000E+000	0.0000000E+000	0.0000000E+000	71.1259	0.0000000E+000	0.0000000E+000	0.0000000E+000	-71.1259	0.0000000E+000	0.0000000E+000	0.0000000E+000	-18.8741	0.0000000E+000	0.0000000E+000	0.0000000E+000	18.8741	2.92508	71.1259	9.05336e-06	2.14008e-05	3530.49
10002.2	1.58195	0.59208	1.68912	-20.5195	4.79748	0.274882	0.0801854	26.8747	3.30206	1	9	0.00497442	0.00294498	0	6.54187e-05	0.554463	0.207521	0.592026	20.5195	3302.06	8822.59	9420.28	-69.4805	0.0000000E+000	0.0000000E+000	0.0000000E+000	69.4805	0.0000000E+000	0.0000000E+000	0.0000000E+000	-69.4805	0.0000000E+000	0.0000000E+000	0.0000000E+000	-20.5195	0.0000000E+000	0.0000000E+000	0.0000000E+000	20.5195	2.67185	69.4805	1.03922e-05	2.20415e-05	3428.08
4641.49	1.88474	0.769712	2.03585	-22.2147	5.8707	0.274842	0.10861	44.5487	6.36792	1	9	0.0050001	0.00245602	0	7.9355e-05	0.454735	0.18571	0.491194	22.2147	6367.92	15592.7	16842.9	-67.7853	0.0000000E+000	0.0000000E+000	0.0000000E+000	67.7853	0.0000000E+000	0.0000000E+000	0.0000000E+000	-67.7853	0.0000000E+000	0.0000000E+000	0.0000000E+000	-22.2147	0.0000000E+000	0.0000000E+000	0.0000000E+000	22.2147	2.44863	67.7853	2.00635e-05	2.98507e-05	2530.53
2155.69	2.28416	0.990052	2.4895	-23.4339	6.8047	0.274882	0.106636	74.572	11.7942	1	9	0.00487587	0.00195858	0	0.000104433	0.368556	0.159748	0.401688	23.4339	11794.2	27210.6	29656.7	-66.5661	0.0000000E+000	0.0000000E+000	0.0000000E+000	66.5661	0.0000000E+000	0.0000000E+000	0.0000000E+000	-66.5661	0.0000000E+000	0.0000000E+000	0.0000000E+000	-23.4339	0.0000000E+000	0.0000000E+000	0.0000000E+000	23.4339	2.30711	66.5661	1.35562e-05	2.93123e-05	2577.76
1000.32	2.8023	1.26831	3.07595	-24.3513	7.74167	0.274842	0.107325	125.446	21.3278	1	9	0.00482749	0.00156943	0	0.000129552	0.296179	0.13405	0.325102	24.3513	21327.8	47123.3	51725.1	-65.6487	0.0000000E+000	0.0000000E+000	0.0000000E+000	65.6487	0.0000000E+000	0.0000000E+000	0.0000000E+000	-65.6487	0.0000000E+000	0.0000000E+000	0.0000000E+000	-24.3513	0.0000000E+000	0.0000000E+000	0.0000000E+000	24.3513	2.20948	65.6487	1.30024e-05	2.94975e-05	2560.84
463.961	3.50156	1.57683	3.84022	-24.243	8.93022	0.274829	-0.019442	217.548	36.6783	1	10	0.00485604	0.00126452	0	0.000131938	0.237437	0.106923	0.260402	24.243	36678.3	81449.4	89326.9	-65.757	0.0000000E+000	0.0000000E+000	0.0000000E+000	65.757	0.0000000E+000	0.0000000E+000	0.0000000E+000	-65.757	0.0000000E+000	0.0000000E+000	0.0000000E+000	-24.243	0.0000000E+000	0.0000000E+000	0.0000000E+000	24.243	2.22064	65.757	-1.65918e-06	-5.34322e-06	14135.8
215.345	4.40399	1.85779	4.7798	-22.8721	9.86445	0.274828	-0.0184879	397.823	60.0984	1	10	0.0048293	0.00101036	0	0.000127281	0.192764	0.0813161	0.209214	22.8721	60098.4	142466	154624	-67.1279	0.0000000E+000	0.0000000E+000	0.0000000E+000	67.1279	0.0000000E+000	0.0000000E+000	0.0000000E+000	-67.1279	0.0000000E+000	0.0000000E+000	0.0000000E+000	-22.8721	0.0000000E+000	0.0000000E+000	0.0000000E+000	22.8721	2.37055	67.1279	-2.8186e-06	-5.08101e-06	14865.3
100.032	5.48553	1.99286	5.83631	-19.9658	10.7957	0.27483	-0.0187022	798.37	93.0852	1	10	0.00481015	0.000824176	0	0.000122866	0.161043	0.0585059	0.171341	19.9658	93085.2	256226	272610	-70.0342	0.0000000E+000	0.0000000E+000	0.0000000E+000	70.0342	0.0000000E+000	0.0000000E+000	0.0000000E+000	-70.0342	0.0000000E+000	0.0000000E+000	0.0000000E+000	-19.9658	0.0000000E+000	0.0000000E+000	0.0000000E+000	19.9658	2.75259	70.0342	-2.15081e-06	-5.13993e-06	14695
46.4415	6.61319	1.833	6.86252	-15.4919	11.7315	0.274834	-0.0204558	1869.61	133.385	1	10	0.00481476	0.000701602	0	0.000118389	0.140425	0.0389219	0.145719	15.4919	133385	481235	499378	-74.5081	0.0000000E+000	0.0000000E+000	0.0000000E+000	74.5081	0.0000000E+000	0.0000000E+000	0.0000000E+000	-74.5081	0.0000000E+000	0.0000000E+000	0.0000000E+000	-15.4919	0.0000000E+000	0.0000000E+000	0.0000000E+000	15.4919	3.60786	74.5081	-2.7422e-06	-5.62194e-06	13435.5
21.5517	7.4809	1.48802	7.62745	-11.2498	12.6163	0.274828	-0.023441	4962.84	188.88	1	10	0.00480719	0.000630249	0	0.000111396	0.128586	0.0255769	0.131105	11.2498	188880	949583	968186	-78.7502	0.0000000E+000	0.0000000E+000	0.0000000E+000	78.7502	0.0000000E+000	0.0000000E+000	0.0000000E+000	-78.7502	0.0000000E+000	0.0000000E+000	0.0000000E+000	-11.2498	0.0000000E+000	0.0000000E+000	0.0000000E+000	11.2498	5.02743	78.7502	-4.48769e-06	-6.44225e-06	11724.2
10.0032	8.11333	1.10542	8.18829	-7.75866	13.5627	0.274843	-0.0176214	14393	262.315	1	10	0.00480857	0.000587249	0	0.000111716	0.121008	0.016487	0.122126	7.75866	262315	1.92528e+06	1.94307e+06	-82.2413	0.0000000E+000	0.0000000E+000	0.0000000E+000	82.2413	0.0000000E+000	0.0000000E+000	0.0000000E+000	-82.2413	0.0000000E+000	0.0000000E+000	0.0000000E+000	-7.75866	0.0000000E+000	0.0000000E+000	0.0000000E+000	7.75866	7.33956	82.2413	1.87236e-06	-4.84313e-06	15597.1
4.63925	8.54966	0.809123	8.58786	-5.40626	14.6933	0.274863	-0.00980454	42399.2	376.372	1	11	0.00480814	0.000559877	0	0.000106415	0.115925	0.010971	0.116443	5.40626	376371	3.97696e+06	3.99473e+06	-84.5937	0.0000000E+000	0.0000000E+000	0.0000000E+000	84.5937	0.0000000E+000	0.0000000E+000	0.0000000E+000	-84.5937	0.0000000E+000	0.0000000E+000	0.0000000E+000	-5.40626	0.0000000E+000	0.0000000E+000	0.0000000E+000	5.40626	10.5666	84.5937	-1.75462e-07	-2.69491e-06	28034.3
2.15577	8.82752	0.615362	8.84894	-3.98761	16.4188	0.274873	-0.00925163	119974	580.185	1	11	0.00481155	0.000543743	0	0.000102003	0.112734	0.00785866	0.113008	3.98761	580185	8.32289e+06	8.34309e+06	-86.0124	0.0000000E+000	0.0000000E+000	0.0000000E+000	86.0124	0.0000000E+000	0.0000000E+000	0.0000000E+000	-86.0124	0.0000000E+000	0.0000000E+000	0.0000000E+000	-3.98761	0.0000000E+000	0.0000000E+000	0.0000000E+000	3.98761	14.3452	86.0124	4.04531e-06	-2.54302e-06	29710.7
1.00006	9.01958	0.539405	9.0357	-3.42243	20.0323	0.274874	-0.00577823	295038	1051.44	1	11	0.00481332	0.0005327	0	0.000116911	0.110475	0.00660681	0.110672	3.42243	1.05144e+06	1.75815e+07	1.76129e+07	-86.5776	0.0000000E+000	0.0000000E+000	0.0000000E+000	86.5776	0.0000000E+000	0.0000000E+000	0.0000000E+000	-86.5776	0.0000000E+000	0.0000000E+000	0.0000000E+000	-3.42243	0.0000000E+000	0.0000000E+000	0.0000000E+000	3.42243	16.7214	86.5776	4.2534e-06	-1.58828e-06	47570.6
0.464091	9.18991	0.630919	9.21154	-3.92739	27.7176	0.27488	-0.00148817	543556	2549.92	1	11	0.00481346	0.000522546	0	7.33833e-05	0.108305	0.00743548	0.108559	3.92739	2.54992e+06	3.71419e+07	3.72293e+07	-86.0726	0.0000000E+000	0.0000000E+000	0.0000000E+000	86.0726	0.0000000E+000	0.0000000E+000	0.0000000E+000	-86.0726	0.0000000E+000	0.0000000E+000	0.0000000E+000	-3.92739	0.0000000E+000	0.0000000E+000	0.0000000E+000	3.92739	14.5659	86.0726	-3.31181e-05	-4.09069e-07	184710
0.215268	9.43999	0.946336	9.4873	-5.72464	44.1958	0.274878	-0.00569627	781260	7773.22	1	11	0.0048125	0.000507257	0	-2.7758e-05	0.104878	0.0105138	0.105404	5.72464	7.77322e+06	7.75402e+07	7.79288e+07	-84.2754	0.0000000E+000	0.0000000E+000	0.0000000E+000	84.2754	0.0000000E+000	0.0000000E+000	0.0000000E+000	-84.2754	0.0000000E+000	0.0000000E+000	0.0000000E+000	-5.72464	0.0000000E+000	0.0000000E+000	0.0000000E+000	5.72464	9.9753	84.2754	-5.04496e-05	-1.56578e-06	48255.9
0.0999041	9.82076	1.67879	9.96322	-9.70052	79.6013	0.274873	-0.00628672	948946	26942.2	1	11	0.00481458	0.000483236	0	1.57492e-05	0.0989341	0.016912	0.100369	9.70052	2.69422e+07	1.5761e+08	1.59896e+08	-80.2995	0.0000000E+000	0.0000000E+000	0.0000000E+000	80.2995	0.0000000E+000	0.0000000E+000	0.0000000E+000	-80.2995	0.0000000E+000	0.0000000E+000	0.0000000E+000	-9.70052	0.0000000E+000	0.0000000E+000	0.0000000E+000	9.70052	5.84992	80.2995	5.95269e-05	-1.72805e-06	43722.8
0.0464052	10.5736	2.92355	10.9704	-15.4559	155.837	0.274867	-0.000784049	1.17312e+06	83315.1	1	11	0.00481449	0.000438864	0	0.000380979	0.0878583	0.0242924	0.0911548	15.4559	8.33151e+07	3.01326e+08	3.12632e+08	-74.5441	0.0000000E+000	0.0000000E+000	0.0000000E+000	74.5441	0.0000000E+000	0.0000000E+000	0.0000000E+000	-74.5441	0.0000000E+000	0.0000000E+000	0.0000000E+000	-15.4559	0.0000000E+000	0.0000000E+000	0.0000000E+000	15.4559	3.6167	74.5441	0.000224117	-2.1551e-07	350574
0.0215268	11.7817	5.39248	12.9572	-24.5935	320.067	0.274868	0.00167879	1.37105e+06	237471	1	11	0.00481174	0.000371358	0	0.000333719	0.0701761	0.0321195	0.0771774	24.5935	2.37471e+08	5.18836e+08	5.70599e+08	-65.4065	0.0000000E+000	0.0000000E+000	0.0000000E+000	65.4065	0.0000000E+000	0.0000000E+000	0.0000000E+000	-65.4065	0.0000000E+000	0.0000000E+000	0.0000000E+000	-24.5935	0.0000000E+000	0.0000000E+000	0.0000000E+000	24.5935	2.18484	65.4065	-0.000177555	4.61447e-07	163730
0.0100092	13.7395	9.32922	16.6075	-34.1768	773.359	0.274868	-0.000453012	1.70442e+06	537850	1	12	0.00481325	0.000289824	0	-0.00107838	0.0498154	0.0338251	0.0602139	34.1768	5.3785e+08	7.92111e+08	9.57456e+08	-55.8232	0.0000000E+000	0.0000000E+000	0.0000000E+000	55.8232	0.0000000E+000	0.0000000E+000	0.0000000E+000	-55.8232	0.0000000E+000	0.0000000E+000	0.0000000E+000	-34.1768	0.0000000E+000	0.0000000E+000	0.0000000E+000	34.1768	1.47274	55.8232	-0.000831046	-1.24519e-07	606758