File: txt/17739_R277_UA674_SOC00_C03.mpt
EC-Lab ASCII FILE

Nb header lines : 63

Potentio Electrochemical Impedance Spectroscopy

Run on channel : 3 (SN 65921)
User :
CE vs. WE compliance from -10 V to 10 V
Electrode connection : standard
Potential control : Ewe
Ewe ctrl range : min = -10.00 V, max = 10.00 V
Safety Limits :
	Do not start on E overload
Acquisition started on : 09/22/2025 08:11:20.123
Loaded Setting File :  C:\Users\Celltest\OneDrive - store-dot.com\Documents\EC-Lab\Data\Gyutae\17738_R277_UA674_SOC00_C02.mpr
Saved on :
	File : 17739_R277_UA674_SOC00_C03.mpr
	Directory : C:\Users\Celltest\OneDrive - store-dot.com\Documents\EC-Lab\Data\Gyutae\
	Host : 169.254.61.224
Device : VMP-3e (SN .003165)
Address : USB
EC-LAB for windows v11.62 (software)
Internet server v27.00 (firmware)
Command interpretor v12.03 (firmware)
Electrode material :
Initial state :
Electrolyte :
Comments :
Electrode surface area : 0.001 cm²
Characteristic mass : 0.001 g
Equivalent Weight : 0.000 g/eq.
Density : 0.000 g/cm3
Volume (V) : 0.001 cm³
Cycle Definition : Charge/Discharge alternance
Mode                Single sine
E (V)               0.0000
vs.                 Eoc
tE (h:m:s)          0:00:0.0000
record              0
dI                  0.000
unit dI             mA
dt (s)              0.000
fi                  100.000
unit fi             kHz
ff                  10.000
unit ff             mHz
Nd                  6
Points              per decade
spacing             Logarithmic
Va (mV)             5.0
pw                  0.10
Na                  2
corr                0
E range min (V)     -10.000
E range max (V)     10.000
I Range             Auto
Bandwidth           5
nc cycles           0
goto Ns'            0
nr cycles           0
inc. cycle          0

freq/Hz	Re(Z)/Ohm	-Im(Z)/Ohm	|Z|/Ohm	Phase(Z)/deg	time/s	<Ewe>/V	<I>/mA	Cs/µF	Cp/µF	cycle number	I Range	|Ewe|/V	|I|/A	Ns	(Q-Qo)/mA.h	Re(Y)/Ohm-1	Im(Y)/Ohm-1	|Y|/Ohm-1	Phase(Y)/deg	Re(C)/nF	Im(C)/nF	|C|/nF	Phase(C)/deg	Re(M)	Im(M)	|M|	Phase(M)/deg	Re(Permittivity)	Im(Permittivity)	|Permittivity|	Phase(Permittivity)/deg	Re(Resistivity)/Ohm.cm	Im(Resistivity)/Ohm.cm	|Resistivity|/Ohm.cm	Phase(Resistivity)/deg	Re(Conductivity)/mS/cm	Im(Conductivity)/mS/cm	|Conductivity|/mS/cm	Phase(Conductivity)/deg	Tan(Delta)	Loss Angle(Delta)/deg	dq/mA.h	Pwe/W	Rwe/Ohm
100004	1.10346	0.247591	1.13089	-12.6464	1.8645	0.275501	0.0219409	6.42789	0.308103	1	9	0.00462017	0.00408541	0	-6.31157e-06	0.862804	0.193594	0.884256	12.6464	308.103	1373.14	1407.29	-77.3536	0.0000000E+000	0.0000000E+000	0.0000000E+000	77.3536	0.0000000E+000	0.0000000E+000	0.0000000E+000	-77.3536	0.0000000E+000	0.0000000E+000	0.0000000E+000	-12.6464	0.0000000E+000	0.0000000E+000	0.0000000E+000	12.6464	4.45677	77.3536	-6.31157e-06	6.04473e-06	12556.5
46420.4	1.22832	0.298157	1.26399	-13.6439	2.88048	0.275493	0.0281689	11.4992	0.639843	1	9	0.0050632	0.00400574	0	3.2138e-07	0.768823	0.186621	0.791148	13.6439	639.843	2635.95	2712.5	-76.3561	0.0000000E+000	0.0000000E+000	0.0000000E+000	76.3561	0.0000000E+000	0.0000000E+000	0.0000000E+000	-76.3561	0.0000000E+000	0.0000000E+000	0.0000000E+000	-13.6439	0.0000000E+000	0.0000000E+000	0.0000000E+000	13.6439	4.11969	76.3561	9.93877e-06	7.76032e-06	9780.02
21544.7	1.37609	0.383306	1.42848	-15.565	3.8955	0.27547	0.0221646	19.2723	1.38764	1	9	0.00544158	0.00380935	0	1.58446e-05	0.674372	0.187844	0.700045	15.565	1387.64	4981.73	5171.38	-74.435	0.0000000E+000	0.0000000E+000	0.0000000E+000	74.435	0.0000000E+000	0.0000000E+000	0.0000000E+000	-74.435	0.0000000E+000	0.0000000E+000	0.0000000E+000	-15.565	0.0000000E+000	0.0000000E+000	0.0000000E+000	15.565	3.59006	74.435	6.22199e-06	6.1057e-06	12428.4
10002.2	1.55777	0.489366	1.63283	-17.4399	4.62948	0.275502	0.0343969	32.5154	2.92063	1	9	0.00466026	0.0028541	0	2.54553e-05	0.584282	0.183549	0.612434	17.4399	2920.63	9297.07	9745.03	-72.5601	0.0000000E+000	0.0000000E+000	0.0000000E+000	72.5601	0.0000000E+000	0.0000000E+000	0.0000000E+000	-72.5601	0.0000000E+000	0.0000000E+000	0.0000000E+000	-17.4399	0.0000000E+000	0.0000000E+000	0.0000000E+000	17.4399	3.18324	72.5601	5.61879e-07	9.47644e-06	8009.51
4641.49	1.80266	0.649476	1.91609	-19.8135	5.65569	0.27546	0.0464614	52.7959	6.0659	1	9	0.00482186	0.00251651	0	2.32896e-05	0.491001	0.176902	0.521896	19.8135	6065.9	16836.2	17895.6	-70.1865	0.0000000E+000	0.0000000E+000	0.0000000E+000	70.1865	0.0000000E+000	0.0000000E+000	0.0000000E+000	-70.1865	0.0000000E+000	0.0000000E+000	0.0000000E+000	-19.8135	0.0000000E+000	0.0000000E+000	0.0000000E+000	19.8135	2.77556	70.1865	7.38048e-06	1.27982e-05	5928.79
2155.69	2.11634	0.866403	2.28682	-22.2636	6.5897	0.275466	0.0412589	85.2146	12.2318	1	9	0.00468608	0.00204917	0	3.37225e-05	0.404689	0.165675	0.437289	22.2636	12231.8	29878.3	32285.1	-67.7364	0.0000000E+000	0.0000000E+000	0.0000000E+000	67.7364	0.0000000E+000	0.0000000E+000	0.0000000E+000	-67.7364	0.0000000E+000	0.0000000E+000	0.0000000E+000	-22.2636	0.0000000E+000	0.0000000E+000	0.0000000E+000	22.2636	2.44267	67.7364	4.137e-06	1.13654e-05	6676.51
1000.32	2.49865	1.18858	2.76694	-25.44	7.52571	0.275466	0.0463495	133.86	24.7008	1	9	0.00463537	0.00167527	0	4.45885e-05	0.326366	0.155249	0.36141	25.44	24700.8	51926.1	57501.8	-64.56	0.0000000E+000	0.0000000E+000	0.0000000E+000	64.56	0.0000000E+000	0.0000000E+000	0.0000000E+000	-64.56	0.0000000E+000	0.0000000E+000	0.0000000E+000	-25.44	0.0000000E+000	0.0000000E+000	0.0000000E+000	25.44	2.1022	64.56	4.19396e-06	1.27677e-05	5943.25
463.961	3.01753	1.72327	3.47493	-29.7301	8.71422	0.275457	-0.0202522	199.061	48.9554	1	10	0.00466953	0.00134378	0	4.23269e-05	0.249896	0.142712	0.287776	29.7301	48955.4	85723.2	98717.2	-60.2699	0.0000000E+000	0.0000000E+000	0.0000000E+000	60.2699	0.0000000E+000	0.0000000E+000	0.0000000E+000	-60.2699	0.0000000E+000	0.0000000E+000	0.0000000E+000	-29.7301	0.0000000E+000	0.0000000E+000	0.0000000E+000	29.7301	1.75105	60.2699	-3.02228e-06	-5.5786e-06	13601.4
215.345	3.90046	2.58761	4.68074	-33.5608	9.64841	0.275443	-0.0209159	285.619	87.2883	1	10	0.00462721	0.000988562	0	3.61366e-05	0.178027	0.118105	0.213641	33.5608	87288.3	131575	157896	-56.4392	0.0000000E+000	0.0000000E+000	0.0000000E+000	56.4392	0.0000000E+000	0.0000000E+000	0.0000000E+000	-56.4392	0.0000000E+000	0.0000000E+000	0.0000000E+000	-33.5608	0.0000000E+000	0.0000000E+000	0.0000000E+000	33.5608	1.50736	56.4392	-2.82552e-06	-5.76115e-06	13169.1
100.032	5.48761	3.6016	6.56395	-33.2775	10.5797	0.275465	-0.018714	441.759	132.998	1	10	0.00461789	0.000703523	0	3.22193e-05	0.127366	0.0835921	0.152347	33.2775	132998	202644	242391	-56.7225	0.0000000E+000	0.0000000E+000	0.0000000E+000	56.7225	0.0000000E+000	0.0000000E+000	0.0000000E+000	-56.7225	0.0000000E+000	0.0000000E+000	0.0000000E+000	-33.2775	0.0000000E+000	0.0000000E+000	0.0000000E+000	33.2775	1.52366	56.7225	-1.73787e-06	-5.15507e-06	14719.7
46.4415	7.7883	4.2761	8.88497	-28.7686	11.5136	0.275452	-0.0216487	801.429	185.631	1	10	0.00460196	0.000517949	0	2.82099e-05	0.0986576	0.0541671	0.11255	28.7686	185630	338099	385707	-61.2314	0.0000000E+000	0.0000000E+000	0.0000000E+000	61.2314	0.0000000E+000	0.0000000E+000	0.0000000E+000	-61.2314	0.0000000E+000	0.0000000E+000	0.0000000E+000	-28.7686	0.0000000E+000	0.0000000E+000	0.0000000E+000	28.7686	1.82136	61.2314	-2.06812e-06	-5.96318e-06	12723.8
21.5517	10.313	4.15064	11.117	-21.9231	12.4003	0.27542	-0.0258884	1779.19	248.017	1	10	0.0046015	0.000413918	0	2.32876e-05	0.0834479	0.0335849	0.0899527	21.9231	248017	616245	664282	-68.0769	0.0000000E+000	0.0000000E+000	0.0000000E+000	68.0769	0.0000000E+000	0.0000000E+000	0.0000000E+000	-68.0769	0.0000000E+000	0.0000000E+000	0.0000000E+000	-21.9231	0.0000000E+000	0.0000000E+000	0.0000000E+000	21.9231	2.48469	68.0769	-1.92553e-06	-7.13018e-06	10638.7
10.0032	12.4598	3.5445	12.9541	-15.8798	13.6007	0.275461	-0.016325	4488.76	336.063	1	11	0.00459942	0.000355055	0	1.41592e-05	0.0742496	0.0211222	0.0771955	15.8798	336063	1.18134e+06	1.22821e+06	-74.1202	0.0000000E+000	0.0000000E+000	0.0000000E+000	74.1202	0.0000000E+000	0.0000000E+000	0.0000000E+000	-74.1202	0.0000000E+000	0.0000000E+000	0.0000000E+000	-15.8798	0.0000000E+000	0.0000000E+000	0.0000000E+000	15.8798	3.51524	74.1202	-7.21906e-06	-4.49689e-06	16873.6
4.63925	14.0419	2.81311	14.321	-11.3284	14.4603	0.275471	-0.0145643	12195.1	470.559	1	11	0.00459001	0.00032051	0	1.25709e-05	0.0684673	0.0137165	0.0698277	11.3284	470559	2.34885e+06	2.39552e+06	-78.6716	0.0000000E+000	0.0000000E+000	0.0000000E+000	78.6716	0.0000000E+000	0.0000000E+000	0.0000000E+000	-78.6716	0.0000000E+000	0.0000000E+000	0.0000000E+000	-11.3284	0.0000000E+000	0.0000000E+000	0.0000000E+000	11.3284	4.99161	78.6716	-3.0279e-06	-4.01204e-06	18914.1
2.15577	15.205	2.18249	15.3608	-8.16832	16.1858	0.27547	-0.0139079	33827.1	682.875	1	11	0.00461651	0.000300537	0	2.63797e-06	0.0644401	0.0092496	0.0651006	8.16832	682875	4.75746e+06	4.80622e+06	-81.8317	0.0000000E+000	0.0000000E+000	0.0000000E+000	81.8317	0.0000000E+000	0.0000000E+000	0.0000000E+000	-81.8317	0.0000000E+000	0.0000000E+000	0.0000000E+000	-8.16832	0.0000000E+000	0.0000000E+000	0.0000000E+000	8.16832	6.96681	81.8317	-2.20486e-06	-3.8312e-06	19806.8
1.00006	16.0022	1.66983	16.0891	-5.95724	20.8493	0.275473	-0.0117291	95306.1	1026.6	1	12	0.00461405	0.000286781	0	1.4805e-06	0.0618182	0.00645072	0.0621539	5.95724	1.0266e+06	9.83805e+06	9.89146e+06	-84.0428	0.0000000E+000	0.0000000E+000	0.0000000E+000	84.0428	0.0000000E+000	0.0000000E+000	0.0000000E+000	-84.0428	0.0000000E+000	0.0000000E+000	0.0000000E+000	-5.95724	0.0000000E+000	0.0000000E+000	0.0000000E+000	5.95724	9.58315	84.0428	-3.33626e-06	-3.23105e-06	23486.3
0.464091	16.5638	1.42403	16.6249	-4.91376	28.5345	0.275482	-0.00859587	240823	1766.92	1	12	0.00460906	0.000277238	0	-3.79543e-05	0.0599295	0.00515227	0.0601506	4.91376	1.76692e+06	2.05522e+07	2.0628e+07	-85.0862	0.0000000E+000	0.0000000E+000	0.0000000E+000	85.0862	0.0000000E+000	0.0000000E+000	0.0000000E+000	-85.0862	0.0000000E+000	0.0000000E+000	0.0000000E+000	-4.91376	0.0000000E+000	0.0000000E+000	0.0000000E+000	4.91376	11.6317	85.0862	-2.7353e-05	-2.36801e-06	32048.2
0.215268	17.0615	1.54021	17.1308	-5.15836	45.0127	0.275479	-0.00797127	480021	3880.29	1	12	0.00459998	0.00026852	0	-0.000121636	0.0581378	0.00524835	0.0583742	5.15836	3.88029e+06	4.29833e+07	4.31581e+07	-84.8416	0.0000000E+000	0.0000000E+000	0.0000000E+000	84.8416	0.0000000E+000	0.0000000E+000	0.0000000E+000	-84.8416	0.0000000E+000	0.0000000E+000	0.0000000E+000	-5.15836	0.0000000E+000	0.0000000E+000	0.0000000E+000	5.15836	11.0773	84.8416	-4.33975e-05	-2.19592e-06	34559
0.0999041	17.6501	2.27434	17.796	-7.34251	80.4182	0.275481	-0.00708475	700457	11440.6	1	12	0.00460249	0.000258625	0	-0.000145471	0.0557316	0.00718142	0.0561924	7.34251	1.14406e+07	8.87847e+07	8.95188e+07	-82.6575	0.0000000E+000	0.0000000E+000	0.0000000E+000	82.6575	0.0000000E+000	0.0000000E+000	0.0000000E+000	-82.6575	0.0000000E+000	0.0000000E+000	0.0000000E+000	-7.34251	0.0000000E+000	0.0000000E+000	0.0000000E+000	7.34251	7.76053	82.6575	5.79309e-06	-1.95171e-06	38883.7
0.0464052	18.6108	3.59258	18.9544	-10.9258	156.654	0.275481	-0.002447	954656	34295.8	1	12	0.00460352	0.000242874	0	4.21862e-07	0.0518019	0.0099997	0.0527582	10.9258	3.42958e+07	1.77664e+08	1.80944e+08	-79.0742	0.0000000E+000	0.0000000E+000	0.0000000E+000	79.0742	0.0000000E+000	0.0000000E+000	0.0000000E+000	-79.0742	0.0000000E+000	0.0000000E+000	0.0000000E+000	-10.9258	0.0000000E+000	0.0000000E+000	0.0000000E+000	10.9258	5.18034	79.0742	9.94886e-05	-6.74102e-07	112579
0.0215268	20.1243	6.26988	21.0784	-17.3048	320.884	0.275482	0.000551066	1.17919e+06	104334	1	12	0.00460867	0.000218644	0	1.71632e-05	0.0452945	0.0141118	0.0474419	17.3048	1.04334e+08	3.34878e+08	3.50755e+08	-72.6952	0.0000000E+000	0.0000000E+000	0.0000000E+000	72.6952	0.0000000E+000	0.0000000E+000	0.0000000E+000	-72.6952	0.0000000E+000	0.0000000E+000	0.0000000E+000	-17.3048	0.0000000E+000	0.0000000E+000	0.0000000E+000	17.3048	3.20968	72.6952	-6.21295e-05	1.51809e-07	499907
0.0146812	20.9502	8.18602	22.4927	-21.3425	464.079	0.275482	0.000318355	1.3243e+06	175408	1	12	0.00460519	0.000204742	0	-0.000300833	0.04141	0.0161805	0.0444589	21.3425	1.75408e+08	4.48916e+08	4.81968e+08	-68.6575	0.0000000E+000	0.0000000E+000	0.0000000E+000	68.6575	0.0000000E+000	0.0000000E+000	0.0000000E+000	-68.6575	0.0000000E+000	0.0000000E+000	0.0000000E+000	-21.3425	0.0000000E+000	0.0000000E+000	0.0000000E+000	21.3425	2.55926	68.6575	-0.000317996	8.7701e-08	865330

0.0100092	22.1859	10.6552	24.612	-25.6536	674.098	0.275488	-0.000265735	1.49231e+06	279700	1	12	0.00460401	0.000187064	0	-0.000863971	0.0366256	0.0175902	0.0406306	25.6536	2.797e+08	5.8238e+08	6.46064e+08	-64.3464	0.0000000E+000	0.0000000E+000	0.0000000E+000	64.3464	0.0000000E+000	0.0000000E+000	0.0000000E+000	-64.3464	0.0000000E+000	0.0000000E+000	0.0000000E+000	-25.6536	0.0000000E+000	0.0000000E+000	0.0000000E+000	25.6536	2.08216	64.3464	-0.000563138	-7.3207e-08	1.0367e+06