File: txt/17741_R277_UA674_SOC00_C05.mpt
EC-Lab ASCII FILE
Nb header lines : 63

Potentio Electrochemical Impedance Spectroscopy

Run on channel : 5 (SN 65912)
User :
CE vs. WE compliance from -10 V to 10 V
Electrode connection : standard
Potential control : Ewe
Ewe ctrl range : min = -10.00 V, max = 10.00 V
Safety Limits :
	Do not start on E overload
Acquisition started on : 09/22/2025 08:11:46.788
Loaded Setting File :  C:\Users\Celltest\OneDrive - store-dot.com\Documents\EC-Lab\Data\Gyutae\17740_R277_UA674_SOC00_C04.mpr
Saved on :
	File : 17741_R277_UA674_SOC00_C05.mpr
	Directory : C:\Users\Celltest\OneDrive - store-dot.com\Documents\EC-Lab\Data\Gyutae\
	Host : 169.254.61.224
Device : VMP-3e (SN .003165)
Address : USB
EC-LAB for windows v11.62 (software)
Internet server v27.00 (firmware)
Command interpretor v12.03 (firmware)
Electrode material :
Initial state :
Electrolyte :
Comments :
Electrode surface area : 0.001 cm²
Characteristic mass : 0.001 g
Equivalent Weight : 0.000 g/eq.
Density : 0.000 g/cm3
Volume (V) : 0.001 cm³
Cycle Definition : Charge/Discharge alternance
Mode                Single sine
E (V)               0.0000
vs.                 Eoc
tE (h:m:s)          0:00:0.0000
record              0
dI                  0.000
unit dI             mA
dt (s)              0.000
fi                  100.000
unit fi             kHz
ff                  10.000
unit ff             mHz
Nd                  6
Points              per decade
spacing             Logarithmic
Va (mV)             5.0
pw                  0.10
Na                  2
corr                0
E range min (V)     -10.000
E range max (V)     10.000
I Range             Auto
Bandwidth           5
nc cycles           0
goto Ns'            0
nr cycles           0
inc. cycle          0

freq/Hz	Re(Z)/Ohm	-Im(Z)/Ohm	|Z|/Ohm	Phase(Z)/deg	time/s	<Ewe>/V	<I>/mA	Cs/µF	Cp/µF	cycle number	I Range	|Ewe|/V	|I|/A	Ns	(Q-Qo)/mA.h	Re(Y)/Ohm-1	Im(Y)/Ohm-1	|Y|/Ohm-1	Phase(Y)/deg	Re(C)/nF	Im(C)/nF	|C|/nF	Phase(C)/deg	Re(M)	Im(M)	|M|	Phase(M)/deg	Re(Permittivity)	Im(Permittivity)	|Permittivity|	Phase(Permittivity)/deg	Re(Resistivity)/Ohm.cm	Im(Resistivity)/Ohm.cm	|Resistivity|/Ohm.cm	Phase(Resistivity)/deg	Re(Conductivity)/mS/cm	Im(Conductivity)/mS/cm	|Conductivity|/mS/cm	Phase(Conductivity)/deg	Tan(Delta)	Loss Angle(Delta)/deg	dq/mA.h	Pwe/W	Rwe/Ohm
100004	1.54662	0.314776	1.57832	-11.504	2.2275	0.28421	-0.0433314	5.05595	0.201101	1	9	0.00494663	0.00313411	0	-1.23094e-05	0.620856	0.12636	0.633584	11.504	201.1	988.086	1008.34	-78.496	0.0000000E+000	0.0000000E+000	0.0000000E+000	78.496	0.0000000E+000	0.0000000E+000	0.0000000E+000	-78.496	0.0000000E+000	0.0000000E+000	0.0000000E+000	-11.504	0.0000000E+000	0.0000000E+000	0.0000000E+000	11.504	4.91339	78.496	-1.23094e-05	-1.23152e-05	6558.99
46420.4	1.71407	0.398642	1.75981	-13.0926	3.38348	0.284199	-0.044039	8.6006	0.441327	1	9	0.00503231	0.00285957	0	-3.30814e-05	0.553471	0.128721	0.568242	13.0926	441.327	1897.61	1948.25	-76.9074	0.0000000E+000	0.0000000E+000	0.0000000E+000	76.9074	0.0000000E+000	0.0000000E+000	0.0000000E+000	-76.9074	0.0000000E+000	0.0000000E+000	0.0000000E+000	-13.0926	0.0000000E+000	0.0000000E+000	0.0000000E+000	13.0926	4.29977	76.9074	-1.27846e-05	-1.25158e-05	6453.35
21544.7	1.90671	0.512627	1.97442	-15.0484	4.2575	0.28421	-0.0411343	14.4105	0.97141	1	9	0.00529256	0.00268056	0	-4.14482e-05	0.489109	0.131499	0.506478	15.0484	971.41	3613.15	3741.46	-74.9516	0.0000000E+000	0.0000000E+000	0.0000000E+000	74.9516	0.0000000E+000	0.0000000E+000	0.0000000E+000	-74.9516	0.0000000E+000	0.0000000E+000	0.0000000E+000	-15.0484	0.0000000E+000	0.0000000E+000	0.0000000E+000	15.0484	3.71949	74.9516	-3.38002e-06	-1.16908e-05	6909.32
10002.2	2.15725	0.663205	2.2569	-17.089	4.99148	0.28421	-0.0454541	23.9925	2.0718	1	9	0.0054862	0.00243086	0	-4.59223e-05	0.423524	0.130204	0.443086	17.089	2071.8	6739.09	7050.36	-72.911	0.0000000E+000	0.0000000E+000	0.0000000E+000	72.911	0.0000000E+000	0.0000000E+000	0.0000000E+000	-72.911	0.0000000E+000	0.0000000E+000	0.0000000E+000	-17.089	0.0000000E+000	0.0000000E+000	0.0000000E+000	17.089	3.25277	72.911	-2.46516e-06	-1.29185e-05	6252.69
4641.49	2.48897	0.880311	2.64006	-19.4779	6.01768	0.284239	-0.0113425	38.9518	4.33083	1	9	0.00497517	0.00188449	0	-5.84234e-05	0.357101	0.126301	0.378779	19.4779	4330.83	12244.9	12988.2	-70.5221	0.0000000E+000	0.0000000E+000	0.0000000E+000	70.5221	0.0000000E+000	0.0000000E+000	0.0000000E+000	-70.5221	0.0000000E+000	0.0000000E+000	0.0000000E+000	-19.4779	0.0000000E+000	0.0000000E+000	0.0000000E+000	19.4779	2.82738	70.5221	1.69316e-07	-3.22396e-06	25059.7
2155.69	2.92382	1.16405	3.14702	-21.7088	6.95269	0.284238	-0.0104114	63.4252	8.67775	1	9	0.00486678	0.00154647	0	-6.21646e-05	0.295224	0.117537	0.317761	21.7088	8677.75	21796.4	23460.3	-68.2912	0.0000000E+000	0.0000000E+000	0.0000000E+000	68.2912	0.0000000E+000	0.0000000E+000	0.0000000E+000	-68.2912	0.0000000E+000	0.0000000E+000	0.0000000E+000	-21.7088	0.0000000E+000	0.0000000E+000	0.0000000E+000	21.7088	2.51176	68.2912	-7.91508e-07	-2.95933e-06	27300.5
1000.32	3.47394	1.53658	3.7986	-23.8606	8.14271	0.284228	-0.015525	103.544	16.943	1	10	0.00487873	0.00128435	0	-6.59514e-05	0.240755	0.10649	0.263255	23.8606	16943	38305.1	41884.9	-66.1394	0.0000000E+000	0.0000000E+000	0.0000000E+000	66.1394	0.0000000E+000	0.0000000E+000	0.0000000E+000	-66.1394	0.0000000E+000	0.0000000E+000	0.0000000E+000	-23.8606	0.0000000E+000	0.0000000E+000	0.0000000E+000	23.8606	2.26082	66.1394	-1.0023e-06	-4.41265e-06	18307.7
463.961	4.20789	2.08058	4.69416	-26.31	9.07721	0.284224	-0.0157391	164.875	32.3898	1	10	0.00481477	0.00102569	0	-6.95125e-05	0.190963	0.094421	0.213031	26.31	32389.8	65507	73077.1	-63.69	0.0000000E+000	0.0000000E+000	0.0000000E+000	63.69	0.0000000E+000	0.0000000E+000	0.0000000E+000	-63.69	0.0000000E+000	0.0000000E+000	0.0000000E+000	-26.31	0.0000000E+000	0.0000000E+000	0.0000000E+000	26.31	2.02246	63.69	-1.85288e-06	-4.47343e-06	18058.4
215.345	5.22958	2.91779	5.98849	-29.1589	10.0115	0.284223	-0.0156423	253.298	60.1321	1	10	0.00477944	0.000798105	0	-7.21862e-05	0.145825	0.0813618	0.166987	29.1589	60132.1	107775	123415	-60.8411	0.0000000E+000	0.0000000E+000	0.0000000E+000	60.8411	0.0000000E+000	0.0000000E+000	0.0000000E+000	-60.8411	0.0000000E+000	0.0000000E+000	0.0000000E+000	-29.1589	0.0000000E+000	0.0000000E+000	0.0000000E+000	29.1589	1.7923	60.8411	-1.33177e-06	-4.44591e-06	18170.1
100.032	6.85787	4.02587	7.95223	-30.4148	10.9427	0.284224	-0.0150745	395.204	101.289	1	10	0.00476335	0.000598995	0	-7.68592e-05	0.108445	0.0636621	0.125751	30.4148	101289	172541	200075	-59.5852	0.0000000E+000	0.0000000E+000	0.0000000E+000	59.5852	0.0000000E+000	0.0000000E+000	0.0000000E+000	-59.5852	0.0000000E+000	0.0000000E+000	0.0000000E+000	-30.4148	0.0000000E+000	0.0000000E+000	0.0000000E+000	30.4148	1.70345	59.5852	-2.46993e-06	-4.28454e-06	18854.6
46.4415	9.37433	5.05811	10.6519	-28.35	11.8765	0.284226	-0.0160798	677.524	152.774	1	10	0.00476196	0.000447053	0	-8.12195e-05	0.0826205	0.0445796	0.0938801	28.35	152774	283140	321727	-61.65	0.0000000E+000	0.0000000E+000	0.0000000E+000	61.65	0.0000000E+000	0.0000000E+000	0.0000000E+000	-61.65	0.0000000E+000	0.0000000E+000	0.0000000E+000	-28.35	0.0000000E+000	0.0000000E+000	0.0000000E+000	28.35	1.85333	61.65	-2.15045e-06	-4.57031e-06	17675.9
21.5517	12.5119	5.25654	13.5712	-22.7885	12.7613	0.284227	-0.0194868	1404.88	210.766	1	10	0.00476084	0.000350804	0	-8.55121e-05	0.0679335	0.0285406	0.0736853	22.7885	210766	501675	544151	-67.2115	0.0000000E+000	0.0000000E+000	0.0000000E+000	67.2115	0.0000000E+000	0.0000000E+000	0.0000000E+000	-67.2115	0.0000000E+000	0.0000000E+000	0.0000000E+000	-22.7885	0.0000000E+000	0.0000000E+000	0.0000000E+000	22.7885	2.38024	67.2115	-2.51971e-06	-5.53866e-06	14585.6
10.0032	15.3627	4.6264	16.0441	-16.7595	13.9667	0.284244	-0.00943071	3439.05	285.95	1	11	0.00476015	0.00029669	0	-8.93825e-05	0.0596806	0.0179725	0.062328	16.7595	285950	949542	991664	-73.2405	0.0000000E+000	0.0000000E+000	0.0000000E+000	73.2405	0.0000000E+000	0.0000000E+000	0.0000000E+000	-73.2405	0.0000000E+000	0.0000000E+000	0.0000000E+000	-16.7595	0.0000000E+000	0.0000000E+000	0.0000000E+000	16.7595	3.32065	73.2405	3.43034e-07	-2.68062e-06	30140.3
4.63925	17.4532	3.68969	17.8389	-11.9369	14.8263	0.284248	-0.0088201	9297.84	397.763	1	11	0.00475171	0.000266368	0	-8.95097e-05	0.054845	0.0115945	0.0560572	11.9369	397763	1.88152e+06	1.92311e+06	-78.0631	0.0000000E+000	0.0000000E+000	0.0000000E+000	78.0631	0.0000000E+000	0.0000000E+000	0.0000000E+000	-78.0631	0.0000000E+000	0.0000000E+000	0.0000000E+000	-11.9369	0.0000000E+000	0.0000000E+000	0.0000000E+000	11.9369	4.73025	78.0631	1.60913e-06	-2.50709e-06	32227.3
2.15577	19.0189	2.8735	19.2348	-8.59164	16.5508	0.284256	-0.00733994	25692.5	573.398	1	11	0.00475735	0.000247331	0	-0.000100596	0.0514058	0.00776672	0.0519892	8.59164	573398	3.79516e+06	3.83823e+06	-81.4084	0.0000000E+000	0.0000000E+000	0.0000000E+000	81.4084	0.0000000E+000	0.0000000E+000	0.0000000E+000	-81.4084	0.0000000E+000	0.0000000E+000	0.0000000E+000	-8.59164	0.0000000E+000	0.0000000E+000	0.0000000E+000	8.59164	6.61873	81.4084	-5.71964e-06	-2.08642e-06	38727.2
1.00006	20.1106	2.22342	20.2331	-6.30899	21.2152	0.284256	-0.00633884	71576.4	864.347	1	12	0.0047597	0.000235243	0	-9.80843e-05	0.0491246	0.0054312	0.0494239	6.30899	864348	7.81792e+06	7.86555e+06	-83.691	0.0000000E+000	0.0000000E+000	0.0000000E+000	83.691	0.0000000E+000	0.0000000E+000	0.0000000E+000	-83.691	0.0000000E+000	0.0000000E+000	0.0000000E+000	-6.30899	0.0000000E+000	0.0000000E+000	0.0000000E+000	6.30899	9.04488	83.691	3.28098e-06	-1.80186e-06	44843.6
0.464091	20.8714	1.82236	20.9509	-4.99005	28.8998	0.284253	-0.00455829	188184	1423.8	1	12	0.00475915	0.000227158	0	-0.000101602	0.0475498	0.00415176	0.0477308	4.99005	1.4238e+06	1.63067e+07	1.63688e+07	-85.0099	0.0000000E+000	0.0000000E+000	0.0000000E+000	85.0099	0.0000000E+000	0.0000000E+000	0.0000000E+000	-85.0099	0.0000000E+000	0.0000000E+000	0.0000000E+000	-4.99005	0.0000000E+000	0.0000000E+000	0.0000000E+000	4.99005	11.4529	85.0099	-6.29839e-06	-1.29571e-06	62359.6
0.215268	21.4106	1.85174	21.4906	-4.94303	45.3798	0.284261	-0.00261939	399266	2964.32	1	12	0.00475971	0.000221479	0	-0.000160442	0.046359	0.00400944	0.0465321	4.94303	2.96432e+06	3.42748e+07	3.44028e+07	-85.057	0.0000000E+000	0.0000000E+000	0.0000000E+000	85.057	0.0000000E+000	0.0000000E+000	0.0000000E+000	-85.057	0.0000000E+000	0.0000000E+000	0.0000000E+000	-4.94303	0.0000000E+000	0.0000000E+000	0.0000000E+000	4.94303	11.5625	85.057	-3.74216e-05	-7.44591e-07	108522
0.0999041	22.0736	2.50999	22.2158	-6.48724	80.7854	0.284258	-0.00384238	634695	8101.84	1	12	0.00475766	0.000214156	0	-0.000248945	0.0447248	0.00508565	0.045013	6.48724	8.10184e+06	7.125e+07	7.17091e+07	-83.5128	0.0000000E+000	0.0000000E+000	0.0000000E+000	83.5128	0.0000000E+000	0.0000000E+000	0.0000000E+000	-83.5128	0.0000000E+000	0.0000000E+000	0.0000000E+000	-6.48724	0.0000000E+000	0.0000000E+000	0.0000000E+000	6.48724	8.7943	83.5128	-4.0908e-05	-1.09223e-06	73979.7
0.0464052	22.9205	4.05945	23.2772	-10.0435	157.022	0.284258	-0.00314236	844862	25695.6	1	12	0.00475856	0.00020443	0	-0.000202314	0.0423021	0.00749212	0.0429604	10.0435	2.56956e+07	1.45083e+08	1.4734e+08	-79.9565	0.0000000E+000	0.0000000E+000	0.0000000E+000	79.9565	0.0000000E+000	0.0000000E+000	0.0000000E+000	-79.9565	0.0000000E+000	0.0000000E+000	0.0000000E+000	-10.0435	0.0000000E+000	0.0000000E+000	0.0000000E+000	10.0435	5.64621	79.9565	5.98126e-05	-8.93242e-07	90460.2
0.0215268	24.4722	6.74497	25.3847	-15.4092	321.251	0.284258	-0.000171327	1.09613e+06	77388.9	1	12	0.00476101	0.000187555	0	0.000114044	0.0379778	0.0104674	0.0393939	15.4092	7.73889e+07	2.80783e+08	2.91253e+08	-74.5908	0.0000000E+000	0.0000000E+000	0.0000000E+000	74.5908	0.0000000E+000	0.0000000E+000	0.0000000E+000	-74.5908	0.0000000E+000	0.0000000E+000	0.0000000E+000	-15.4092	0.0000000E+000	0.0000000E+000	0.0000000E+000	15.4092	3.62821	74.5908	0.000172175	-4.87011e-08	1.65916e+06
0.0100092	26.6031	12.0773	29.2162	-24.4171	674.467	0.28426	0.000428767	1.31659e+06	224980	1	12	0.00475994	0.000162921	0	-7.93797e-05	0.0311662	0.0141489	0.0342276	24.4171	2.2498e+08	4.95572e+08	5.44249e+08	-65.5829	0.0000000E+000	0.0000000E+000	0.0000000E+000	65.5829	0.0000000E+000	0.0000000E+000	0.0000000E+000	-65.5829	0.0000000E+000	0.0000000E+000	0.0000000E+000	-24.4171	0.0000000E+000	0.0000000E+000	0.0000000E+000	24.4171	2.20274	65.5829	-0.000248557	1.21882e-07	662971