File: txt/17740_R277_UA674_SOC00_C04.mpt
EC-Lab ASCII FILE

Nb header lines : 63

Potentio Electrochemical Impedance Spectroscopy

Run on channel : 4 (SN 66756)
User :
CE vs. WE compliance from -10 V to 10 V
Electrode connection : standard
Potential control : Ewe
Ewe ctrl range : min = -10.00 V, max = 10.00 V
Safety Limits :
	Do not start on E overload
Acquisition started on : 09/22/2025 08:11:34.083
Loaded Setting File :  C:\Users\Celltest\OneDrive - store-dot.com\Documents\EC-Lab\Data\Gyutae\17739_R277_UA674_SOC00_C03.mpr
Saved on :
	File : 17740_R277_UA674_SOC00_C04.mpr
	Directory : C:\Users\Celltest\OneDrive - store-dot.com\Documents\EC-Lab\Data\Gyutae\
	Host : 169.254.61.224
Device : VMP-3e (SN .003165)
Address : USB
EC-LAB for windows v11.62 (software)
Internet server v27.00 (firmware)
Command interpretor v12.03 (firmware)
Electrode material :
Initial state :
Electrolyte :
Comments :
Electrode surface area : 0.001 cm²
Characteristic mass : 0.001 g
Equivalent Weight : 0.000 g/eq.
Density : 0.000 g/cm3
Volume (V) : 0.001 cm³
Cycle Definition : Charge/Discharge alternance
Mode                Single sine
E (V)               0.0000
vs.                 Eoc
tE (h:m:s)          0:00:0.0000
record              0
dI                  0.000
unit dI             mA
dt (s)              0.000
fi                  100.000
unit fi             kHz
ff                  10.000
unit ff             mHz
Nd                  6
Points              per decade
spacing             Logarithmic
Va (mV)             5.0
pw                  0.10
Na                  2
corr                0
E range min (V)     -10.000
E range max (V)     10.000
I Range             Auto
Bandwidth           5
nc cycles           0
goto Ns'            0
nr cycles           0
inc. cycle          0

freq/Hz	Re(Z)/Ohm	-Im(Z)/Ohm	|Z|/Ohm	Phase(Z)/deg	time/s	<Ewe>/V	<I>/mA	Cs/µF	Cp/µF	cycle number	I Range	|Ewe|/V	|I|/A	Ns	(Q-Qo)/mA.h	Re(Y)/Ohm-1	Im(Y)/Ohm-1	|Y|/Ohm-1	Phase(Y)/deg	Re(C)/nF	Im(C)/nF	|C|/nF	Phase(C)/deg	Re(M)	Im(M)	|M|	Phase(M)/deg	Re(Permittivity)	Im(Permittivity)	|Permittivity|	Phase(Permittivity)/deg	Re(Resistivity)/Ohm.cm	Im(Resistivity)/Ohm.cm	|Resistivity|/Ohm.cm	Phase(Resistivity)/deg	Re(Conductivity)/mS/cm	Im(Conductivity)/mS/cm	|Conductivity|/mS/cm	Phase(Conductivity)/deg	Tan(Delta)	Loss Angle(Delta)/deg	dq/mA.h	Pwe/W	Rwe/Ohm
100004	1.41109	0.225744	1.42903	-9.08911	2.07747	0.277716	-0.00539339	7.04997	0.175929	1	9	0.00469626	0.00328633	0	-3.91699e-06	0.690989	0.110544	0.699776	9.08911	175.929	1099.7	1113.69	-80.9109	0.0000000E+000	0.0000000E+000	0.0000000E+000	80.9109	0.0000000E+000	0.0000000E+000	0.0000000E+000	-80.9109	0.0000000E+000	0.0000000E+000	0.0000000E+000	-9.08911	0.0000000E+000	0.0000000E+000	0.0000000E+000	9.08911	6.25082	80.9109	-3.91699e-06	-1.49783e-06	51491.9
46420.4	1.57042	-0.171447	1.57975	6.23046	2.95248	0.277697	-0.00373374	-19.9978	-0.23554	1	9	0.00115395	0.000730464	0	-2.56115e-06	0.629274	-0.0686995	0.633013	-6.23046	-235.54	2157.5	2170.32	-96.2305	0.0000000E+000	0.0000000E+000	0.0000000E+000	96.2305	0.0000000E+000	0.0000000E+000	0.0000000E+000	-96.2305	0.0000000E+000	0.0000000E+000	0.0000000E+000	6.23046	0.0000000E+000	0.0000000E+000	0.0000000E+000	-6.23046	9.1598	83.7695	-8.35988e-07	-1.03685e-06	74375.2
21544.7	1.70061	0.491216	1.77013	-16.1112	4.25249	0.277677	-0.0373758	15.0386	1.15808	1	9	0.00507511	0.00286708	0	0.000186563	0.542741	0.156769	0.564929	16.1112	1158.08	4009.34	4173.24	-73.8888	0.0000000E+000	0.0000000E+000	0.0000000E+000	73.8888	0.0000000E+000	0.0000000E+000	0.0000000E+000	-73.8888	0.0000000E+000	0.0000000E+000	0.0000000E+000	-16.1112	0.0000000E+000	0.0000000E+000	0.0000000E+000	16.1112	3.46205	73.8888	0.000189223	-1.03784e-05	7429.33
10002.2	1.935	0.619074	2.03162	-17.7413	4.8455	0.277669	-0.038644	25.7028	2.38661	1	9	0.0047114	0.00231904	0	0.000184114	0.468809	0.149988	0.492218	17.7413	2386.61	7459.67	7832.15	-72.2587	0.0000000E+000	0.0000000E+000	0.0000000E+000	72.2587	0.0000000E+000	0.0000000E+000	0.0000000E+000	-72.2587	0.0000000E+000	0.0000000E+000	0.0000000E+000	-17.7413	0.0000000E+000	0.0000000E+000	0.0000000E+000	17.7413	3.12564	72.2587	-1.29864e-06	-1.07302e-05	7185.31
4641.49	2.23983	0.812538	2.38266	-19.9391	5.9187	0.277682	-0.00613937	42.2007	4.90776	1	9	0.0049361	0.00207168	0	0.00017503	0.394541	0.143127	0.419699	19.9391	4907.76	13528.7	14391.3	-70.0609	0.0000000E+000	0.0000000E+000	0.0000000E+000	70.0609	0.0000000E+000	0.0000000E+000	0.0000000E+000	-70.0609	0.0000000E+000	0.0000000E+000	0.0000000E+000	-19.9391	0.0000000E+000	0.0000000E+000	0.0000000E+000	19.9391	2.75659	70.0609	-2.49285e-06	-1.70479e-06	45229.7
2155.69	2.63446	1.06836	2.84285	-22.0741	6.85168	0.27767	-0.00930966	69.1061	9.75987	1	9	0.00481824	0.00169486	0	0.000170924	0.325975	0.132194	0.35176	22.0741	9759.87	24066.8	25970.5	-67.9259	0.0000000E+000	0.0000000E+000	0.0000000E+000	67.9259	0.0000000E+000	0.0000000E+000	0.0000000E+000	-67.9259	0.0000000E+000	0.0000000E+000	0.0000000E+000	-22.0741	0.0000000E+000	0.0000000E+000	0.0000000E+000	22.0741	2.4659	67.9259	-2.61462e-06	-2.58501e-06	29826
1000.32	3.15813	1.43055	3.46702	-24.3693	8.0417	0.277731	-0.016816	111.219	18.9352	1	10	0.00486637	0.00140362	0	0.000166895	0.262734	0.119012	0.288432	24.3693	18935.2	41802	45890.7	-65.6307	0.0000000E+000	0.0000000E+000	0.0000000E+000	65.6307	0.0000000E+000	0.0000000E+000	0.0000000E+000	-65.6307	0.0000000E+000	0.0000000E+000	0.0000000E+000	-24.3693	0.0000000E+000	0.0000000E+000	0.0000000E+000	24.3693	2.20763	65.6307	-2.66209e-06	-4.67032e-06	16515.9
463.961	3.82196	1.98549	4.30692	-27.4517	8.97622	0.277666	-0.0163572	172.771	36.7175	1	10	0.00479678	0.00111374	0	0.000163098	0.20604	0.107037	0.232184	27.4517	36717.5	70679.2	79647.5	-62.5483	0.0000000E+000	0.0000000E+000	0.0000000E+000	62.5483	0.0000000E+000	0.0000000E+000	0.0000000E+000	-62.5483	0.0000000E+000	0.0000000E+000	0.0000000E+000	-27.4517	0.0000000E+000	0.0000000E+000	0.0000000E+000	27.4517	1.92495	62.5483	-2.53352e-06	-4.54183e-06	16975.1
215.345	4.83606	2.81028	5.59331	-30.1613	9.91044	0.277685	-0.0171032	262.989	66.3892	1	10	0.00475742	0.000850556	0	0.000158581	0.15458	0.0898279	0.178785	30.1613	66389.2	114246	132135	-59.8387	0.0000000E+000	0.0000000E+000	0.0000000E+000	59.8387	0.0000000E+000	0.0000000E+000	0.0000000E+000	-59.8387	0.0000000E+000	0.0000000E+000	0.0000000E+000	-30.1613	0.0000000E+000	0.0000000E+000	0.0000000E+000	30.1613	1.72085	59.8387	-1.91645e-06	-4.74931e-06	16235.8
100.032	6.4724	3.85604	7.53399	-30.7851	10.8417	0.277655	-0.0161371	412.61	108.087	1	10	0.00474859	0.000630289	0	0.000155024	0.114029	0.0679347	0.132732	30.7851	108087	181425	211182	-59.2149	0.0000000E+000	0.0000000E+000	0.0000000E+000	59.2149	0.0000000E+000	0.0000000E+000	0.0000000E+000	-59.2149	0.0000000E+000	0.0000000E+000	0.0000000E+000	-30.7851	0.0000000E+000	0.0000000E+000	0.0000000E+000	30.7851	1.67851	59.2149	-1.71942e-06	-4.48055e-06	17206
46.4415	8.90493	4.57488	10.0114	-27.1917	11.7755	0.277658	-0.0182335	749.089	156.425	1	10	0.00475199	0.00047466	0	0.000151764	0.0888473	0.045645	0.0998865	27.1917	156425	304479	342311	-62.8083	0.0000000E+000	0.0000000E+000	0.0000000E+000	62.8083	0.0000000E+000	0.0000000E+000	0.0000000E+000	-62.8083	0.0000000E+000	0.0000000E+000	0.0000000E+000	-27.1917	0.0000000E+000	0.0000000E+000	0.0000000E+000	27.1917	1.94648	62.8083	-1.80326e-06	-5.06267e-06	15227.9
21.5517	11.6101	4.53959	12.4661	-21.3556	12.6603	0.277652	-0.0214899	1626.75	215.722	1	10	0.00474264	0.000380444	0	0.000148171	0.0747098	0.0292117	0.0802177	21.3556	215722	551716	592391	-68.6444	0.0000000E+000	0.0000000E+000	0.0000000E+000	68.6444	0.0000000E+000	0.0000000E+000	0.0000000E+000	-68.6444	0.0000000E+000	0.0000000E+000	0.0000000E+000	-21.3556	0.0000000E+000	0.0000000E+000	0.0000000E+000	21.3556	2.55753	68.6444	-1.15284e-06	-5.96673e-06	12920.1
10.0032	13.995	3.69015	14.4733	-14.7713	13.8647	0.277749	-0.0065192	4311.59	280.278	1	11	0.00471967	0.000326095	0	0.000142258	0.0668093	0.017616	0.0690927	14.7713	280278	1.06296e+06	1.09929e+06	-75.2287	0.0000000E+000	0.0000000E+000	0.0000000E+000	75.2287	0.0000000E+000	0.0000000E+000	0.0000000E+000	-75.2287	0.0000000E+000	0.0000000E+000	0.0000000E+000	-14.7713	0.0000000E+000	0.0000000E+000	0.0000000E+000	14.7713	3.79253	75.2287	-3.17841e-06	-1.8107e-06	42604.8
4.63925	15.7994	3.1224	16.1049	-11.1792	14.7253	0.277687	-0.00504461	10987.1	412.992	1	11	0.00474915	0.000294887	0	0.000140503	0.0609145	0.0120384	0.0620927	11.1792	412992	2.08974e+06	2.13016e+06	-78.8208	0.0000000E+000	0.0000000E+000	0.0000000E+000	78.8208	0.0000000E+000	0.0000000E+000	0.0000000E+000	-78.8208	0.0000000E+000	0.0000000E+000	0.0000000E+000	-11.1792	0.0000000E+000	0.0000000E+000	0.0000000E+000	11.1792	5.06001	78.8208	-4.77342e-06	-1.40082e-06	55046.2
2.15577	17.0192	2.41101	17.1891	-8.0631	16.4518	0.277694	-0.00417427	30621	602.434	1	11	0.00473608	0.000275528	0	0.000143536	0.0576012	0.00816002	0.0581763	8.0631	602434	4.25256e+06	4.29502e+06	-81.9369	0.0000000E+000	0.0000000E+000	0.0000000E+000	81.9369	0.0000000E+000	0.0000000E+000	0.0000000E+000	-81.9369	0.0000000E+000	0.0000000E+000	0.0000000E+000	-8.0631	0.0000000E+000	0.0000000E+000	0.0000000E+000	8.0631	7.05896	81.9369	4.47215e-06	-1.15917e-06	66525.3
1.00006	17.9225	1.86695	18.0195	-5.94693	21.1152	0.27773	-0.00245653	85243.2	915.04	1	12	0.00472786	0.000262375	0	0.000141872	0.0551968	0.00574973	0.0554955	5.94693	915040	8.78428e+06	8.83182e+06	-84.0531	0.0000000E+000	0.0000000E+000	0.0000000E+000	84.0531	0.0000000E+000	0.0000000E+000	0.0000000E+000	-84.0531	0.0000000E+000	0.0000000E+000	0.0000000E+000	-5.94693	0.0000000E+000	0.0000000E+000	0.0000000E+000	5.94693	9.59989	84.0531	-5.11098e-06	-6.82252e-07	113058
0.464091	18.6024	1.55901	18.6676	-4.7906	28.8	0.277697	-0.00202546	219973	1534.23	1	12	0.00473618	0.000253712	0	0.000111221	0.0533817	0.00447376	0.0535688	4.7906	1.53423e+06	1.83067e+07	1.83709e+07	-85.2094	0.0000000E+000	0.0000000E+000	0.0000000E+000	85.2094	0.0000000E+000	0.0000000E+000	0.0000000E+000	-85.2094	0.0000000E+000	0.0000000E+000	0.0000000E+000	-4.7906	0.0000000E+000	0.0000000E+000	0.0000000E+000	4.7906	11.9322	85.2094	-1.74015e-05	-5.62463e-07	137103
0.215268	19.156	1.73631	19.2345	-5.17916	45.28	0.277702	-0.00400999	425808	3469.8	1	12	0.00473931	0.000246395	0	0.000100636	0.0517775	0.00469313	0.0519898	5.17916	3.4698e+06	3.82809e+07	3.84378e+07	-84.8208	0.0000000E+000	0.0000000E+000	0.0000000E+000	84.8208	0.0000000E+000	0.0000000E+000	0.0000000E+000	-84.8208	0.0000000E+000	0.0000000E+000	0.0000000E+000	-5.17916	0.0000000E+000	0.0000000E+000	0.0000000E+000	5.17916	11.0326	84.8208	2.17429e-06	-1.11358e-06	69252.6
0.0999041	19.7908	2.38183	19.9337	-6.86255	80.6866	0.277732	-0.00239897	668845	9549.36	1	12	0.00473861	0.000237719	0	0.000178356	0.049807	0.00599428	0.0501664	6.86255	9.54936e+06	7.93464e+07	7.9919e+07	-83.1374	0.0000000E+000	0.0000000E+000	0.0000000E+000	83.1374	0.0000000E+000	0.0000000E+000	0.0000000E+000	-83.1374	0.0000000E+000	0.0000000E+000	0.0000000E+000	-6.86255	0.0000000E+000	0.0000000E+000	0.0000000E+000	6.86255	8.30908	83.1374	5.06784e-05	-6.66271e-07	115771
0.0464052	20.9783	3.85234	21.3291	-10.4055	156.923	0.277738	0.000638362	890286	29042.4	1	12	0.00474385	0.000222412	0	0.000257327	0.0461133	0.00846798	0.0468843	10.4055	2.90424e+07	1.58154e+08	1.60798e+08	-79.5945	0.0000000E+000	0.0000000E+000	0.0000000E+000	79.5945	0.0000000E+000	0.0000000E+000	0.0000000E+000	-79.5945	0.0000000E+000	0.0000000E+000	0.0000000E+000	-10.4055	0.0000000E+000	0.0000000E+000	0.0000000E+000	10.4055	5.44561	79.5945	2.27071e-05	1.77297e-07	435079
0.0215268	22.4517	6.46639	23.3643	-16.0671	321.152	0.27772	0.000433877	1.14335e+06	87578.2	1	12	0.00474558	0.000203112	0	-7.2489e-05	0.0411284	0.0118455	0.0428003	16.0671	8.75782e+07	3.04077e+08	3.16437e+08	-73.9329	0.0000000E+000	0.0000000E+000	0.0000000E+000	73.9329	0.0000000E+000	0.0000000E+000	0.0000000E+000	-73.9329	0.0000000E+000	0.0000000E+000	0.0000000E+000	-16.0671	0.0000000E+000	0.0000000E+000	0.0000000E+000	16.0671	3.47206	73.9329	-0.000244466	1.20496e-07	640089
0.0146812	23.5765	8.38419	25.0229	-19.5763	464.347	0.277711	-0.000471424	1.293e+06	145160	1	12	0.00474672	0.000189695	0	-0.00043839	0.0376534	0.0133902	0.0399634	19.5763	1.4516e+08	4.08191e+08	4.33233e+08	-70.4238	0.0000000E+000	0.0000000E+000	0.0000000E+000	70.4238	0.0000000E+000	0.0000000E+000	0.0000000E+000	-70.4238	0.0000000E+000	0.0000000E+000	0.0000000E+000	-19.5763	0.0000000E+000	0.0000000E+000	0.0000000E+000	19.5763	2.81201	70.4238	-0.000365901	-1.3092e-07	589089

0.0100092	25.0056	11.1587	27.3824	-24.0487	674.368	0.277723	-0.00096359	1.42498e+06	236642	1	12	0.00474502	0.000173287	0	-0.000727851	0.0333498	0.0148823	0.0365198	24.0487	2.36642e+08	5.30293e+08	5.80698e+08	-65.9513	0.0000000E+000	0.0000000E+000	0.0000000E+000	65.9513	0.0000000E+000	0.0000000E+000	0.0000000E+000	-65.9513	0.0000000E+000	0.0000000E+000	0.0000000E+000	-24.0487	0.0000000E+000	0.0000000E+000	0.0000000E+000	24.0487	2.2409	65.9513	-0.000289461	-2.67611e-07	288217