File: txt/17924_R288_UA670_SOC00_C05.mpt
EC-Lab ASCII FILE
Nb header lines : 64

Potentio Electrochemical Impedance Spectroscopy

Run on channel : 5 (SN 65912)
User :
CE vs. WE compliance from -10 V to 10 V
Electrode connection : standard
Potential control : Ewe
Ewe ctrl range : min = -10.00 V, max = 10.00 V
Safety Limits :
	Do not start on E overload
Acquisition started on : 09/29/2025 15:13:33.012
Loaded Setting File :  C:\Users\Celltest\OneDrive - store-dot.com\Documents\EC-Lab\Data\@Biologic Test Protocols\anode half cell EIS SOC00.mps
Saved on :
	File : 17924_R288_UA670_SOC00_C05.mpr
	Directory : C:\Users\Celltest\OneDrive - store-dot.com\Documents\EC-Lab\Data\Charmaine\
	Host : 169.254.61.224
Device : VMP-3e (SN .003165)
Address : USB
EC-LAB for windows v11.62 (software)
Internet server v27.00 (firmware)
Command interpretor v12.03 (firmware)
Electrode material :
Initial state :
Electrolyte :
Comments :
Electrode surface area : 0.001 cm²
Characteristic mass : 0.001 g
Equivalent Weight : 0.000 g/eq.
Density : 0.000 g/cm3
Volume (V) : 0.001 cm³
Record Ece
Cycle Definition : Charge/Discharge alternance
Mode                Single sine
E (V)               0.0000
vs.                 Eoc
tE (h:m:s)          0:00:0.0000
record              0
dI                  0.000
unit dI             mA
dt (s)              0.000
fi                  100.000
unit fi             kHz
ff                  10.000
unit ff             mHz
Nd                  6
Points              per decade
spacing             Logarithmic
Va (mV)             5.0
pw                  0.10
Na                  2
corr                0
E range min (V)     -10.000
E range max (V)     10.000
I Range             Auto
Bandwidth           5
nc cycles           0
goto Ns'            0
nr cycles           0
inc. cycle          0

freq/Hz	Re(Z)/Ohm	-Im(Z)/Ohm	|Z|/Ohm	Phase(Z)/deg	time/s	<Ewe>/V	<I>/mA	Cs/µF	Cp/µF	cycle number	I Range	|Ewe|/V	|I|/A	Ns	(Q-Qo)/mA.h	<Ece>/V	|Ece|/V	Phase(Zce)/deg	|Zce|/Ohm	Re(Zce)/Ohm	-Im(Zce)/Ohm	Phase(Zwe-ce)/deg	|Zwe-ce|/Ohm	Re(Zwe-ce)/Ohm	-Im(Zwe-ce)/Ohm	Re(Y)/Ohm-1	Im(Y)/Ohm-1	|Y|/Ohm-1	Phase(Y)/deg	Re(C)/nF	Im(C)/nF	|C|/nF	Phase(C)/deg	Re(M)	Im(M)	|M|	Phase(M)/deg	Re(Permittivity)	Im(Permittivity)	|Permittivity|	Phase(Permittivity)/deg	Re(Resistivity)/Ohm.cm	Im(Resistivity)/Ohm.cm	|Resistivity|/Ohm.cm	Phase(Resistivity)/deg	Re(Conductivity)/mS/cm	Im(Conductivity)/mS/cm	|Conductivity|/mS/cm	Phase(Conductivity)/deg	Tan(Delta)	Loss Angle(Delta)/deg	dq/mA.h	Pwe/W	Pce/W	Pwe-ce/W	<Ewe-Ece>/V	Rwe/Ohm	Rce/Ohm	Rwe-ce/Ohm		Ewe-Ece/V
100004	0.786238	0.172073	0.804847	-12.3449	1.72656	0.260031	0.0288767	9.24894	0.422755	1	9	0.0046072	0.00572432	0	-6.86269e-06	-4.14579e-05	4.51399e-05	88.6257	0.00788565	0.000189122	-0.00788338	-11.7928	0.803384	0.786427	0.164189	1.21374	0.265635	1.24247	12.3449	422.756	1931.66	1977.38	-77.6551	0.0000000E+000	0.0000000E+000	0.0000000E+000	77.6551	0.0000000E+000	0.0000000E+000	0.0000000E+000	-77.6551	0.0000000E+000	0.0000000E+000	0.0000000E+000	-12.3449	0.0000000E+000	0.0000000E+000	0.0000000E+000	12.3449	4.56922	77.6551	-6.86269e-06	7.50881e-06	-1.19716e-09	7.51001e-06	0.260072	9004.88	1.43569	9006.31
31621.1	0.926957	0.242715	0.958207	-14.6729	2.99955	0.260004	0.0201253	20.737	1.33052	1	9	0.00505826	0.00527888	0	6.14266e-06	-0.000251461	2.47228e-05	72.9572	0.00468334	0.00137263	-0.00447768	-14.3932	0.958412	0.92833	0.238237	1.00958	0.264349	1.04362	14.6729	1330.52	5081.41	5252.71	-75.3271	0.0000000E+000	0.0000000E+000	0.0000000E+000	75.3271	0.0000000E+000	0.0000000E+000	0.0000000E+000	-75.3271	0.0000000E+000	0.0000000E+000	0.0000000E+000	-14.6729	0.0000000E+000	0.0000000E+000	0.0000000E+000	14.6729	3.81912	75.3271	1.94636e-05	5.23265e-06	-5.06073e-09	5.23771e-06	0.260255	12919.3	12.4948	12931.8
10002.2	1.11956	0.350183	1.17305	-17.3689	4.14855	0.260001	0.0216893	45.4389	4.04934	1	9	0.00458231	0.00390631	0	8.14776e-06	-0.000251461	9.09559e-06	-122.262	0.00232844	-0.0012429	0.00196896	-17.4789	1.17246	1.11832	0.352152	0.813606	0.254484	0.852477	17.3689	4049.34	12946.1	13564.6	-72.6311	0.0000000E+000	0.0000000E+000	0.0000000E+000	72.6311	0.0000000E+000	0.0000000E+000	0.0000000E+000	-72.6311	0.0000000E+000	0.0000000E+000	0.0000000E+000	-17.3689	0.0000000E+000	0.0000000E+000	0.0000000E+000	17.3689	3.19708	72.6311	6.09555e-07	5.63923e-06	-5.45402e-09	5.64468e-06	0.260252	11987.5	11.5938	11999.1
3163.08	1.39104	0.519207	1.48478	-20.4681	5.17068	0.259733	-0.187785	96.9102	11.8502	1	9	0.00453492	0.00305427	0	-1.4937e-05	-4.14579e-05	9.74669e-06	-89.4229	0.00319117	3.21438e-05	0.00319101	-20.5829	1.48593	1.39107	0.522398	0.63098	0.235513	0.6735	20.4681	11850.2	31748.7	33888.1	-69.5319	0.0000000E+000	0.0000000E+000	0.0000000E+000	69.5319	0.0000000E+000	0.0000000E+000	0.0000000E+000	-69.5319	0.0000000E+000	0.0000000E+000	0.0000000E+000	-20.4681	0.0000000E+000	0.0000000E+000	0.0000000E+000	20.4681	2.67917	69.5319	-1.64681e-05	-4.87738e-05	7.78515e-09	-4.87816e-05	0.259774	1383.14	0.220774	1383.36
1000.32	1.76318	0.84952	1.95717	-25.7252	6.7378	0.259821	-0.0675373	187.287	35.2857	1	9	0.00491736	0.00251249	0	-4.90201e-05	-3.27544e-06	8.69955e-06	-92.0531	0.00346252	-0.000124048	0.0034603	-25.818	1.95856	1.76306	0.852981	0.460301	0.221778	0.510943	25.7252	35285.7	73235.7	81293	-64.2748	0.0000000E+000	0.0000000E+000	0.0000000E+000	64.2748	0.0000000E+000	0.0000000E+000	0.0000000E+000	-64.2748	0.0000000E+000	0.0000000E+000	0.0000000E+000	-25.7252	0.0000000E+000	0.0000000E+000	0.0000000E+000	25.7252	2.07551	64.2748	-9.9051e-06	-1.75476e-05	2.21214e-10	-1.75478e-05	0.259824	3847.07	0.0484982	3847.12
316.316	2.46226	1.57218	2.92138	-32.5586	8.33208	0.259896	-0.0357133	320.035	92.6881	1	10	0.00494552	0.00169287	0	-7.48766e-05	7.30894e-05	5.71145e-06	-48.715	0.00337383	0.00222607	0.00253522	-32.577	2.92462	2.46449	1.57471	0.288508	0.184215	0.342304	32.5586	92688.1	145163	172231	-57.4414	0.0000000E+000	0.0000000E+000	0.0000000E+000	57.4414	0.0000000E+000	0.0000000E+000	0.0000000E+000	-57.4414	0.0000000E+000	0.0000000E+000	0.0000000E+000	-32.5586	0.0000000E+000	0.0000000E+000	0.0000000E+000	32.5586	1.56615	57.4414	-8.13027e-06	-9.28177e-06	-2.61027e-09	-9.27916e-06	0.259823	7277.29	2.04656	7275.25
100.032	4.14582	2.41494	4.79789	-30.2208	9.67985	0.259893	-0.0349463	658.832	166.912	1	10	0.00489258	0.00101974	0	-8.76189e-05	0.000321275	9.07009e-06	-6.32911	0.00889454	0.00884033	0.000980528	-30.1779	4.80602	4.15466	2.41592	0.180098	0.104907	0.208425	30.2208	166912	286544	331613	-59.7792	0.0000000E+000	0.0000000E+000	0.0000000E+000	59.7792	0.0000000E+000	0.0000000E+000	0.0000000E+000	-59.7792	0.0000000E+000	0.0000000E+000	0.0000000E+000	-30.2208	0.0000000E+000	0.0000000E+000	0.0000000E+000	30.2208	1.71674	59.7792	-5.05832e-06	-9.08232e-06	-1.12274e-08	-9.07109e-06	0.259572	7436.93	9.19339	7427.73
31.6296	6.35462	2.25466	6.74275	-19.535	11.0086	0.259891	-0.0395224	2231.75	249.537	1	10	0.00487841	0.000723505	0	-0.00010184	0.00024491	7.96988e-06	-53.6128	0.0110156	0.00653491	0.00886789	-19.5874	6.75188	6.36115	2.26353	0.13977	0.0495915	0.148307	19.535	249537	703303	746260	-70.465	0.0000000E+000	0.0000000E+000	0.0000000E+000	70.465	0.0000000E+000	0.0000000E+000	0.0000000E+000	-70.465	0.0000000E+000	0.0000000E+000	0.0000000E+000	-19.535	0.0000000E+000	0.0000000E+000	0.0000000E+000	19.535	2.81844	70.465	-5.80029e-06	-1.02715e-05	-9.67945e-09	-1.02618e-05	0.259646	6575.77	6.19674	6569.58
10.0032	7.76026	1.49701	7.90333	-10.9187	12.3408	0.259899	-0.0333118	10628.1	381.317	1	10	0.00487561	0.000616906	0	-0.000113546	0.000111272	9.91148e-06	29.6102	0.0160664	0.0139683	-0.00793838	-10.8431	7.91555	7.77423	1.48908	0.124238	0.0239666	0.126529	10.9187	381318	1.97668e+06	2.01313e+06	-79.0813	0.0000000E+000	0.0000000E+000	0.0000000E+000	79.0813	0.0000000E+000	0.0000000E+000	0.0000000E+000	-79.0813	0.0000000E+000	0.0000000E+000	0.0000000E+000	-10.9187	0.0000000E+000	0.0000000E+000	0.0000000E+000	10.9187	5.18382	79.0813	1.35984e-07	-8.65771e-06	-3.70666e-09	-8.65401e-06	0.259788	7802.03	3.34032	7798.69
3.1604	8.55393	1.00239	8.61246	-6.68373	14.1185	0.259912	-0.0165634	50239	680.553	1	11	0.00488276	0.000566941	0	-0.000125577	-4.14579e-05	3.35228e-06	7.78283	0.00591293	0.00585846	-0.000800721	-6.67391	8.61819	8.55979	1.00159	0.115322	0.013514	0.116111	6.68373	680553	5.8075e+06	5.84724e+06	-83.3163	0.0000000E+000	0.0000000E+000	0.0000000E+000	83.3163	0.0000000E+000	0.0000000E+000	0.0000000E+000	-83.3163	0.0000000E+000	0.0000000E+000	0.0000000E+000	-6.68373	0.0000000E+000	0.0000000E+000	0.0000000E+000	6.68373	8.53351	83.3163	-3.48643e-06	-4.30504e-06	6.86684e-10	-4.30573e-06	0.259954	15692	2.50298	15694.5
1.00006	9.06134	0.789343	9.09566	-4.97853	18.712	0.25992	-0.0163912	201617	1518.41	1	11	0.00488174	0.000536711	0	-0.000167064	-9.87315e-05	3.85765e-06	-15.9277	0.00718757	0.00691163	0.00197244	-4.98712	9.10271	9.06825	0.791315	0.109528	0.00954108	0.109943	4.97853	1.51841e+06	1.74308e+07	1.74968e+07	-85.0215	0.0000000E+000	0.0000000E+000	0.0000000E+000	85.0215	0.0000000E+000	0.0000000E+000	0.0000000E+000	-85.0215	0.0000000E+000	0.0000000E+000	0.0000000E+000	-4.97853	0.0000000E+000	0.0000000E+000	0.0000000E+000	4.97853	11.4796	85.0215	-1.11733e-05	-4.26039e-06	1.61832e-09	-4.26201e-06	0.260019	15857.3	6.02346	15863.3
0.316193	9.43953	0.910223	9.48331	-5.50782	33.0568	0.25992	-0.0121515	552993	5094.43	1	11	0.00488127	0.000514722	0	-0.000138924	0.000225819	2.1709e-06	-40.553	0.00421761	0.00320456	0.00274208	-5.52245	9.48676	9.44273	0.912965	0.104962	0.0101211	0.105448	5.50782	5.09443e+06	5.28321e+07	5.30772e+07	-84.4922	0.0000000E+000	0.0000000E+000	0.0000000E+000	84.4922	0.0000000E+000	0.0000000E+000	0.0000000E+000	-84.4922	0.0000000E+000	0.0000000E+000	0.0000000E+000	-5.50782	0.0000000E+000	0.0000000E+000	0.0000000E+000	5.50782	10.3706	84.4922	1.60892e-05	-3.15842e-06	-2.74405e-09	-3.15568e-06	0.259694	21389.9	18.5836	21371.3
0.0999041	9.9697	1.65351	10.1059	-9.41699	78.2649	0.259923	-0.00422405	963451	25792.6	1	11	0.00488388	0.000483271	0	-0.000349587	0.000111272	2.50538e-06	-2.44677	0.00518422	0.00517949	0.00022132	-9.41343	10.111	9.97488	1.65373	0.0976187	0.0161904	0.0989522	9.41699	2.57926e+07	1.55514e+08	1.57638e+08	-80.583	0.0000000E+000	0.0000000E+000	0.0000000E+000	80.583	0.0000000E+000	0.0000000E+000	0.0000000E+000	-80.583	0.0000000E+000	0.0000000E+000	0.0000000E+000	-9.41699	0.0000000E+000	0.0000000E+000	0.0000000E+000	9.41699	6.02941	80.583	-0.000146635	-1.09793e-06	-4.70018e-10	-1.09746e-06	0.259812	61534.1	26.3425	61507.7
0.0315922	11.0874	3.42346	11.6039	-17.1591	221.148	0.259919	-0.00898514	1.47155e+06	128084	1	11	0.00488337	0.000420837	0	-0.00105072	0.000130363	1.07161e-06	7.25093	0.00254638	0.00252602	-0.000321392	-17.1539	11.6063	11.09	3.42314	0.0823418	0.0254246	0.0861776	17.1591	1.28084e+08	4.14821e+08	4.34145e+08	-72.8409	0.0000000E+000	0.0000000E+000	0.0000000E+000	72.8409	0.0000000E+000	0.0000000E+000	0.0000000E+000	-72.8409	0.0000000E+000	0.0000000E+000	0.0000000E+000	-17.1591	0.0000000E+000	0.0000000E+000	0.0000000E+000	17.1591	3.23867	72.8409	-0.00018812	-2.33541e-06	-1.17133e-09	-2.33423e-06	0.259788	28927.6	14.5087	28913.1
0.0100092	13.1101	7.33427	15.0222	-29.2243	672.371	0.25992	-0.00631666	2.16803e+06	516789	1	11	0.00488303	0.000325055	0	-5.3882e-05	-4.14579e-05	2.21483e-06	-2.94002	0.0068137	0.00680473	0.000349479	-29.2128	15.0283	13.1169	7.33462	0.0580951	0.0325006	0.0665683	29.2243	5.16789e+08	9.23766e+08	1.0585e+09	-60.7757	0.0000000E+000	0.0000000E+000	0.0000000E+000	60.7757	0.0000000E+000	0.0000000E+000	0.0000000E+000	-60.7757	0.0000000E+000	0.0000000E+000	0.0000000E+000	-29.2243	0.0000000E+000	0.0000000E+000	0.0000000E+000	29.2243	1.78751	60.7757	0.000469744	-1.64183e-06	2.61875e-10	-1.64209e-06	0.259962	41148.4	6.56326	41154.9