File: txt/17920_R288_UA670_SOC00_C01.mpt
EC-Lab ASCII FILE
Nb header lines : 64

Potentio Electrochemical Impedance Spectroscopy

Run on channel : 1 (SN 66354)
User :
CE vs. WE compliance from -10 V to 10 V
Electrode connection : standard
Potential control : Ewe
Ewe ctrl range : min = -10.00 V, max = 10.00 V
Safety Limits :
	Do not start on E overload
Acquisition started on : 09/29/2025 15:12:49.008
Loaded Setting File :  C:\Users\Celltest\OneDrive - store-dot.com\Documents\EC-Lab\Data\@Biologic Test Protocols\anode half cell EIS SOC00.mps
Saved on :
	File : 17920_R288_UA670_SOC00_C01.mpr
	Directory : C:\Users\Celltest\OneDrive - store-dot.com\Documents\EC-Lab\Data\Charmaine\
	Host : 169.254.61.224
Device : VMP-3e (SN .003165)
Address : USB
EC-LAB for windows v11.62 (software)
Internet server v27.00 (firmware)
Command interpretor v12.03 (firmware)
Electrode material :
Initial state :
Electrolyte :
Comments :
Electrode surface area : 0.001 cm²
Characteristic mass : 0.001 g
Equivalent Weight : 0.000 g/eq.
Density : 0.000 g/cm3
Volume (V) : 0.001 cm³
Record Ece
Cycle Definition : Charge/Discharge alternance
Mode                Single sine
E (V)               0.0000
vs.                 Eoc
tE (h:m:s)          0:00:0.0000
record              0
dI                  0.000
unit dI             mA
dt (s)              0.000
fi                  100.000
unit fi             kHz
ff                  10.000
unit ff             mHz
Nd                  6
Points              per decade
spacing             Logarithmic
Va (mV)             5.0
pw                  0.10
Na                  2
corr                0
E range min (V)     -10.000
E range max (V)     10.000
I Range             Auto
Bandwidth           5
nc cycles           0
goto Ns'            0
nr cycles           0
inc. cycle          0

freq/Hz	Re(Z)/Ohm	-Im(Z)/Ohm	|Z|/Ohm	Phase(Z)/deg	time/s	<Ewe>/V	<I>/mA	Cs/µF	Cp/µF	cycle number	I Range	|Ewe|/V	|I|/A	Ns	(Q-Qo)/mA.h	<Ece>/V	|Ece|/V	Phase(Zce)/deg	|Zce|/Ohm	Re(Zce)/Ohm	-Im(Zce)/Ohm	Phase(Zwe-ce)/deg	|Zwe-ce|/Ohm	Re(Zwe-ce)/Ohm	-Im(Zwe-ce)/Ohm	Re(Y)/Ohm-1	Im(Y)/Ohm-1	|Y|/Ohm-1	Phase(Y)/deg	Re(C)/nF	Im(C)/nF	|C|/nF	Phase(C)/deg	Re(M)	Im(M)	|M|	Phase(M)/deg	Re(Permittivity)	Im(Permittivity)	|Permittivity|	Phase(Permittivity)/deg	Re(Resistivity)/Ohm.cm	Im(Resistivity)/Ohm.cm	|Resistivity|/Ohm.cm	Phase(Resistivity)/deg	Re(Conductivity)/mS/cm	Im(Conductivity)/mS/cm	|Conductivity|/mS/cm	Phase(Conductivity)/deg	Tan(Delta)	Loss Angle(Delta)/deg	dq/mA.h	Pwe/W	Pce/W	Pwe-ce/W	<Ewe-Ece>/V	Rwe/Ohm	Rce/Ohm	Rwe-ce/Ohm		Ewe-Ece/V
100004	0.833952	0.188716	0.855038	-12.7508	1.72552	0.262449	0.0987195	8.43326	0.410811	1	9	0.00493416	0.00577069	0	-4.69387e-06	4.04943e-05	5.07011e-05	93.3705	0.00878595	-0.000516554	-0.00877076	-12.1836	0.85264	0.833435	0.179945	1.1407	0.25813	1.16954	12.7508	410.811	1815.41	1861.31	-77.2492	0.0000000E+000	0.0000000E+000	0.0000000E+000	77.2492	0.0000000E+000	0.0000000E+000	0.0000000E+000	-77.2492	0.0000000E+000	0.0000000E+000	0.0000000E+000	-12.7508	0.0000000E+000	0.0000000E+000	0.0000000E+000	12.7508	4.41909	77.2492	-4.69387e-06	2.59088e-05	3.99757e-09	2.59048e-05	0.262408	2658.53	0.410195	2658.12
31621.1	0.989136	0.281389	1.02838	-15.88	2.99854	0.262439	0.107884	17.8869	1.33918	1	9	0.00509109	0.00495058	0	-3.07125e-05	-0.000150279	1.78018e-05	46.9326	0.0035959	0.00245549	-0.00262699	-15.702	1.03003	0.991592	0.278762	0.935291	0.266071	0.972401	15.88	1339.18	4707.49	4894.27	-74.12	0.0000000E+000	0.0000000E+000	0.0000000E+000	74.12	0.0000000E+000	0.0000000E+000	0.0000000E+000	-74.12	0.0000000E+000	0.0000000E+000	0.0000000E+000	-15.88	0.0000000E+000	0.0000000E+000	0.0000000E+000	15.88	3.51519	74.12	9.22472e-06	2.8313e-05	-1.62127e-08	2.83292e-05	0.262589	2432.6	1.39297	2434
10002.2	1.21314	0.419765	1.28371	-19.0863	4.14953	0.262435	0.0986077	37.9068	4.05315	1	9	0.00487516	0.0037977	0	-8.40612e-06	0.000250345	8.65032e-06	-87.6421	0.00227778	9.37098e-05	0.00227585	-19.1809	1.28455	1.21324	0.422041	0.736166	0.254724	0.77899	19.0863	4053.15	11713.8	12395.2	-70.9137	0.0000000E+000	0.0000000E+000	0.0000000E+000	70.9137	0.0000000E+000	0.0000000E+000	0.0000000E+000	-70.9137	0.0000000E+000	0.0000000E+000	0.0000000E+000	-19.0863	0.0000000E+000	0.0000000E+000	0.0000000E+000	19.0863	2.89006	70.9137	1.33567e-05	2.58781e-05	2.46859e-08	2.58535e-05	0.262185	2661.41	2.53879	2658.87
3163.08	1.53887	0.623068	1.66022	-22.0424	5.17168	0.262188	-0.0808465	80.756	11.374	1	9	0.00457046	0.00275292	0	8.64633e-06	0.000307577	5.6568e-06	-70.9812	0.00205484	0.000669627	0.00194266	-22.0958	1.66157	1.53954	0.62501	0.558304	0.22605	0.60233	22.0424	11374	28091.9	30307.1	-67.9576	0.0000000E+000	0.0000000E+000	0.0000000E+000	67.9576	0.0000000E+000	0.0000000E+000	0.0000000E+000	-67.9576	0.0000000E+000	0.0000000E+000	0.0000000E+000	-22.0424	0.0000000E+000	0.0000000E+000	0.0000000E+000	22.0424	2.46983	67.9576	-4.35729e-06	-2.1197e-05	-2.48665e-08	-2.11721e-05	0.261881	3243.04	3.80445	3239.24
1000.32	2.02073	0.979388	2.24556	-25.8581	6.73978	0.262255	0.0135188	162.452	30.9019	1	9	0.0049655	0.00221125	0	8.78e-06	7.86489e-05	6.79819e-06	-50.5218	0.00307437	0.00195464	0.00237301	-25.8908	2.24836	2.02269	0.981761	0.400735	0.194225	0.445322	25.8581	30901.9	63758.6	70852.6	-64.1419	0.0000000E+000	0.0000000E+000	0.0000000E+000	64.1419	0.0000000E+000	0.0000000E+000	0.0000000E+000	-64.1419	0.0000000E+000	0.0000000E+000	0.0000000E+000	-25.8581	0.0000000E+000	0.0000000E+000	0.0000000E+000	25.8581	2.06326	64.1419	-6.17923e-07	3.54537e-06	1.06323e-09	3.5443e-06	0.262177	19399.4	5.81776	19393.6
316.316	2.81287	1.72768	3.30107	-31.5584	8.33403	0.262334	-0.0258915	291.231	79.772	1	10	0.00497712	0.00150773	0	1.12525e-05	2.33964e-06	8.08431e-06	-38.5958	0.00536191	0.00419069	0.00334488	-31.5698	3.3064	2.81706	1.73102	0.25813	0.158545	0.302932	31.5584	79772	129879	152421	-58.4416	0.0000000E+000	0.0000000E+000	0.0000000E+000	58.4416	0.0000000E+000	0.0000000E+000	0.0000000E+000	-58.4416	0.0000000E+000	0.0000000E+000	0.0000000E+000	-31.5584	0.0000000E+000	0.0000000E+000	0.0000000E+000	31.5584	1.62812	58.4416	-2.50018e-06	-6.79223e-06	-6.05768e-11	-6.79217e-06	0.262332	10132.1	0.0903635	10132
100.032	4.54405	2.75757	5.31532	-31.2516	9.68082	0.262327	-0.0268456	576.972	155.292	1	10	0.00494296	0.000929947	0	1.23547e-07	0.000288499	8.97136e-06	-45.3812	0.00964718	0.00677605	0.00686682	-31.2769	5.32467	4.55083	2.76443	0.160837	0.0976041	0.188136	31.2516	155292	255898	299331	-58.7484	0.0000000E+000	0.0000000E+000	0.0000000E+000	58.7484	0.0000000E+000	0.0000000E+000	0.0000000E+000	-58.7484	0.0000000E+000	0.0000000E+000	0.0000000E+000	-31.2516	0.0000000E+000	0.0000000E+000	0.0000000E+000	31.2516	1.64785	58.7484	-1.90554e-06	-7.04232e-06	-7.74493e-09	-7.03458e-06	0.262039	9771.71	10.7466	9760.96
31.6296	7.22434	2.97059	7.81124	-22.3521	11.0096	0.262319	-0.0282097	1693.88	244.98	1	10	0.00493225	0.00063143	0	-8.44468e-06	-9.30469e-05	1.1967e-05	11.3184	0.0189522	0.0185836	-0.00371956	-22.2752	7.82702	7.24292	2.96687	0.118402	0.0486859	0.128021	22.3521	244980	595779	644180	-67.6479	0.0000000E+000	0.0000000E+000	0.0000000E+000	67.6479	0.0000000E+000	0.0000000E+000	0.0000000E+000	-67.6479	0.0000000E+000	0.0000000E+000	0.0000000E+000	-22.3521	0.0000000E+000	0.0000000E+000	0.0000000E+000	22.3521	2.43195	67.6479	-3.06005e-06	-7.39992e-06	2.62482e-09	-7.40254e-06	0.262412	9298.89	3.29841	9302.19
10.0032	9.2859	2.13296	9.52772	-12.9364	12.3418	0.262317	-0.0265363	7459.3	373.84	1	10	0.00492675	0.000517097	0	-1.49775e-05	9.77262e-05	8.98475e-06	-21.9131	0.0173754	0.01612	0.00648447	-12.9527	9.54488	9.30202	2.13945	0.102293	0.0234966	0.104957	12.9364	373840	1.62752e+06	1.66991e+06	-77.0636	0.0000000E+000	0.0000000E+000	0.0000000E+000	77.0636	0.0000000E+000	0.0000000E+000	0.0000000E+000	-77.0636	0.0000000E+000	0.0000000E+000	0.0000000E+000	-12.9364	0.0000000E+000	0.0000000E+000	0.0000000E+000	12.9364	4.35353	77.0636	-3.09253e-06	-6.9609e-06	-2.59329e-09	-6.95831e-06	0.262219	9885.21	3.68274	9881.53
3.1604	10.4852	1.47585	10.5885	-8.01212	14.1194	0.262363	-0.0109379	34122	662.906	1	11	0.00493224	0.00046581	0	-1.78956e-05	0.000307577	1.95309e-06	-3.3974	0.00419288	0.00418551	0.000248475	-8.0103	10.5927	10.4893	1.4761	0.0935201	0.0131636	0.0944419	8.01212	662906	4.70959e+06	4.75602e+06	-81.9879	0.0000000E+000	0.0000000E+000	0.0000000E+000	81.9879	0.0000000E+000	0.0000000E+000	0.0000000E+000	-81.9879	0.0000000E+000	0.0000000E+000	0.0000000E+000	-8.01212	0.0000000E+000	0.0000000E+000	0.0000000E+000	8.01212	7.10446	81.9879	3.31361e-06	-2.86971e-06	-3.36425e-09	-2.86634e-06	0.262056	23986.6	28.1202	23958.5
1.00006	11.2623	1.12081	11.318	-5.68325	18.7126	0.262365	-0.00734916	141991	1392.47	1	11	0.00493183	0.000435752	0	-3.23294e-05	0.000250345	4.8703e-06	-14.7413	0.0111768	0.0108089	0.00284398	-5.69215	11.329	11.2731	1.12365	0.0879208	0.00874971	0.0883551	5.68325	1.39247e+06	1.39921e+07	1.40613e+07	-84.3167	0.0000000E+000	0.0000000E+000	0.0000000E+000	84.3167	0.0000000E+000	0.0000000E+000	0.0000000E+000	-84.3167	0.0000000E+000	0.0000000E+000	0.0000000E+000	-5.68325	0.0000000E+000	0.0000000E+000	0.0000000E+000	5.68325	10.0484	84.3167	-1.51009e-05	-1.92816e-06	-1.83982e-09	-1.92632e-06	0.262115	35700	34.0644	35665.9
0.316193	11.8421	1.16167	11.8989	-5.6026	33.0531	0.262373	-0.008965	433298	4129.86	1	11	0.00493355	0.000414622	0	-0.000106665	0.000288499	2.66615e-06	-43.2976	0.0064303	0.00467998	0.00440982	-5.62152	11.904	11.8467	1.16608	0.0836399	0.00820479	0.0840414	5.6026	4.12986e+06	4.20999e+07	4.2302e+07	-84.3974	0.0000000E+000	0.0000000E+000	0.0000000E+000	84.3974	0.0000000E+000	0.0000000E+000	0.0000000E+000	-84.3974	0.0000000E+000	0.0000000E+000	0.0000000E+000	-5.6026	0.0000000E+000	0.0000000E+000	0.0000000E+000	5.6026	10.194	84.3974	-1.96962e-05	-2.35218e-06	-2.58639e-09	-2.34959e-06	0.262085	29266.4	32.1806	29234.2
0.0999041	12.5113	1.92139	12.658	-8.7308	78.2613	0.262364	-0.00626269	829128	19103.8	1	11	0.00493636	0.000389979	0	-1.72798e-06	0.000269422	1.61277e-06	9.03355	0.00413553	0.00408424	-0.000649331	-8.72509	12.662	12.5154	1.92074	0.0780859	0.0119918	0.0790013	8.7308	1.91038e+07	1.24397e+08	1.25855e+08	-81.2692	0.0000000E+000	0.0000000E+000	0.0000000E+000	81.2692	0.0000000E+000	0.0000000E+000	0.0000000E+000	-81.2692	0.0000000E+000	0.0000000E+000	0.0000000E+000	-8.7308	0.0000000E+000	0.0000000E+000	0.0000000E+000	8.7308	6.51161	81.2692	6.2477e-05	-1.6431e-06	-1.68731e-09	-1.64141e-06	0.262094	41893.1	43.0202	41850.1
0.0315922	13.8	3.91006	14.3432	-15.8194	221.144	0.262361	-0.00284828	1.28842e+06	95747.8	1	11	0.00493224	0.000343872	0	-0.000311258	0.000154958	2.28112e-06	10.3195	0.00663362	0.00652631	-0.00118832	-15.8077	14.3492	13.8065	3.90887	0.0670787	0.0190059	0.0697193	15.8194	9.57478e+07	3.37929e+08	3.51231e+08	-74.1806	0.0000000E+000	0.0000000E+000	0.0000000E+000	74.1806	0.0000000E+000	0.0000000E+000	0.0000000E+000	-74.1806	0.0000000E+000	0.0000000E+000	0.0000000E+000	-15.8194	0.0000000E+000	0.0000000E+000	0.0000000E+000	15.8194	3.52936	74.1806	-0.00028491	-7.47278e-07	-4.41364e-10	-7.46837e-07	0.262206	92112.3	54.4041	92057.9
0.0100092	16.336	8.34375	18.3435	-27.0561	740.686	0.262362	-0.00811695	1.90573e+06	394294	1	12	0.00493377	0.000268966	0	-0.00225999	-0.000245665	2.49574e-06	12.9724	0.00927903	0.00904221	-0.00208297	-27.0374	18.3506	16.345	8.34167	0.0485492	0.0247969	0.0545153	27.0561	3.94294e+08	7.71977e+08	8.66843e+08	-62.9439	0.0000000E+000	0.0000000E+000	0.0000000E+000	62.9439	0.0000000E+000	0.0000000E+000	0.0000000E+000	-62.9439	0.0000000E+000	0.0000000E+000	0.0000000E+000	-27.0561	0.0000000E+000	0.0000000E+000	0.0000000E+000	27.0561	1.95787	62.9439	-0.000563176	-2.12958e-06	1.99405e-09	-2.13157e-06	0.262607	32322.7	30.2657	32352.9