File: txt/17923_R288_UA670_SOC00_C04.mpt
EC-Lab ASCII FILE
Nb header lines : 64

Potentio Electrochemical Impedance Spectroscopy

Run on channel : 4 (SN 66756)
User :
CE vs. WE compliance from -10 V to 10 V
Electrode connection : standard
Potential control : Ewe
Ewe ctrl range : min = -10.00 V, max = 10.00 V
Safety Limits :
	Do not start on E overload
Acquisition started on : 09/29/2025 15:13:21.775
Loaded Setting File :  C:\Users\Celltest\OneDrive - store-dot.com\Documents\EC-Lab\Data\@Biologic Test Protocols\anode half cell EIS SOC00.mps
Saved on :
	File : 17923_R288_UA670_SOC00_C04.mpr
	Directory : C:\Users\Celltest\OneDrive - store-dot.com\Documents\EC-Lab\Data\Charmaine\
	Host : 169.254.61.224
Device : VMP-3e (SN .003165)
Address : USB
EC-LAB for windows v11.62 (software)
Internet server v27.00 (firmware)
Command interpretor v12.03 (firmware)
Electrode material :
Initial state :
Electrolyte :
Comments :
Electrode surface area : 0.001 cm²
Characteristic mass : 0.001 g
Equivalent Weight : 0.000 g/eq.
Density : 0.000 g/cm3
Volume (V) : 0.001 cm³
Record Ece
Cycle Definition : Charge/Discharge alternance
Mode                Single sine
E (V)               0.0000
vs.                 Eoc
tE (h:m:s)          0:00:0.0000
record              0
dI                  0.000
unit dI             mA
dt (s)              0.000
fi                  100.000
unit fi             kHz
ff                  10.000
unit ff             mHz
Nd                  6
Points              per decade
spacing             Logarithmic
Va (mV)             5.0
pw                  0.10
Na                  2
corr                0
E range min (V)     -10.000
E range max (V)     10.000
I Range             Auto
Bandwidth           5
nc cycles           0
goto Ns'            0
nr cycles           0
inc. cycle          0

freq/Hz	Re(Z)/Ohm	-Im(Z)/Ohm	|Z|/Ohm	Phase(Z)/deg	time/s	<Ewe>/V	<I>/mA	Cs/µF	Cp/µF	cycle number	I Range	|Ewe|/V	|I|/A	Ns	(Q-Qo)/mA.h	<Ece>/V	|Ece|/V	Phase(Zce)/deg	|Zce|/Ohm	Re(Zce)/Ohm	-Im(Zce)/Ohm	Phase(Zwe-ce)/deg	|Zwe-ce|/Ohm	Re(Zwe-ce)/Ohm	-Im(Zwe-ce)/Ohm	Re(Y)/Ohm-1	Im(Y)/Ohm-1	|Y|/Ohm-1	Phase(Y)/deg	Re(C)/nF	Im(C)/nF	|C|/nF	Phase(C)/deg	Re(M)	Im(M)	|M|	Phase(M)/deg	Re(Permittivity)	Im(Permittivity)	|Permittivity|	Phase(Permittivity)/deg	Re(Resistivity)/Ohm.cm	Im(Resistivity)/Ohm.cm	|Resistivity|/Ohm.cm	Phase(Resistivity)/deg	Re(Conductivity)/mS/cm	Im(Conductivity)/mS/cm	|Conductivity|/mS/cm	Phase(Conductivity)/deg	Tan(Delta)	Loss Angle(Delta)/deg	dq/mA.h	Pwe/W	Pce/W	Pwe-ce/W	<Ewe-Ece>/V	Rwe/Ohm	Rce/Ohm	Rwe-ce/Ohm		Ewe-Ece/V
100004	0.879717	0.204655	0.903208	-13.0962	1.73656	0.261456	-0.0327322	7.77646	0.399255	1	9	0.0047792	0.00529136	0	-1.17721e-05	0.000175598	4.74873e-05	50.2409	0.0089745	0.00573974	-0.00689907	-12.5897	0.907271	0.885456	0.197756	1.07837	0.250869	1.10716	13.0962	399.255	1716.21	1762.04	-76.9038	0.0000000E+000	0.0000000E+000	0.0000000E+000	76.9038	0.0000000E+000	0.0000000E+000	0.0000000E+000	-76.9038	0.0000000E+000	0.0000000E+000	0.0000000E+000	-13.0962	0.0000000E+000	0.0000000E+000	0.0000000E+000	13.0962	4.29854	76.9038	-1.17721e-05	-8.55805e-06	-5.74771e-09	-8.55231e-06	0.261281	7987.73	5.36468	7982.37
31621.1	1.05407	0.325976	1.10333	-17.1845	3.13357	0.261442	-0.0335528	15.4403	1.34779	1	9	0.00518595	0.0047003	0	-2.46927e-05	0.000137378	1.02578e-05	50.2315	0.00218238	0.00139604	-0.00167746	-17.0799	1.10417	1.05547	0.324299	0.86589	0.26778	0.906351	17.1845	1347.79	4358.18	4561.83	-72.8156	0.0000000E+000	0.0000000E+000	0.0000000E+000	72.8156	0.0000000E+000	0.0000000E+000	0.0000000E+000	-72.8156	0.0000000E+000	0.0000000E+000	0.0000000E+000	-17.1845	0.0000000E+000	0.0000000E+000	0.0000000E+000	17.1845	3.23358	72.8156	8.23444e-07	-8.77209e-06	-4.60941e-09	-8.76748e-06	0.261304	7791.95	4.09438	7787.85
10002.2	1.3214	0.489705	1.40923	-20.3344	4.65653	0.261434	-0.0384761	32.493	3.92371	1	9	0.00515045	0.00365481	0	-3.00435e-05	0.000137378	8.89152e-06	-73.9193	0.00243283	0.000673872	0.00233764	-20.4139	1.41067	1.32208	0.492042	0.665387	0.246589	0.70961	20.3344	3923.71	10587.6	11291.3	-69.6656	0.0000000E+000	0.0000000E+000	0.0000000E+000	69.6656	0.0000000E+000	0.0000000E+000	0.0000000E+000	-69.6656	0.0000000E+000	0.0000000E+000	0.0000000E+000	-20.3344	0.0000000E+000	0.0000000E+000	0.0000000E+000	20.3344	2.69837	69.6656	-7.66373e-06	-1.0059e-05	-5.28577e-09	-1.00537e-05	0.261297	6794.72	3.57048	6791.15
3163.08	1.71073	0.735144	1.862	-23.2544	6.23464	0.261425	-0.0432875	68.4443	10.669	1	9	0.00534427	0.00287018	0	-5.41208e-05	-0.000225711	7.99907e-06	-62.0585	0.00278696	0.00130588	0.00246207	-23.3081	1.86417	1.71204	0.737606	0.493427	0.212038	0.537058	23.2544	10669	24827.5	27022.8	-66.7456	0.0000000E+000	0.0000000E+000	0.0000000E+000	66.7456	0.0000000E+000	0.0000000E+000	0.0000000E+000	-66.7456	0.0000000E+000	0.0000000E+000	0.0000000E+000	-23.2544	0.0000000E+000	0.0000000E+000	0.0000000E+000	23.2544	2.32707	66.7456	-4.4428e-06	-1.13164e-05	9.77046e-09	-1.13262e-05	0.261651	6039.29	5.21424	6044.5
1000.32	2.30729	1.099	2.55566	-25.4691	8.01677	0.261432	-0.0341123	144.772	26.7714	1	9	0.00500235	0.00195736	0	-7.3471e-05	6.09381e-05	7.60286e-06	25.5768	0.00388424	0.00350362	-0.00167691	-25.4015	2.5581	2.3108	1.09732	0.353262	0.168264	0.391288	25.4691	26771.4	56205.4	62255.5	-64.5309	0.0000000E+000	0.0000000E+000	0.0000000E+000	64.5309	0.0000000E+000	0.0000000E+000	0.0000000E+000	-64.5309	0.0000000E+000	0.0000000E+000	0.0000000E+000	-25.4691	0.0000000E+000	0.0000000E+000	0.0000000E+000	25.4691	2.09945	64.5309	-2.63241e-06	-8.91805e-06	-2.07874e-09	-8.91597e-06	0.261371	7663.84	1.7864	7662.06
316.316	3.27009	1.66072	3.66763	-26.9238	9.61202	0.261435	-0.0249198	302.972	62.1192	1	10	0.0047515	0.00129552	0	-8.68065e-05	-5.37216e-05	4.04998e-06	55.9469	0.00312613	0.00175051	-0.00259006	-26.8754	3.66802	3.27184	1.65813	0.243103	0.12346	0.272656	26.9238	62119.2	122317	137187	-63.0762	0.0000000E+000	0.0000000E+000	0.0000000E+000	63.0762	0.0000000E+000	0.0000000E+000	0.0000000E+000	-63.0762	0.0000000E+000	0.0000000E+000	0.0000000E+000	-26.9238	0.0000000E+000	0.0000000E+000	0.0000000E+000	26.9238	1.96908	63.0762	-1.96032e-06	-6.51492e-06	1.33873e-09	-6.51626e-06	0.261489	10491.1	2.15578	10493.2
100.032	4.8437	2.20879	5.32355	-24.5136	10.9598	0.261434	-0.0240134	720.323	124.003	1	10	0.00464045	0.000871683	0	-9.61786e-05	-0.000111051	1.14436e-05	66.7755	0.0131282	0.00517692	-0.0120644	-24.3723	5.32327	4.84887	2.19672	0.170913	0.0779385	0.187845	24.5136	124003	271929	298868	-65.4864	0.0000000E+000	0.0000000E+000	0.0000000E+000	65.4864	0.0000000E+000	0.0000000E+000	0.0000000E+000	-65.4864	0.0000000E+000	0.0000000E+000	0.0000000E+000	-24.5136	0.0000000E+000	0.0000000E+000	0.0000000E+000	24.5136	2.19292	65.4864	-1.81933e-06	-6.2779e-06	2.66672e-09	-6.28057e-06	0.261545	10887	4.62457	10891.6
31.6296	6.79454	2.05058	7.09723	-16.7937	12.2885	0.261432	-0.0239462	2453.86	204.846	1	10	0.00461525	0.000650288	0	-0.000103656	-0.000225711	6.73246e-06	73.1399	0.010353	0.00300276	-0.00990803	-16.7102	7.09725	6.79755	2.04068	0.134891	0.0407099	0.1409	16.7937	204846	678749	708986	-73.2063	0.0000000E+000	0.0000000E+000	0.0000000E+000	73.2063	0.0000000E+000	0.0000000E+000	0.0000000E+000	-73.2063	0.0000000E+000	0.0000000E+000	0.0000000E+000	-16.7937	0.0000000E+000	0.0000000E+000	0.0000000E+000	16.7937	3.31347	73.2063	-2.14119e-06	-6.26031e-06	5.40494e-09	-6.26572e-06	0.261658	10917.4	9.42574	10926.9
10.0032	8.09583	1.41004	8.2177	-9.88005	13.6218	0.261426	-0.0228608	11283.6	332.21	1	10	0.00461017	0.000561005	0	-0.000110086	-1.55017e-05	5.38305e-06	21.0787	0.00959538	0.00895332	-0.00345098	-9.84567	8.22593	8.10478	1.40659	0.119884	0.0208801	0.121689	9.88005	332210	1.9074e+06	1.93611e+06	-80.1199	0.0000000E+000	0.0000000E+000	0.0000000E+000	80.1199	0.0000000E+000	0.0000000E+000	0.0000000E+000	-80.1199	0.0000000E+000	0.0000000E+000	0.0000000E+000	-9.88005	0.0000000E+000	0.0000000E+000	0.0000000E+000	9.88005	5.74154	80.1199	-4.24814e-06	-5.97641e-06	3.54381e-10	-5.97676e-06	0.261442	11435.6	0.678091	11436.3
3.1604	8.86711	0.962993	8.91925	-6.19819	15.3984	0.261419	-0.019404	52294.5	609.6	1	11	0.00461501	0.000517421	0	-0.000116165	-0.000263931	2.37995e-06	-46.1304	0.00459964	0.00318764	0.00331597	-6.21715	8.92278	8.8703	0.966309	0.111462	0.012105	0.112117	6.19819	609600	5.61312e+06	5.64612e+06	-83.8018	0.0000000E+000	0.0000000E+000	0.0000000E+000	83.8018	0.0000000E+000	0.0000000E+000	0.0000000E+000	-83.8018	0.0000000E+000	0.0000000E+000	0.0000000E+000	-6.19819	0.0000000E+000	0.0000000E+000	0.0000000E+000	6.19819	9.20787	83.8018	6.00436e-07	-5.07257e-06	5.12132e-09	-5.07769e-06	0.261683	13472.4	13.6019	13486
1.00006	9.35004	0.780872	9.38259	-4.774	19.9899	0.261438	-0.0132567	203804	1411.65	1	11	0.00461833	0.000492223	0	-0.000129755	0.000194708	3.72413e-06	55.7898	0.00756593	0.0042538	-0.00625687	-4.73378	9.38631	9.35429	0.774615	0.106211	0.00887022	0.10658	4.774	1.41165e+06	1.69029e+07	1.69617e+07	-85.226	0.0000000E+000	0.0000000E+000	0.0000000E+000	85.226	0.0000000E+000	0.0000000E+000	0.0000000E+000	-85.226	0.0000000E+000	0.0000000E+000	0.0000000E+000	-4.774	0.0000000E+000	0.0000000E+000	0.0000000E+000	4.774	11.9738	85.226	-1.56708e-05	-3.46581e-06	-2.58118e-09	-3.46323e-06	0.261244	19721.2	14.6875	19706.5
0.316193	9.74316	0.95044	9.78941	-5.57154	34.3322	0.261446	-0.0133763	529594	4992.05	1	11	0.00461645	0.000471576	0	-0.000246345	0.000213818	4.43174e-06	9.09294	0.00939773	0.00927963	-0.00148518	-5.55763	9.7985	9.75244	0.948954	0.101669	0.00991771	0.102151	5.57154	4.99205e+06	5.11746e+07	5.14175e+07	-84.4285	0.0000000E+000	0.0000000E+000	0.0000000E+000	84.4285	0.0000000E+000	0.0000000E+000	0.0000000E+000	-84.4285	0.0000000E+000	0.0000000E+000	0.0000000E+000	-5.57154	0.0000000E+000	0.0000000E+000	0.0000000E+000	5.57154	10.2512	84.4285	-4.26276e-05	-3.49719e-06	-2.8601e-09	-3.49433e-06	0.261232	19545.4	15.9848	19529.4
0.0999041	10.2704	1.75841	10.4198	-9.71551	79.5411	0.261441	-0.010221	905978	25801	1	11	0.0046163	0.000443031	0	-0.000184024	-0.000302151	2.34909e-06	13.1323	0.0053023	0.00516364	-0.00120468	-9.7042	10.4247	10.2755	1.7572	0.0945946	0.0161957	0.0959711	9.71551	2.5801e+07	1.50697e+08	1.52889e+08	-80.2845	0.0000000E+000	0.0000000E+000	0.0000000E+000	80.2845	0.0000000E+000	0.0000000E+000	0.0000000E+000	-80.2845	0.0000000E+000	0.0000000E+000	0.0000000E+000	-9.71551	0.0000000E+000	0.0000000E+000	0.0000000E+000	9.71551	5.84072	80.2845	6.3387e-05	-2.67219e-06	3.08829e-09	-2.67528e-06	0.261744	25578.8	29.5618	25608.4
0.0315922	11.422	3.74543	12.0204	-18.1551	222.424	0.261439	-0.00414845	1.34505e+06	130589	1	11	0.00461343	0.000383801	0	-0.000386969	-0.000206601	3.0512e-06	-12.365	0.00794995	0.00776554	0.00170239	-18.1513	12.0283	11.4297	3.74714	0.0790505	0.0259218	0.083192	18.1551	1.30589e+08	3.9824e+08	4.19104e+08	-71.8449	0.0000000E+000	0.0000000E+000	0.0000000E+000	71.8449	0.0000000E+000	0.0000000E+000	0.0000000E+000	-71.8449	0.0000000E+000	0.0000000E+000	0.0000000E+000	-18.1551	0.0000000E+000	0.0000000E+000	0.0000000E+000	18.1551	3.04957	71.8449	-0.000257337	-1.08457e-06	8.57076e-10	-1.08542e-06	0.261645	63020.8	49.802	63070.6
0.0100092	13.6296	8.04078	15.8247	-30.5384	773.838	0.261444	-0.00775314	1.97753e+06	510564	1	12	0.00461503	0.000291635	0	-0.00290337	4.18282e-05	1.98732e-06	-1.56059	0.00681443	0.0068119	0.000185585	-30.5265	15.8306	13.6364	8.04096	0.0544269	0.0321091	0.0631924	30.5384	5.10564e+08	8.65438e+08	1.00482e+09	-59.4616	0.0000000E+000	0.0000000E+000	0.0000000E+000	59.4616	0.0000000E+000	0.0000000E+000	0.0000000E+000	-59.4616	0.0000000E+000	0.0000000E+000	0.0000000E+000	-30.5384	0.0000000E+000	0.0000000E+000	0.0000000E+000	30.5384	1.69506	59.4616	-0.00103751	-2.02701e-06	-3.243e-10	-2.02669e-06	0.261402	33721	5.395	33715.6