File: txt/17921_R288_UA670_SOC00_C02.mpt
EC-Lab ASCII FILE
Nb header lines : 64

Potentio Electrochemical Impedance Spectroscopy

Run on channel : 2 (SN 66139)
User :
CE vs. WE compliance from -10 V to 10 V
Electrode connection : standard
Potential control : Ewe
Ewe ctrl range : min = -10.00 V, max = 10.00 V
Safety Limits :
	Do not start on E overload
Acquisition started on : 09/29/2025 15:12:57.426
Loaded Setting File :  C:\Users\Celltest\OneDrive - store-dot.com\Documents\EC-Lab\Data\@Biologic Test Protocols\anode half cell EIS SOC00.mps
Saved on :
	File : 17921_R288_UA670_SOC00_C02.mpr
	Directory : C:\Users\Celltest\OneDrive - store-dot.com\Documents\EC-Lab\Data\Charmaine\
	Host : 169.254.61.224
Device : VMP-3e (SN .003165)
Address : USB
EC-LAB for windows v11.62 (software)
Internet server v27.00 (firmware)
Command interpretor v12.03 (firmware)
Electrode material :
Initial state :
Electrolyte :
Comments :
Electrode surface area : 0.001 cm²
Characteristic mass : 0.001 g
Equivalent Weight : 0.000 g/eq.
Density : 0.000 g/cm3
Volume (V) : 0.001 cm³
Record Ece
Cycle Definition : Charge/Discharge alternance
Mode                Single sine
E (V)               0.0000
vs.                 Eoc
tE (h:m:s)          0:00:0.0000
record              0
dI                  0.000
unit dI             mA
dt (s)              0.000
fi                  100.000
unit fi             kHz
ff                  10.000
unit ff             mHz
Nd                  6
Points              per decade
spacing             Logarithmic
Va (mV)             5.0
pw                  0.10
Na                  2
corr                0
E range min (V)     -10.000
E range max (V)     10.000
I Range             Auto
Bandwidth           5
nc cycles           0
goto Ns'            0
nr cycles           0
inc. cycle          0

freq/Hz	Re(Z)/Ohm	-Im(Z)/Ohm	|Z|/Ohm	Phase(Z)/deg	time/s	<Ewe>/V	<I>/mA	Cs/µF	Cp/µF	cycle number	I Range	|Ewe|/V	|I|/A	Ns	(Q-Qo)/mA.h	<Ece>/V	|Ece|/V	Phase(Zce)/deg	|Zce|/Ohm	Re(Zce)/Ohm	-Im(Zce)/Ohm	Phase(Zwe-ce)/deg	|Zwe-ce|/Ohm	Re(Zwe-ce)/Ohm	-Im(Zwe-ce)/Ohm	Re(Y)/Ohm-1	Im(Y)/Ohm-1	|Y|/Ohm-1	Phase(Y)/deg	Re(C)/nF	Im(C)/nF	|C|/nF	Phase(C)/deg	Re(M)	Im(M)	|M|	Phase(M)/deg	Re(Permittivity)	Im(Permittivity)	|Permittivity|	Phase(Permittivity)/deg	Re(Resistivity)/Ohm.cm	Im(Resistivity)/Ohm.cm	|Resistivity|/Ohm.cm	Phase(Resistivity)/deg	Re(Conductivity)/mS/cm	Im(Conductivity)/mS/cm	|Conductivity|/mS/cm	Phase(Conductivity)/deg	Tan(Delta)	Loss Angle(Delta)/deg	dq/mA.h	Pwe/W	Pce/W	Pwe-ce/W	<Ewe-Ece>/V	Rwe/Ohm	Rce/Ohm	Rwe-ce/Ohm		Ewe-Ece/V
100004	0.979353	0.0908195	0.983555	-5.29813	1.59354	0.268087	-0.00163655	17.5237	0.149412	1	9	0.00216952	0.00220579	0	-1.24779e-05	0.000114888	2.20043e-05	25.0825	0.00997569	0.00903497	-0.00422892	-5.00678	0.992173	0.988388	0.0865906	1.01238	0.0938819	1.01672	5.29813	149.412	1611.19	1618.1	-84.7019	0.0000000E+000	0.0000000E+000	0.0000000E+000	84.7019	0.0000000E+000	0.0000000E+000	0.0000000E+000	-84.7019	0.0000000E+000	0.0000000E+000	0.0000000E+000	-5.29813	0.0000000E+000	0.0000000E+000	0.0000000E+000	5.29813	10.7835	84.7019	-1.24779e-05	-4.38737e-07	-1.88019e-10	-4.38549e-07	0.267972	163812	70.2011	163742
31621.1	1.06813	0.247445	1.09642	-13.0432	2.86854	0.268041	-0.0108734	20.3406	1.03602	1	9	0.00543335	0.00495555	0	-3.54526e-05	-0.000114203	8.76488e-06	-39.9047	0.0017687	0.00135679	0.00113464	-13.0849	1.098	1.06949	0.24858	0.888531	0.205839	0.912062	13.0432	1036.02	4472.14	4590.57	-76.9568	0.0000000E+000	0.0000000E+000	0.0000000E+000	76.9568	0.0000000E+000	0.0000000E+000	0.0000000E+000	-76.9568	0.0000000E+000	0.0000000E+000	0.0000000E+000	-13.0432	0.0000000E+000	0.0000000E+000	0.0000000E+000	13.0432	4.31663	76.9568	2.78918e-06	-2.91453e-06	1.24178e-09	-2.91577e-06	0.268155	24651	10.5029	24661.5
10002.2	1.26859	0.386445	1.32614	-16.9421	4.38957	0.268081	0.0216049	41.1752	3.49649	1	9	0.0047136	0.00355438	0	-0.000516575	0.00040125	2.98838e-06	19.3139	0.000840761	0.000793443	-0.000278077	-16.9207	1.32682	1.26938	0.386167	0.721341	0.21974	0.754068	16.9421	3496.49	11477.9	11998.7	-73.0579	0.0000000E+000	0.0000000E+000	0.0000000E+000	73.0579	0.0000000E+000	0.0000000E+000	0.0000000E+000	-73.0579	0.0000000E+000	0.0000000E+000	0.0000000E+000	-16.9421	0.0000000E+000	0.0000000E+000	0.0000000E+000	16.9421	3.28271	73.0579	2.09742e-06	5.79188e-06	8.66899e-09	5.78321e-06	0.26768	12408.3	18.5722	12389.8
3163.08	1.57671	0.586294	1.68219	-20.3975	5.41263	0.267879	-0.129129	85.8213	10.425	1	9	0.00470642	0.0027978	0	-0.000525767	0.000267614	1.16123e-05	-82.7053	0.0041505	0.000527004	0.0041169	-20.5225	1.68412	1.57724	0.59041	0.55719	0.207189	0.594464	20.3975	10425	28035.8	29911.3	-69.6025	0.0000000E+000	0.0000000E+000	0.0000000E+000	69.6025	0.0000000E+000	0.0000000E+000	0.0000000E+000	-69.6025	0.0000000E+000	0.0000000E+000	0.0000000E+000	-20.3975	0.0000000E+000	0.0000000E+000	0.0000000E+000	20.3975	2.68928	69.6025	-1.33713e-05	-3.4591e-05	-3.45568e-08	-3.45564e-05	0.267611	2074.5	2.07245	2072.43
1000.32	1.99421	0.95307	2.21025	-25.544	6.76585	0.267928	-0.0579524	166.938	31.04	1	9	0.0045951	0.00207899	0	-0.000544196	3.42479e-07	6.091e-06	68.8534	0.00292978	0.00105693	-0.00273249	-25.4682	2.21003	1.99527	0.950337	0.408213	0.195092	0.452437	25.544	31040	64948.3	71984.5	-64.456	0.0000000E+000	0.0000000E+000	0.0000000E+000	64.456	0.0000000E+000	0.0000000E+000	0.0000000E+000	-64.456	0.0000000E+000	0.0000000E+000	0.0000000E+000	-25.544	0.0000000E+000	0.0000000E+000	0.0000000E+000	25.544	2.09241	64.456	-8.2238e-06	-1.55271e-05	-1.98475e-11	-1.5527e-05	0.267928	4623.25	0.00590967	4623.24
316.316	2.73247	1.75509	3.24757	-32.713	8.36009	0.267984	-0.0455741	286.682	83.73	1	10	0.0045963	0.0014153	0	-0.000566594	7.67059e-05	5.48726e-06	-49.8613	0.00387708	0.00249933	0.00296398	-32.7331	3.25127	2.73496	1.75805	0.259083	0.166411	0.307923	32.713	83730	130358	154932	-57.287	0.0000000E+000	0.0000000E+000	0.0000000E+000	57.287	0.0000000E+000	0.0000000E+000	0.0000000E+000	-57.287	0.0000000E+000	0.0000000E+000	0.0000000E+000	-32.713	0.0000000E+000	0.0000000E+000	0.0000000E+000	32.713	1.55688	57.287	-8.70706e-06	-1.22131e-05	-3.4958e-09	-1.22096e-05	0.267907	5880.18	1.6831	5878.5
100.032	4.56855	2.88107	5.40113	-32.2368	9.70778	0.268	-0.0447694	552.24	157.132	1	10	0.00454749	0.000841953	0	-0.000584354	0.000229433	1.16224e-05	-27.5045	0.0138041	0.0122439	0.00637498	-32.2247	5.41488	4.58079	2.88744	0.156606	0.0987608	0.185147	32.2368	157132	249167	294576	-57.7632	0.0000000E+000	0.0000000E+000	0.0000000E+000	57.7632	0.0000000E+000	0.0000000E+000	0.0000000E+000	-57.7632	0.0000000E+000	0.0000000E+000	0.0000000E+000	-32.2368	0.0000000E+000	0.0000000E+000	0.0000000E+000	32.2368	1.58571	57.7632	-4.96636e-06	-1.19982e-05	-1.02716e-08	-1.19879e-05	0.267771	5986.23	5.12476	5981.11
31.6296	7.3872	3.00136	7.97364	-22.1115	11.0366	0.267992	-0.0459131	1676.52	237.538	1	10	0.00454734	0.000570297	0	-0.000601013	0.000153069	1.22425e-05	2.30726	0.0214669	0.0214495	-0.000864224	-22.0479	7.99319	7.40865	3.0005	0.11619	0.0472069	0.125413	22.1115	237538	584647	631060	-67.8885	0.0000000E+000	0.0000000E+000	0.0000000E+000	67.8885	0.0000000E+000	0.0000000E+000	0.0000000E+000	-67.8885	0.0000000E+000	0.0000000E+000	0.0000000E+000	-22.1115	0.0000000E+000	0.0000000E+000	0.0000000E+000	22.1115	2.46128	67.8885	-6.40888e-06	-1.23044e-05	-7.02788e-09	-1.22973e-05	0.267839	5836.95	3.33389	5833.62
10.0032	9.40709	2.12473	9.64406	-12.7275	12.3689	0.267998	-0.0429068	7488.21	363.467	1	10	0.00453727	0.000470473	0	-0.000613232	0.000114888	4.20854e-06	128.705	0.00894533	-0.00559359	-0.00698074	-12.6944	9.63706	9.4015	2.11775	0.101143	0.0228446	0.103691	12.7275	363467	1.60923e+06	1.64976e+06	-77.2725	0.0000000E+000	0.0000000E+000	0.0000000E+000	77.2725	0.0000000E+000	0.0000000E+000	0.0000000E+000	-77.2725	0.0000000E+000	0.0000000E+000	0.0000000E+000	-12.7275	0.0000000E+000	0.0000000E+000	0.0000000E+000	12.7275	4.42743	77.2725	-1.79453e-06	-1.1499e-05	-4.92946e-09	-1.1494e-05	0.267884	6246.06	2.67761	6243.38
3.1604	10.5519	1.40819	10.6455	-7.60142	14.1464	0.268023	-0.0254115	35761.6	625.766	1	11	0.00454166	0.000426628	0	-0.000624883	0.00017216	5.64854e-06	104.548	0.01324	-0.00332584	-0.0128154	-7.53539	10.6405	10.5486	1.39538	0.0931113	0.012426	0.0939368	7.60142	625766	4.68901e+06	4.73058e+06	-82.3986	0.0000000E+000	0.0000000E+000	0.0000000E+000	82.3986	0.0000000E+000	0.0000000E+000	0.0000000E+000	-82.3986	0.0000000E+000	0.0000000E+000	0.0000000E+000	-7.60142	0.0000000E+000	0.0000000E+000	0.0000000E+000	7.60142	7.49323	82.3986	4.44777e-07	-6.81087e-06	-4.37484e-09	-6.80649e-06	0.267851	10547.3	6.77489	10540.5
1.00006	11.3039	1.07208	11.3546	-5.41782	18.7399	0.268022	-0.0217276	148445	1323.35	1	11	0.00454576	0.000400345	0	-0.000674613	-9.51117e-05	1.09766e-06	-78.4325	0.00274178	0.000549788	0.00268609	-5.43106	11.3554	11.3044	1.07476	0.0876767	0.0083154	0.0880701	5.41782	1.32335e+06	1.39533e+07	1.40159e+07	-84.5822	0.0000000E+000	0.0000000E+000	0.0000000E+000	84.5822	0.0000000E+000	0.0000000E+000	0.0000000E+000	-84.5822	0.0000000E+000	0.0000000E+000	0.0000000E+000	-5.41782	0.0000000E+000	0.0000000E+000	0.0000000E+000	5.41782	10.5439	84.5822	-2.51766e-05	-5.82348e-06	2.06655e-09	-5.82554e-06	0.268117	12335.6	4.37746	12339.9
0.316193	11.8374	1.1615	11.8943	-5.60398	33.082	0.268027	-0.0195703	433359	4132.48	1	11	0.00454389	0.000382023	0	-0.000730273	0.000133978	2.09317e-06	47.9743	0.00547918	0.00366811	-0.00407018	-5.58275	11.8975	11.8411	1.15743	0.0836722	0.00820999	0.084074	5.60398	4.13248e+06	4.21162e+07	4.23184e+07	-84.396	0.0000000E+000	0.0000000E+000	0.0000000E+000	84.396	0.0000000E+000	0.0000000E+000	0.0000000E+000	-84.396	0.0000000E+000	0.0000000E+000	0.0000000E+000	-5.60398	0.0000000E+000	0.0000000E+000	0.0000000E+000	5.60398	10.1915	84.396	-8.10163e-06	-5.24537e-06	-2.622e-09	-5.24275e-06	0.267893	13695.6	6.84601	13688.8
0.0999041	12.5438	1.9083	12.6882	-8.65011	78.2901	0.268024	-0.00877927	834815	18883.6	1	11	0.00454638	0.000358317	0	-0.000781806	1.94333e-05	2.05737e-06	-33.7568	0.00574176	0.00477372	0.00319052	-8.6611	12.6934	12.5486	1.91149	0.0779171	0.0118536	0.0788136	8.65011	1.88836e+07	1.24128e+08	1.25556e+08	-81.3499	0.0000000E+000	0.0000000E+000	0.0000000E+000	81.3499	0.0000000E+000	0.0000000E+000	0.0000000E+000	-81.3499	0.0000000E+000	0.0000000E+000	0.0000000E+000	-8.65011	0.0000000E+000	0.0000000E+000	0.0000000E+000	8.65011	6.57331	81.3499	-4.76368e-05	-2.35306e-06	-1.7061e-10	-2.35289e-06	0.268005	30529.3	2.21355	30527
0.0315922	13.8105	3.7266	14.3044	-15.101	221.174	0.268023	-0.00685089	1.35185e+06	91751	1	11	0.00454144	0.000317484	0	-0.00157686	0.000153069	2.52866e-06	16.3434	0.00796468	0.00764285	-0.00224121	-15.0843	14.3112	13.8181	3.72436	0.0674943	0.0182126	0.0699083	15.101	9.1751e+07	3.40022e+08	3.52184e+08	-74.899	0.0000000E+000	0.0000000E+000	0.0000000E+000	74.899	0.0000000E+000	0.0000000E+000	0.0000000E+000	-74.899	0.0000000E+000	0.0000000E+000	0.0000000E+000	-15.101	0.0000000E+000	0.0000000E+000	0.0000000E+000	15.101	3.70592	74.899	-0.000400276	-1.8362e-06	-1.04866e-09	-1.83515e-06	0.26787	39122.4	22.343	39100.1
0.0100092	16.0585	8.07653	17.9751	-26.6999	740.717	0.268023	-0.00804036	1.96878e+06	397469	1	12	0.00454257	0.000252714	0	-0.00222228	-1.87484e-05	2.67617e-06	40.0303	0.0105897	0.00810858	-0.00681123	-26.6689	17.9793	16.0666	8.06972	0.0497005	0.0249966	0.0556324	26.6999	3.97469e+08	7.90283e+08	8.84606e+08	-63.3001	0.0000000E+000	0.0000000E+000	0.0000000E+000	63.3001	0.0000000E+000	0.0000000E+000	0.0000000E+000	-63.3001	0.0000000E+000	0.0000000E+000	0.0000000E+000	-26.6999	0.0000000E+000	0.0000000E+000	0.0000000E+000	26.6999	1.98829	63.3001	0.000132378	-2.155e-06	1.50744e-10	-2.15515e-06	0.268042	33334.7	2.33178	33337