File: txt/18216_R279_UA653_SOC00_C03.mpt
EC-Lab ASCII FILE
Nb header lines : 65

Potentio Electrochemical Impedance Spectroscopy

Run on channel : 3 (SN 65921)
User :
CE vs. WE compliance from -10 V to 10 V
Electrode connection : standard
Potential control : Ewe
Ewe ctrl range : min = -10.00 V, max = 10.00 V
Safety Limits :
	Do not start on E overload
Acquisition started on : 10/08/2025 08:30:38.433
Technique started on : 10/08/2025 08:30:40.160
Loaded Setting File :  C:\Users\Celltest\OneDrive - store-dot.com\Documents\EC-Lab\Data\@Biologic Test Protocols\anode half cell EIS SOC00.mps
Saved on :
	File : 18216_R279_UA653_SOC00_C03.mpr
	Directory : C:\Users\Celltest\OneDrive - store-dot.com\Documents\EC-Lab\Data\Charmaine\
	Host : 169.254.61.224
Device : VMP-3e (SN .003165)
Address : USB
EC-LAB for windows v11.62 (software)
Internet server v27.00 (firmware)
Command interpretor v12.03 (firmware)
Electrode material :
Initial state :
Electrolyte :
Comments :
Electrode surface area : 0.001 cm²
Characteristic mass : 0.001 g
Equivalent Weight : 0.000 g/eq.
Density : 0.000 g/cm3
Volume (V) : 0.001 cm³
Record Ece
Cycle Definition : Charge/Discharge alternance
Mode                Single sine
E (V)               0.0000
vs.                 Eoc
tE (h:m:s)          0:00:0.0000
record              0
dI                  0.000
unit dI             mA
dt (s)              0.000
fi                  100.000
unit fi             kHz
ff                  10.000
unit ff             mHz
Nd                  6
Points              per decade
spacing             Logarithmic
Va (mV)             5.0
pw                  0.10
Na                  2
corr                0
E range min (V)     -10.000
E range max (V)     10.000
I Range             Auto
Bandwidth           5
nc cycles           0
goto Ns'            0
nr cycles           0
inc. cycle          0

freq/Hz	Re(Z)/Ohm	-Im(Z)/Ohm	|Z|/Ohm	Phase(Z)/deg	time/s	<Ewe>/V	<I>/mA	Cs/µF	Cp/µF	cycle number	I Range	|Ewe|/V	|I|/A	Ns	(Q-Qo)/mA.h	<Ece>/V	|Ece|/V	Phase(Zce)/deg	|Zce|/Ohm	Re(Zce)/Ohm	-Im(Zce)/Ohm	Phase(Zwe-ce)/deg	|Zwe-ce|/Ohm	Re(Zwe-ce)/Ohm	-Im(Zwe-ce)/Ohm	Re(Y)/Ohm-1	Im(Y)/Ohm-1	|Y|/Ohm-1	Phase(Y)/deg	Re(C)/nF	Im(C)/nF	|C|/nF	Phase(C)/deg	Re(M)	Im(M)	|M|	Phase(M)/deg	Re(Permittivity)	Im(Permittivity)	|Permittivity|	Phase(Permittivity)/deg	Re(Resistivity)/Ohm.cm	Im(Resistivity)/Ohm.cm	|Resistivity|/Ohm.cm	Phase(Resistivity)/deg	Re(Conductivity)/mS/cm	Im(Conductivity)/mS/cm	|Conductivity|/mS/cm	Phase(Conductivity)/deg	Tan(Delta)	Loss Angle(Delta)/deg	dq/mA.h	Pwe/W	Pce/W	Pwe-ce/W	<Ewe-Ece>/V	Rwe/Ohm	Rce/Ohm	Rwe-ce/Ohm		Ewe-Ece/V
100004	1.37263	0.349927	1.41653	-14.3019	1.72653	0.271873	0.0181556	4.54806	0.277543	1	9	0.00461536	0.00325822	0	-1.8924e-06	-0.000214174	4.15618e-05	96.42	0.012756	-0.00142632	-0.012676	-13.8178	1.41207	1.3712	0.337251	0.684072	0.174392	0.705951	14.3019	277.543	1088.69	1123.51	-75.6981	0.0000000E+000	0.0000000E+000	0.0000000E+000	75.6981	0.0000000E+000	0.0000000E+000	0.0000000E+000	-75.6981	0.0000000E+000	0.0000000E+000	0.0000000E+000	-14.3019	0.0000000E+000	0.0000000E+000	0.0000000E+000	14.3019	3.92261	75.6981	-1.8924e-06	4.93601e-06	-3.88845e-09	4.9399e-06	0.272087	14974.6	11.7966	14986.4
31621.1	1.65018	0.468057	1.71527	-15.8355	3.24954	0.271874	0.0134939	10.7533	0.800709	1	9	0.00499632	0.00291284	0	-3.81293e-06	-8.05151e-05	1.37061e-05	31.7688	0.00470541	0.00400045	-0.00247736	-15.7196	1.71845	1.65418	0.46558	0.560872	0.159086	0.582997	15.8355	800.709	2822.97	2934.33	-74.1645	0.0000000E+000	0.0000000E+000	0.0000000E+000	74.1645	0.0000000E+000	0.0000000E+000	0.0000000E+000	-74.1645	0.0000000E+000	0.0000000E+000	0.0000000E+000	-15.8355	0.0000000E+000	0.0000000E+000	0.0000000E+000	15.8355	3.52559	74.1645	6.76778e-06	3.66864e-06	-1.08646e-09	3.66973e-06	0.271955	20148	5.96678	20153.9
10002.2	2.01655	0.660534	2.12197	-18.1366	4.27654	0.271871	0.0211763	24.0895	2.33421	1	9	0.00456732	0.0021524	0	-7.33547e-06	0.00012952	8.52456e-06	45.2026	0.0039605	0.00279057	-0.00281038	-18.0411	2.12375	2.01934	0.657724	0.447846	0.146695	0.47126	18.1366	2334.21	7126.11	7498.66	-71.8634	0.0000000E+000	0.0000000E+000	0.0000000E+000	71.8634	0.0000000E+000	0.0000000E+000	0.0000000E+000	-71.8634	0.0000000E+000	0.0000000E+000	0.0000000E+000	-18.1366	0.0000000E+000	0.0000000E+000	0.0000000E+000	18.1366	3.0529	71.8634	6.39228e-07	5.75724e-06	2.74275e-09	5.7545e-06	0.271742	12838.5	6.11624	12832.3
3163.08	2.53448	0.991692	2.72159	-21.3694	5.30067	0.271664	-0.0509495	50.738	6.7366	1	9	0.00468872	0.00172278	0	-5.6777e-06	0.000301366	5.21124e-06	-63.1925	0.00302489	0.00136421	0.0026998	-21.4118	2.72385	2.53585	0.994392	0.342171	0.133885	0.367432	21.3694	6736.6	17216.8	18487.9	-68.6306	0.0000000E+000	0.0000000E+000	0.0000000E+000	68.6306	0.0000000E+000	0.0000000E+000	0.0000000E+000	-68.6306	0.0000000E+000	0.0000000E+000	0.0000000E+000	-21.3694	0.0000000E+000	0.0000000E+000	0.0000000E+000	21.3694	2.55572	68.6306	-5.86662e-06	-1.38411e-05	-1.53544e-08	-1.38258e-05	0.271363	5332.03	5.915	5326.11
1000.32	3.25257	1.55544	3.60536	-25.5581	6.89884	0.271823	-0.0238282	102.289	19.0388	1	10	0.00470453	0.00130487	0	1.55446e-05	7.22374e-05	3.04049e-06	-13.0592	0.00233011	0.00226984	0.000526507	-25.5501	3.60763	3.25484	1.55597	0.250225	0.119662	0.277365	25.5581	19038.8	39811.7	44129.9	-64.4419	0.0000000E+000	0.0000000E+000	0.0000000E+000	64.4419	0.0000000E+000	0.0000000E+000	0.0000000E+000	-64.4419	0.0000000E+000	0.0000000E+000	0.0000000E+000	-25.5581	0.0000000E+000	0.0000000E+000	0.0000000E+000	25.5581	2.09109	64.4419	2.65505e-06	-6.47704e-06	-1.72129e-09	-6.47532e-06	0.271751	11407.6	3.0316	11404.6
316.316	4.46377	2.68519	5.20918	-31.0291	8.249	0.271833	-0.0231197	187.38	49.7893	1	10	0.00461799	0.000886511	0	6.05706e-06	5.31434e-05	2.12133e-05	-123.542	0.023929	-0.0132218	0.0199445	-31.2921	5.20818	4.45055	2.70513	0.164499	0.0989548	0.191969	31.0291	49789.3	82768.1	96589.5	-58.9709	0.0000000E+000	0.0000000E+000	0.0000000E+000	58.9709	0.0000000E+000	0.0000000E+000	0.0000000E+000	-58.9709	0.0000000E+000	0.0000000E+000	0.0000000E+000	-31.0291	0.0000000E+000	0.0000000E+000	0.0000000E+000	31.0291	1.66237	58.9709	-3.44282e-06	-6.2847e-06	-1.22866e-09	-6.28347e-06	0.27178	11757.7	2.29862	11755.4
100.032	6.96668	4.55255	8.32228	-33.1636	9.59578	0.271829	-0.0231048	349.483	104.581	1	10	0.00459716	0.000552391	0	-2.41541e-06	-0.000175985	8.22966e-06	50.9077	0.0148983	0.00939441	-0.011563	-33.0616	8.32383	6.97608	4.54099	0.100587	0.065731	0.120159	33.1636	104581	160038	191178	-56.8364	0.0000000E+000	0.0000000E+000	0.0000000E+000	56.8364	0.0000000E+000	0.0000000E+000	0.0000000E+000	-56.8364	0.0000000E+000	0.0000000E+000	0.0000000E+000	-33.1636	0.0000000E+000	0.0000000E+000	0.0000000E+000	33.1636	1.53028	56.8364	-2.4053e-06	-6.28054e-06	4.06611e-09	-6.28461e-06	0.272005	11765	7.61684	11772.6
31.6296	11.8951	5.51354	13.1108	-24.8684	10.9246	0.27182	-0.0278032	912.634	161.399	1	10	0.00459998	0.000350855	0	-1.13551e-05	5.31434e-05	6.5573e-06	128.709	0.0186895	-0.0116879	-0.0145839	-24.832	13.094	11.8834	5.49895	0.0692008	0.0320755	0.0762732	24.8684	161399	348208	383795	-65.1316	0.0000000E+000	0.0000000E+000	0.0000000E+000	65.1316	0.0000000E+000	0.0000000E+000	0.0000000E+000	-65.1316	0.0000000E+000	0.0000000E+000	0.0000000E+000	-24.8684	0.0000000E+000	0.0000000E+000	0.0000000E+000	24.8684	2.15743	65.1316	-3.80255e-06	-7.55747e-06	-1.47756e-09	-7.556e-06	0.271767	9776.59	1.91141	9774.68
10.0032	15.948	3.53986	16.3362	-12.5146	12.5058	0.271867	-0.0137963	4494.65	211.041	1	11	0.00458872	0.000280893	0	-1.93984e-05	0.000186802	5.30776e-06	-63.7839	0.018896	0.00834747	0.0169522	-12.5663	16.348	15.9564	3.55681	0.0597595	0.0132643	0.0612139	12.5146	211041	950797	973937	-77.4854	0.0000000E+000	0.0000000E+000	0.0000000E+000	77.4854	0.0000000E+000	0.0000000E+000	0.0000000E+000	-77.4854	0.0000000E+000	0.0000000E+000	0.0000000E+000	-12.5146	0.0000000E+000	0.0000000E+000	0.0000000E+000	12.5146	4.50528	77.4854	-3.76528e-06	-3.75076e-06	-2.57718e-09	-3.74819e-06	0.27168	19705.8	13.54	19692.2
3.1604	17.466	1.91458	17.5706	-6.25564	14.0225	0.271863	-0.0129599	26303	312.304	1	11	0.004591	0.000261288	0	-2.67944e-05	-0.000137797	5.9463e-06	-4.89383	0.0227576	0.0226746	0.00194144	-6.25388	17.5934	17.4887	1.91652	0.0565743	0.00620153	0.0569131	6.25564	312304	2.84903e+06	2.8661e+06	-83.7444	0.0000000E+000	0.0000000E+000	0.0000000E+000	83.7444	0.0000000E+000	0.0000000E+000	0.0000000E+000	-83.7444	0.0000000E+000	0.0000000E+000	0.0000000E+000	-6.25564	0.0000000E+000	0.0000000E+000	0.0000000E+000	6.25564	9.12263	83.7444	-6.08827e-06	-3.52332e-06	1.78584e-09	-3.52511e-06	0.272001	20977.3	10.6326	20987.9
1.00006	18.2724	1.38069	18.3245	-4.32115	19.663	0.271865	-0.0115869	115265	654.373	1	12	0.00459029	0.000250501	0	-3.41433e-05	7.22374e-05	2.34096e-06	-127.871	0.00934514	-0.0057368	0.00737705	-4.34551	18.3193	18.2667	1.38807	0.0544167	0.00411181	0.0545718	4.32115	654374	8.66013e+06	8.68482e+06	-85.6788	0.0000000E+000	0.0000000E+000	0.0000000E+000	85.6788	0.0000000E+000	0.0000000E+000	0.0000000E+000	-85.6788	0.0000000E+000	0.0000000E+000	0.0000000E+000	-4.32115	0.0000000E+000	0.0000000E+000	0.0000000E+000	4.32115	13.2342	85.6788	-1.44592e-06	-3.15006e-06	-8.37006e-10	-3.14922e-06	0.271792	23463.1	6.23442	23456.9
0.316193	19.0879	1.38846	19.1383	-4.16037	34.0052	0.271872	-0.00729814	362523	1908.06	1	12	0.0045944	0.000240063	0	-8.43477e-05	1.49552e-05	2.39473e-06	-5.91152	0.00997542	0.00992238	0.00102739	-4.16128	19.1483	19.0978	1.38948	0.0521135	0.00379074	0.0522512	4.16037	1.90806e+06	2.62312e+07	2.63005e+07	-85.8396	0.0000000E+000	0.0000000E+000	0.0000000E+000	85.8396	0.0000000E+000	0.0000000E+000	0.0000000E+000	-85.8396	0.0000000E+000	0.0000000E+000	0.0000000E+000	-4.16037	0.0000000E+000	0.0000000E+000	0.0000000E+000	4.16037	13.7476	85.8396	-3.19862e-05	-1.98416e-06	-1.09146e-10	-1.98405e-06	0.271857	37252.3	2.04919	37250.2
0.0999041	20.0121	2.05228	20.1171	-5.85533	79.213	0.271868	-0.00649025	776247	8078.75	1	12	0.00459113	0.000228221	0	-0.000240553	0.000148614	3.25598e-06	-3.62282	0.0142668	0.0142383	0.000901493	-5.85374	20.1313	20.0264	2.05318	0.0494497	0.00507116	0.049709	5.85533	8.07875e+06	7.87772e+07	7.91903e+07	-84.1447	0.0000000E+000	0.0000000E+000	0.0000000E+000	84.1447	0.0000000E+000	0.0000000E+000	0.0000000E+000	-84.1447	0.0000000E+000	0.0000000E+000	0.0000000E+000	-5.85533	0.0000000E+000	0.0000000E+000	0.0000000E+000	5.85533	9.75115	84.1447	-4.775e-05	-1.76449e-06	-9.6454e-10	-1.76353e-06	0.271719	41888.7	22.898	41865.8
0.0315922	21.2924	4.23862	21.7102	-11.2586	222.097	0.27187	-0.00217114	1.18854e+06	45304.2	1	12	0.00459421	0.000211616	0	-6.28299e-05	-8.05151e-05	2.08572e-06	24.1694	0.00985616	0.00899215	-0.00403547	-11.2435	21.7182	21.3014	4.23459	0.045175	0.00899288	0.0460614	11.2586	4.53043e+07	2.27582e+08	2.32048e+08	-78.7414	0.0000000E+000	0.0000000E+000	0.0000000E+000	78.7414	0.0000000E+000	0.0000000E+000	0.0000000E+000	-78.7414	0.0000000E+000	0.0000000E+000	0.0000000E+000	-11.2586	0.0000000E+000	0.0000000E+000	0.0000000E+000	11.2586	5.02342	78.7414	0.000135975	-5.90266e-07	1.74809e-10	-5.90441e-07	0.27195	125220	37.0843	125257
0.0100092	24.0215	10.1012	26.0589	-22.807	673.316	0.271867	-0.000193189	1.57417e+06	236528	1	12	0.00459196	0.000176215	0	-0.000331362	0.000167708	3.54584e-06	1.3774	0.0201223	0.0201164	-0.000483697	-22.7889	26.0772	24.0416	10.1007	0.0353744	0.0148751	0.0383747	22.807	2.36528e+08	5.62485e+08	6.10192e+08	-67.193	0.0000000E+000	0.0000000E+000	0.0000000E+000	67.193	0.0000000E+000	0.0000000E+000	0.0000000E+000	-67.193	0.0000000E+000	0.0000000E+000	0.0000000E+000	-22.807	0.0000000E+000	0.0000000E+000	0.0000000E+000	22.807	2.37809	67.193	-0.000377307	-5.25217e-08	-3.23993e-11	-5.24893e-08	0.271699	1.40726e+06	868.102	1.40639e+06