File: txt/18215_R279_UA653_SOC00_C02.mpt
EC-Lab ASCII FILE
Nb header lines : 65

Potentio Electrochemical Impedance Spectroscopy

Run on channel : 2 (SN 66139)
User :
CE vs. WE compliance from -10 V to 10 V
Electrode connection : standard
Potential control : Ewe
Ewe ctrl range : min = -10.00 V, max = 10.00 V
Safety Limits :
	Do not start on E overload
Acquisition started on : 10/08/2025 08:30:28.978
Technique started on : 10/08/2025 08:30:30.572
Loaded Setting File :  C:\Users\Celltest\OneDrive - store-dot.com\Documents\EC-Lab\Data\@Biologic Test Protocols\anode half cell EIS SOC00.mps
Saved on :
	File : 18215_R279_UA653_SOC00_C02.mpr
	Directory : C:\Users\Celltest\OneDrive - store-dot.com\Documents\EC-Lab\Data\Charmaine\
	Host : 169.254.61.224
Device : VMP-3e (SN .003165)
Address : USB
EC-LAB for windows v11.62 (software)
Internet server v27.00 (firmware)
Command interpretor v12.03 (firmware)
Electrode material :
Initial state :
Electrolyte :
Comments :
Electrode surface area : 0.001 cm²
Characteristic mass : 0.001 g
Equivalent Weight : 0.000 g/eq.
Density : 0.000 g/cm3
Volume (V) : 0.001 cm³
Record Ece
Cycle Definition : Charge/Discharge alternance
Mode                Single sine
E (V)               0.0000
vs.                 Eoc
tE (h:m:s)          0:00:0.0000
record              0
dI                  0.000
unit dI             mA
dt (s)              0.000
fi                  100.000
unit fi             kHz
ff                  10.000
unit ff             mHz
Nd                  6
Points              per decade
spacing             Logarithmic
Va (mV)             5.0
pw                  0.10
Na                  2
corr                0
E range min (V)     -10.000
E range max (V)     10.000
I Range             Auto
Bandwidth           5
nc cycles           0
goto Ns'            0
nr cycles           0
inc. cycle          0

freq/Hz	Re(Z)/Ohm	-Im(Z)/Ohm	|Z|/Ohm	Phase(Z)/deg	time/s	<Ewe>/V	<I>/mA	Cs/µF	Cp/µF	cycle number	I Range	|Ewe|/V	|I|/A	Ns	(Q-Qo)/mA.h	<Ece>/V	|Ece|/V	Phase(Zce)/deg	|Zce|/Ohm	Re(Zce)/Ohm	-Im(Zce)/Ohm	Phase(Zwe-ce)/deg	|Zwe-ce|/Ohm	Re(Zwe-ce)/Ohm	-Im(Zwe-ce)/Ohm	Re(Y)/Ohm-1	Im(Y)/Ohm-1	|Y|/Ohm-1	Phase(Y)/deg	Re(C)/nF	Im(C)/nF	|C|/nF	Phase(C)/deg	Re(M)	Im(M)	|M|	Phase(M)/deg	Re(Permittivity)	Im(Permittivity)	|Permittivity|	Phase(Permittivity)/deg	Re(Resistivity)/Ohm.cm	Im(Resistivity)/Ohm.cm	|Resistivity|/Ohm.cm	Phase(Resistivity)/deg	Re(Conductivity)/mS/cm	Im(Conductivity)/mS/cm	|Conductivity|/mS/cm	Phase(Conductivity)/deg	Tan(Delta)	Loss Angle(Delta)/deg	dq/mA.h	Pwe/W	Pce/W	Pwe-ce/W	<Ewe-Ece>/V	Rwe/Ohm	Rce/Ohm	Rwe-ce/Ohm		Ewe-Ece/V
100004	1.26832	-0.00312529	1.26832	0.141183	1.59352	0.270456	0.00935102	-509.23	-0.00309197	1	9	0.00227409	0.001793	0	-3.76222e-06	0.000133978	1.30859e-05	57.3861	0.00729837	0.00393364	-0.00614758	0.417596	1.27228	1.27225	-0.00927286	0.788442	-0.00194282	0.788444	-0.141183	-3.09194	1254.8	1254.8	-90.1412	0.0000000E+000	0.0000000E+000	0.0000000E+000	90.1412	0.0000000E+000	0.0000000E+000	0.0000000E+000	-90.1412	0.0000000E+000	0.0000000E+000	0.0000000E+000	0.141183	0.0000000E+000	0.0000000E+000	0.0000000E+000	-0.141183	405.824	89.8588	-3.76222e-06	2.52904e-06	1.25283e-09	2.52779e-06	0.270322	28922.7	14.3277	28908.3
31621.1	1.38106	0.344998	1.4235	-14.0259	2.99056	0.270434	0.0169864	14.589	0.856932	1	9	0.00494533	0.00347407	0	-0.000256509	0.000343978	9.45822e-06	52.3255	0.00272252	0.00166394	-0.00215486	-13.9256	1.42459	1.38272	0.342844	0.681551	0.170257	0.702495	14.0259	856.932	3430.37	3535.79	-75.9741	0.0000000E+000	0.0000000E+000	0.0000000E+000	75.9741	0.0000000E+000	0.0000000E+000	0.0000000E+000	-75.9741	0.0000000E+000	0.0000000E+000	0.0000000E+000	-14.0259	0.0000000E+000	0.0000000E+000	0.0000000E+000	14.0259	4.00308	75.9741	-0.000253005	4.59372e-06	5.84296e-09	4.58787e-06	0.27009	15920.6	20.2501	15900.4
10002.2	1.6407	0.485069	1.7109	-16.4702	4.01555	0.270436	0.0180666	32.8035	2.63679	1	9	0.00539524	0.00315344	0	-0.000271528	0.000229433	1.40793e-05	-46.5033	0.00446473	0.00307313	0.00323878	-16.5448	1.71477	1.64377	0.488308	0.560503	0.165711	0.584486	16.4702	2636.79	8918.7	9300.32	-73.5298	0.0000000E+000	0.0000000E+000	0.0000000E+000	73.5298	0.0000000E+000	0.0000000E+000	0.0000000E+000	-73.5298	0.0000000E+000	0.0000000E+000	0.0000000E+000	-16.4702	0.0000000E+000	0.0000000E+000	0.0000000E+000	16.4702	3.38241	73.5298	-1.54102e-06	4.88586e-06	4.14506e-09	4.88171e-06	0.270207	14968.9	12.6993	14956.2
3163.08	1.99098	0.745358	2.12593	-20.5243	4.91367	0.270292	-0.0571329	67.5064	8.29809	1	9	0.00522872	0.0024595	0	-0.000277456	0.000248523	9.46908e-06	-80.1839	0.00385	0.000656372	0.00379363	-20.6137	2.12788	1.99164	0.749152	0.440525	0.164918	0.470383	20.5243	8298.09	22165.6	23668	-69.4757	0.0000000E+000	0.0000000E+000	0.0000000E+000	69.4757	0.0000000E+000	0.0000000E+000	0.0000000E+000	-69.4757	0.0000000E+000	0.0000000E+000	0.0000000E+000	-20.5243	0.0000000E+000	0.0000000E+000	0.0000000E+000	20.5243	2.67117	69.4757	-7.21065e-06	-1.54426e-05	-1.41989e-08	-1.54284e-05	0.270043	4730.93	4.34992	4726.58
1000.32	2.49259	1.3141	2.81778	-27.7982	6.26685	0.270343	-0.0234999	121.075	26.3327	1	9	0.00509678	0.00180879	0	-0.000284961	-0.00028602	1.64183e-06	-86.9292	0.000907694	4.8625e-05	0.000906391	-27.8141	2.81824	2.49264	1.315	0.313934	0.165506	0.35489	27.7982	26332.7	49948.1	56464.3	-62.2018	0.0000000E+000	0.0000000E+000	0.0000000E+000	62.2018	0.0000000E+000	0.0000000E+000	0.0000000E+000	-62.2018	0.0000000E+000	0.0000000E+000	0.0000000E+000	-27.7982	0.0000000E+000	0.0000000E+000	0.0000000E+000	27.7982	1.89681	62.2018	-2.92931e-06	-6.35305e-06	6.72145e-09	-6.35977e-06	0.270629	11504	12.1711	11516.2
316.316	3.47744	2.57977	4.32988	-36.5702	7.86205	0.270364	-0.030446	195.037	69.2357	1	10	0.00507415	0.00117189	0	-0.000297635	0.000267614	4.37195e-05	4.16187	0.0373067	0.0372083	-0.00270751	-36.2502	4.35821	3.51465	2.57707	0.185485	0.137604	0.230954	36.5702	69235.7	93327.2	116205	-53.4298	0.0000000E+000	0.0000000E+000	0.0000000E+000	53.4298	0.0000000E+000	0.0000000E+000	0.0000000E+000	-53.4298	0.0000000E+000	0.0000000E+000	0.0000000E+000	-36.5702	0.0000000E+000	0.0000000E+000	0.0000000E+000	36.5702	1.34796	53.4298	-3.6737e-06	-8.23148e-06	-8.14777e-09	-8.22333e-06	0.270096	8880.12	8.78981	8871.33
100.032	5.96728	4.80985	7.66441	-38.8701	9.20978	0.27038	-0.0286392	330.788	130.273	1	10	0.00501106	0.00065381	0	-0.0003094	9.57967e-05	4.13704e-05	-27.2906	0.0632758	0.0562327	0.0290122	-38.7759	7.72641	6.02352	4.83886	0.101583	0.0818794	0.130473	38.8701	130273	161622	207588	-51.1299	0.0000000E+000	0.0000000E+000	0.0000000E+000	51.1299	0.0000000E+000	0.0000000E+000	0.0000000E+000	-51.1299	0.0000000E+000	0.0000000E+000	0.0000000E+000	-38.8701	0.0000000E+000	0.0000000E+000	0.0000000E+000	38.8701	1.24064	51.1299	-2.80555e-06	-7.74349e-06	-2.74354e-09	-7.74075e-06	0.270285	9440.91	3.34495	9437.56
31.6296	11.3595	6.11858	12.9025	-28.3083	10.5376	0.270367	-0.0298835	822.387	184.939	1	10	0.0050264	0.000389567	0	-0.000319961	3.42479e-07	4.8465e-06	-115.053	0.0124407	-0.00526808	0.0112703	-28.3634	12.9033	11.3542	6.12985	0.0682353	0.0367536	0.0775041	28.3083	184939	343349	389989	-61.6917	0.0000000E+000	0.0000000E+000	0.0000000E+000	61.6917	0.0000000E+000	0.0000000E+000	0.0000000E+000	-61.6917	0.0000000E+000	0.0000000E+000	0.0000000E+000	-28.3083	0.0000000E+000	0.0000000E+000	0.0000000E+000	28.3083	1.85656	61.6917	-3.89686e-06	-8.07951e-06	-1.02345e-11	-8.0795e-06	0.270367	9047.38	0.0114605	9047.37
10.0032	16.0081	4.04584	16.5114	-14.1838	12.1198	0.270398	-0.0184763	3932.53	236.114	1	11	0.00503814	0.00030513	0	-0.000328869	0.000324887	6.10049e-06	19.9121	0.0199931	0.0187978	-0.0068092	-14.1449	16.528	16.0269	4.03904	0.0587178	0.0148402	0.0605641	14.1838	236114	934224	963599	-75.8162	0.0000000E+000	0.0000000E+000	0.0000000E+000	75.8162	0.0000000E+000	0.0000000E+000	0.0000000E+000	-75.8162	0.0000000E+000	0.0000000E+000	0.0000000E+000	-14.1838	0.0000000E+000	0.0000000E+000	0.0000000E+000	14.1838	3.95667	75.8162	-4.80751e-06	-4.99594e-06	-6.0027e-09	-4.98994e-06	0.270073	14634.9	17.584	14617.3
3.1604	17.7297	2.12408	17.8565	-6.83169	13.6364	0.270406	-0.0166392	23708.7	335.474	1	11	0.00503586	0.000282019	0	-0.000336401	-1.87484e-05	5.12355e-06	-98.6916	0.0181674	-0.00274538	0.0179588	-6.88995	17.8559	17.7269	2.14204	0.0556045	0.00666163	0.0560021	6.83169	335474	2.8002e+06	2.82022e+06	-83.1683	0.0000000E+000	0.0000000E+000	0.0000000E+000	83.1683	0.0000000E+000	0.0000000E+000	0.0000000E+000	-83.1683	0.0000000E+000	0.0000000E+000	0.0000000E+000	-6.83169	0.0000000E+000	0.0000000E+000	0.0000000E+000	6.83169	8.34698	83.1683	-6.76191e-06	-4.49935e-06	3.11958e-10	-4.49966e-06	0.270425	16251.1	1.12676	16252.3
1.00006	18.6136	1.46953	18.6715	-4.51408	19.277	0.270399	-0.0153188	108297	670.826	1	12	0.00503546	0.000269686	0	-0.000355534	5.7615e-05	2.21894e-06	-8.65973	0.00822787	0.00813407	0.00123884	-4.51591	18.6797	18.6218	1.47077	0.0533913	0.00421519	0.0535574	4.51408	670826	8.49695e+06	8.52339e+06	-85.4859	0.0000000E+000	0.0000000E+000	0.0000000E+000	85.4859	0.0000000E+000	0.0000000E+000	0.0000000E+000	-85.4859	0.0000000E+000	0.0000000E+000	0.0000000E+000	-4.51408	0.0000000E+000	0.0000000E+000	0.0000000E+000	4.51408	12.6664	85.4859	-5.19753e-06	-4.14219e-06	-8.82595e-10	-4.14131e-06	0.270341	17651.4	3.76106	17647.6
0.316193	19.5057	1.37209	19.5539	-4.02374	33.6218	0.270394	-0.0104904	366847	1806.28	1	12	0.00503436	0.000257461	0	-0.000397687	0.000229433	1.36198e-06	-62.8816	0.00529003	0.00241136	0.00470848	-4.037	19.5566	19.5081	1.3768	0.0510147	0.00358853	0.0511408	4.02374	1.80628e+06	2.56781e+07	2.57416e+07	-85.9763	0.0000000E+000	0.0000000E+000	0.0000000E+000	85.9763	0.0000000E+000	0.0000000E+000	0.0000000E+000	-85.9763	0.0000000E+000	0.0000000E+000	0.0000000E+000	-4.02374	0.0000000E+000	0.0000000E+000	0.0000000E+000	4.02374	14.216	85.9763	-2.952e-05	-2.83653e-06	-2.40683e-09	-2.83413e-06	0.270165	25775.5	21.8708	25753.6
0.0999041	20.554	1.85458	20.6375	-5.15582	78.8299	0.27039	-0.00729579	858996	6936.95	1	12	0.00503486	0.000243967	0	-0.000618048	7.67059e-05	1.90705e-06	-12.0709	0.00781683	0.00764399	0.00163467	-5.15843	20.6452	20.5616	1.85621	0.0482595	0.00435444	0.0484555	5.15582	6.93696e+06	7.6881e+07	7.71934e+07	-84.8442	0.0000000E+000	0.0000000E+000	0.0000000E+000	84.8442	0.0000000E+000	0.0000000E+000	0.0000000E+000	-84.8442	0.0000000E+000	0.0000000E+000	0.0000000E+000	-5.15582	0.0000000E+000	0.0000000E+000	0.0000000E+000	5.15582	11.0828	84.8442	-8.73001e-05	-1.97271e-06	-5.5963e-10	-1.97215e-06	0.270313	37061.1	10.5137	37050.6
0.0315922	21.9099	3.85018	22.2456	-9.9667	221.713	0.270392	-0.00392449	1.30846e+06	39195.1	1	12	0.00503414	0.000226298	0	-0.000580425	0.000153069	3.62982e-06	-5.64488	0.01604	0.0159623	0.00157774	-9.96358	22.2616	21.9259	3.85176	0.0442742	0.00778021	0.0449526	9.9667	3.91951e+07	2.23044e+08	2.26462e+08	-80.0333	0.0000000E+000	0.0000000E+000	0.0000000E+000	80.0333	0.0000000E+000	0.0000000E+000	0.0000000E+000	-80.0333	0.0000000E+000	0.0000000E+000	0.0000000E+000	-9.9667	0.0000000E+000	0.0000000E+000	0.0000000E+000	9.9667	5.69062	80.0333	0.000110515	-1.06115e-06	-6.00718e-10	-1.06055e-06	0.270239	68898.7	39.0036	68859.7
0.0100092	24.5976	9.30502	26.2988	-20.7211	672.936	0.270382	0.000105033	1.70885e+06	213929	1	12	0.00503323	0.000191387	0	-0.000301901	0.00017216	1.36486e-06	-7.02062	0.00713141	0.00707794	0.000871648	-20.7174	26.3057	24.6047	9.30589	0.0355649	0.0134539	0.0380246	20.7211	2.13929e+08	5.65515e+08	6.04626e+08	-69.2789	0.0000000E+000	0.0000000E+000	0.0000000E+000	69.2789	0.0000000E+000	0.0000000E+000	0.0000000E+000	-69.2789	0.0000000E+000	0.0000000E+000	0.0000000E+000	-20.7211	0.0000000E+000	0.0000000E+000	0.0000000E+000	20.7211	2.64348	69.2789	-0.000110919	2.8399e-08	1.80824e-11	2.83809e-08	0.27021	2.57427e+06	1639.11	2.57263e+06