File: txt/18218_R279_UA654_SOC00_C05.mpt
EC-Lab ASCII FILE
Nb header lines : 65

Potentio Electrochemical Impedance Spectroscopy

Run on channel : 5 (SN 65912)
User :
CE vs. WE compliance from -10 V to 10 V
Electrode connection : standard
Potential control : Ewe
Ewe ctrl range : min = -10.00 V, max = 10.00 V
Safety Limits :
	Do not start on E overload
Acquisition started on : 10/08/2025 08:32:37.272
Technique started on : 10/08/2025 08:32:38.999
Loaded Setting File :  C:\Users\Celltest\OneDrive - store-dot.com\Documents\EC-Lab\Data\@Biologic Test Protocols\anode half cell EIS SOC00.mps
Saved on :
	File : 18218_R279_UA654_SOC00_C05.mpr
	Directory : C:\Users\Celltest\OneDrive - store-dot.com\Documents\EC-Lab\Data\Charmaine\
	Host : 169.254.61.224
Device : VMP-3e (SN .003165)
Address : USB
EC-LAB for windows v11.62 (software)
Internet server v27.00 (firmware)
Command interpretor v12.03 (firmware)
Electrode material :
Initial state :
Electrolyte :
Comments :
Electrode surface area : 0.001 cm²
Characteristic mass : 0.001 g
Equivalent Weight : 0.000 g/eq.
Density : 0.000 g/cm3
Volume (V) : 0.001 cm³
Record Ece
Cycle Definition : Charge/Discharge alternance
Mode                Single sine
E (V)               0.0000
vs.                 Eoc
tE (h:m:s)          0:00:0.0000
record              0
dI                  0.000
unit dI             mA
dt (s)              0.000
fi                  100.000
unit fi             kHz
ff                  10.000
unit ff             mHz
Nd                  6
Points              per decade
spacing             Logarithmic
Va (mV)             5.0
pw                  0.10
Na                  2
corr                0
E range min (V)     -10.000
E range max (V)     10.000
I Range             Auto
Bandwidth           5
nc cycles           0
goto Ns'            0
nr cycles           0
inc. cycle          0

freq/Hz	Re(Z)/Ohm	-Im(Z)/Ohm	|Z|/Ohm	Phase(Z)/deg	time/s	<Ewe>/V	<I>/mA	Cs/µF	Cp/µF	cycle number	I Range	|Ewe|/V	|I|/A	Ns	(Q-Qo)/mA.h	<Ece>/V	|Ece|/V	Phase(Zce)/deg	|Zce|/Ohm	Re(Zce)/Ohm	-Im(Zce)/Ohm	Phase(Zwe-ce)/deg	|Zwe-ce|/Ohm	Re(Zwe-ce)/Ohm	-Im(Zwe-ce)/Ohm	Re(Y)/Ohm-1	Im(Y)/Ohm-1	|Y|/Ohm-1	Phase(Y)/deg	Re(C)/nF	Im(C)/nF	|C|/nF	Phase(C)/deg	Re(M)	Im(M)	|M|	Phase(M)/deg	Re(Permittivity)	Im(Permittivity)	|Permittivity|	Phase(Permittivity)/deg	Re(Resistivity)/Ohm.cm	Im(Resistivity)/Ohm.cm	|Resistivity|/Ohm.cm	Phase(Resistivity)/deg	Re(Conductivity)/mS/cm	Im(Conductivity)/mS/cm	|Conductivity|/mS/cm	Phase(Conductivity)/deg	Tan(Delta)	Loss Angle(Delta)/deg	dq/mA.h	Pwe/W	Pce/W	Pwe-ce/W	<Ewe-Ece>/V	Rwe/Ohm	Rce/Ohm	Rwe-ce/Ohm		Ewe-Ece/V
100004	1.09461	0.236372	1.11984	-12.1854	1.72654	0.279046	0.000946748	6.73299	0.299975	1	9	0.00471494	0.00421036	0	-1.0777e-05	0.000111272	4.43636e-05	83.8976	0.0105368	0.00112011	-0.0104771	-11.6488	1.11878	1.09573	0.225895	0.872863	0.188487	0.892982	12.1854	299.975	1389.15	1421.17	-77.8146	0.0000000E+000	0.0000000E+000	0.0000000E+000	77.8146	0.0000000E+000	0.0000000E+000	0.0000000E+000	-77.8146	0.0000000E+000	0.0000000E+000	0.0000000E+000	-12.1854	0.0000000E+000	0.0000000E+000	0.0000000E+000	12.1854	4.63089	77.8146	-1.0777e-05	2.64186e-07	1.05346e-10	2.64081e-07	0.278935	294741	117.531	294624
31621.1	1.28439	0.340528	1.32876	-14.8491	3.24953	0.279032	-0.0106348	14.7805	0.970738	1	9	0.0050597	0.00380783	0	1.22377e-05	-0.000156005	1.51815e-05	12.7113	0.00398693	0.00388921	-0.000877276	-14.7698	1.3323	1.28827	0.33965	0.727448	0.192868	0.752581	14.8491	970.738	3661.38	3787.88	-75.1509	0.0000000E+000	0.0000000E+000	0.0000000E+000	75.1509	0.0000000E+000	0.0000000E+000	0.0000000E+000	-75.1509	0.0000000E+000	0.0000000E+000	0.0000000E+000	-14.8491	0.0000000E+000	0.0000000E+000	0.0000000E+000	14.8491	3.77175	75.1509	1.44431e-05	-2.96746e-06	1.65909e-09	-2.96912e-06	0.279188	26237.5	14.6693	26252.2
10002.2	1.55457	0.500222	1.63307	-17.8369	4.15254	0.279022	-0.00568197	31.8098	2.98455	1	9	0.00467535	0.00286293	0	1.37324e-05	-0.000194188	3.78605e-06	-38.0019	0.00132244	0.00104207	0.000814209	-17.8529	1.63431	1.55561	0.501036	0.582911	0.187566	0.612345	17.8369	2984.55	9275.25	9743.61	-72.1631	0.0000000E+000	0.0000000E+000	0.0000000E+000	72.1631	0.0000000E+000	0.0000000E+000	0.0000000E+000	-72.1631	0.0000000E+000	0.0000000E+000	0.0000000E+000	-17.8369	0.0000000E+000	0.0000000E+000	0.0000000E+000	17.8369	3.10776	72.1631	2.12759e-06	-1.58539e-06	1.10337e-09	-1.5865e-06	0.279216	49106.5	34.1761	49140.7
3163.08	1.93187	0.763576	2.0773	-21.5665	5.17566	0.27881	-0.133191	65.8958	8.90354	1	9	0.00476042	0.00229164	0	-5.99216e-07	7.30894e-05	1.24087e-05	68.8504	0.00541476	0.00195366	-0.00505003	-21.4171	2.07727	1.93383	0.758526	0.447692	0.176951	0.481394	21.5665	8903.54	22526.3	24222	-68.4335	0.0000000E+000	0.0000000E+000	0.0000000E+000	68.4335	0.0000000E+000	0.0000000E+000	0.0000000E+000	-68.4335	0.0000000E+000	0.0000000E+000	0.0000000E+000	-21.5665	0.0000000E+000	0.0000000E+000	0.0000000E+000	21.5665	2.53003	68.4335	-1.1363e-05	-3.71351e-05	-9.73486e-09	-3.71253e-05	0.278737	2093.31	0.548756	2092.76
1000.32	2.4517	1.28654	2.76876	-27.6884	6.52983	0.278954	-0.00728331	123.668	26.7014	1	9	0.00466047	0.00168323	0	-2.72197e-06	-7.96403e-05	1.11297e-05	-27.4735	0.00661208	0.0058664	0.0030504	-27.6879	2.77537	2.45757	1.28959	0.319814	0.167823	0.361172	27.6884	26701.4	50883.6	57464	-62.3116	0.0000000E+000	0.0000000E+000	0.0000000E+000	62.3116	0.0000000E+000	0.0000000E+000	0.0000000E+000	-62.3116	0.0000000E+000	0.0000000E+000	0.0000000E+000	-27.6884	0.0000000E+000	0.0000000E+000	0.0000000E+000	27.6884	1.90566	62.3116	-1.38233e-06	-2.03171e-06	5.80045e-10	-2.03229e-06	0.279034	38300.5	10.9346	38311.4
316.316	3.34984	2.52371	4.19411	-36.9937	8.12504	0.278978	-0.0232027	199.37	72.187	1	10	0.00468583	0.00111724	0	-1.06216e-05	-0.000136914	2.56606e-05	-45.681	0.0229679	0.0160466	0.0164326	-37.0408	4.21682	3.36589	2.54014	0.190434	0.143469	0.23843	36.9937	72187	95817.3	119966	-53.0063	0.0000000E+000	0.0000000E+000	0.0000000E+000	53.0063	0.0000000E+000	0.0000000E+000	0.0000000E+000	-53.0063	0.0000000E+000	0.0000000E+000	0.0000000E+000	-36.9937	0.0000000E+000	0.0000000E+000	0.0000000E+000	36.9937	1.32735	53.0063	-2.06122e-06	-6.47305e-06	3.17677e-09	-6.47623e-06	0.279115	12023.5	5.90078	12029.4
100.032	5.63142	4.91341	7.47359	-41.1047	9.47179	0.278973	-0.0232995	323.816	139.961	1	10	0.00465258	0.000622537	0	-1.75853e-05	0.000225819	6.63382e-05	80.4582	0.106561	0.0176644	-0.105087	-40.4034	7.41837	5.64909	4.80832	0.100823	0.087968	0.133805	41.1047	139961	160413	212888	-48.8953	0.0000000E+000	0.0000000E+000	0.0000000E+000	48.8953	0.0000000E+000	0.0000000E+000	0.0000000E+000	-48.8953	0.0000000E+000	0.0000000E+000	0.0000000E+000	-41.1047	0.0000000E+000	0.0000000E+000	0.0000000E+000	41.1047	1.14613	48.8953	-3.52707e-06	-6.49994e-06	-5.26148e-09	-6.49468e-06	0.278747	11973.3	9.69201	11963.6
31.6296	11.0825	7.1065	13.1652	-32.6695	10.8006	0.278959	-0.0284081	708.062	206.312	1	10	0.00463429	0.000352009	0	-2.63519e-05	1.58158e-05	7.20726e-06	47.0212	0.0204746	0.0139581	-0.0149794	-32.5819	13.1689	11.0964	7.09152	0.063941	0.0410013	0.0759576	32.6695	206312	321741	382207	-57.3305	0.0000000E+000	0.0000000E+000	0.0000000E+000	57.3305	0.0000000E+000	0.0000000E+000	0.0000000E+000	-57.3305	0.0000000E+000	0.0000000E+000	0.0000000E+000	-32.6695	0.0000000E+000	0.0000000E+000	0.0000000E+000	32.6695	1.55949	57.3305	-2.855e-06	-7.92469e-06	-4.49295e-10	-7.92424e-06	0.278943	9819.72	0.556736	9819.17
10.0032	17.2739	5.5357	18.1393	-17.7688	12.3828	0.279001	-0.00994972	2874.15	267.679	1	11	0.0046377	0.000255672	0	-3.41912e-05	3.4907e-05	9.20047e-06	-23.5516	0.0359855	0.0329879	0.0143789	-17.7803	18.1751	17.3069	5.55008	0.0524991	0.0168241	0.055129	17.7688	267679	835282	877124	-72.2312	0.0000000E+000	0.0000000E+000	0.0000000E+000	72.2312	0.0000000E+000	0.0000000E+000	0.0000000E+000	-72.2312	0.0000000E+000	0.0000000E+000	0.0000000E+000	-17.7688	0.0000000E+000	0.0000000E+000	0.0000000E+000	17.7688	3.12046	72.2312	8.54489e-07	-2.77598e-06	-3.47315e-10	-2.77563e-06	0.278966	28041.1	3.50834	28037.6
3.1604	19.9943	3.16516	20.2433	-8.99545	13.8994	0.278975	-0.00989127	15910.5	388.967	1	11	0.00463673	0.00022905	0	-3.85654e-05	0.000111272	5.89106e-06	-56.2791	0.0257195	0.0142781	0.0213922	-9.04889	20.2607	20.0086	3.18655	0.0487916	0.00772385	0.0493991	8.99545	388967	2.4571e+06	2.4877e+06	-81.0045	0.0000000E+000	0.0000000E+000	0.0000000E+000	81.0045	0.0000000E+000	0.0000000E+000	0.0000000E+000	-81.0045	0.0000000E+000	0.0000000E+000	0.0000000E+000	-8.99545	0.0000000E+000	0.0000000E+000	0.0000000E+000	8.99545	6.317	81.0045	6.73665e-07	-2.75942e-06	-1.10062e-09	-2.75832e-06	0.278864	28204.2	11.2495	28192.9
1.00006	21.3593	2.33307	21.4864	-6.23367	19.539	0.278991	-0.00753619	68212.7	804.254	1	12	0.0046326	0.000215607	0	-5.27692e-05	-4.14579e-05	3.77942e-06	47.8985	0.0175292	0.0117524	-0.013006	-6.19581	21.4967	21.3711	2.32006	0.0462659	0.0050536	0.0465411	6.23367	804254	7.36298e+06	7.40678e+06	-83.7663	0.0000000E+000	0.0000000E+000	0.0000000E+000	83.7663	0.0000000E+000	0.0000000E+000	0.0000000E+000	-83.7663	0.0000000E+000	0.0000000E+000	0.0000000E+000	-6.23367	0.0000000E+000	0.0000000E+000	0.0000000E+000	6.23367	9.15505	83.7663	-1.24061e-05	-2.10253e-06	3.12434e-10	-2.10284e-06	0.279033	37020.2	5.50117	37025.7
0.316193	22.8572	2.30712	22.9733	-5.76371	33.8827	0.278995	-0.00750811	218171	2200.35	1	12	0.00463183	0.000201618	0	-9.57244e-05	-0.000117823	2.34504e-06	-8.63547	0.0116311	0.0114993	0.00174639	-5.76517	22.9849	22.8687	2.30887	0.0433087	0.00437143	0.0435288	5.76371	2.20035e+06	2.17993e+07	2.19101e+07	-84.2363	0.0000000E+000	0.0000000E+000	0.0000000E+000	84.2363	0.0000000E+000	0.0000000E+000	0.0000000E+000	-84.2363	0.0000000E+000	0.0000000E+000	0.0000000E+000	-5.76371	0.0000000E+000	0.0000000E+000	0.0000000E+000	5.76371	9.90722	84.2363	-1.07887e-05	-2.09473e-06	8.84626e-10	-2.09561e-06	0.279113	37159.2	15.6927	37174.9
0.0999041	24.2482	2.57887	24.3849	-6.07078	79.0906	0.278997	-0.00468758	617741	6909.15	1	12	0.00463408	0.000190039	0	-7.15579e-05	3.4907e-05	1.07636e-06	-22.0784	0.00566391	0.00524857	0.00212892	-6.07445	24.3904	24.2534	2.581	0.040779	0.00433698	0.0410089	6.07078	6.90914e+06	6.49641e+07	6.53304e+07	-83.9292	0.0000000E+000	0.0000000E+000	0.0000000E+000	83.9292	0.0000000E+000	0.0000000E+000	0.0000000E+000	-83.9292	0.0000000E+000	0.0000000E+000	0.0000000E+000	-6.07078	0.0000000E+000	0.0000000E+000	0.0000000E+000	6.07078	9.40262	83.9292	1.24705e-05	-1.30782e-06	-1.63629e-10	-1.30765e-06	0.278962	59518.3	7.4467	59510.9
0.0315922	25.5675	4.30686	25.9277	-9.56176	221.975	0.278999	-0.000536233	1.16971e+06	32275.6	1	12	0.0046366	0.000178828	0	-0.00027716	0.000187637	1.40526e-06	-7.11927	0.00785817	0.00779758	0.000973904	-9.56102	25.9355	25.5752	4.30783	0.038033	0.00640669	0.0385689	9.56176	3.22756e+07	1.91602e+08	1.94302e+08	-80.4382	0.0000000E+000	0.0000000E+000	0.0000000E+000	80.4382	0.0000000E+000	0.0000000E+000	0.0000000E+000	-80.4382	0.0000000E+000	0.0000000E+000	0.0000000E+000	-9.56176	0.0000000E+000	0.0000000E+000	0.0000000E+000	9.56176	5.93645	80.4382	-0.000147712	-1.49609e-07	-1.00617e-10	-1.49508e-07	0.278812	520294	349.916	519944
0.0100092	28.218	9.60565	29.8081	-18.799	673.198	0.279	-0.00207493	1.65537e+06	171902	1	12	0.00463206	0.000155396	0	-0.000979221	-7.96403e-05	1.95348e-06	42.5765	0.012571	0.00925697	-0.0085052	-18.7778	29.8141	28.2272	9.59715	0.0317583	0.0108108	0.0335479	18.799	1.71902e+08	5.04986e+08	5.33443e+08	-71.201	0.0000000E+000	0.0000000E+000	0.0000000E+000	71.201	0.0000000E+000	0.0000000E+000	0.0000000E+000	-71.201	0.0000000E+000	0.0000000E+000	0.0000000E+000	-18.799	0.0000000E+000	0.0000000E+000	0.0000000E+000	18.799	2.93764	71.201	-0.000151237	-5.78904e-07	1.65248e-10	-5.79069e-07	0.279079	134463	38.3823	134501