File: txt/18214_R279_UA653_SOC00_C01.mpt
EC-Lab ASCII FILE
Nb header lines : 65

Potentio Electrochemical Impedance Spectroscopy

Run on channel : 1 (SN 66354)
User :
CE vs. WE compliance from -10 V to 10 V
Electrode connection : standard
Potential control : Ewe
Ewe ctrl range : min = -10.00 V, max = 10.00 V
Safety Limits :
	Do not start on E overload
Acquisition started on : 10/08/2025 08:30:18.980
Technique started on : 10/08/2025 08:30:20.891
Loaded Setting File :  C:\Users\Celltest\OneDrive - store-dot.com\Documents\EC-Lab\Data\@Biologic Test Protocols\anode half cell EIS SOC00.mps
Saved on :
	File : 18214_R279_UA653_SOC00_C01.mpr
	Directory : C:\Users\Celltest\OneDrive - store-dot.com\Documents\EC-Lab\Data\Charmaine\
	Host : 169.254.61.224
Device : VMP-3e (SN .003165)
Address : USB
EC-LAB for windows v11.62 (software)
Internet server v27.00 (firmware)
Command interpretor v12.03 (firmware)
Electrode material :
Initial state :
Electrolyte :
Comments :
Electrode surface area : 0.001 cm²
Characteristic mass : 0.001 g
Equivalent Weight : 0.000 g/eq.
Density : 0.000 g/cm3
Volume (V) : 0.001 cm³
Record Ece
Cycle Definition : Charge/Discharge alternance
Mode                Single sine
E (V)               0.0000
vs.                 Eoc
tE (h:m:s)          0:00:0.0000
record              0
dI                  0.000
unit dI             mA
dt (s)              0.000
fi                  100.000
unit fi             kHz
ff                  10.000
unit ff             mHz
Nd                  6
Points              per decade
spacing             Logarithmic
Va (mV)             5.0
pw                  0.10
Na                  2
corr                0
E range min (V)     -10.000
E range max (V)     10.000
I Range             Auto
Bandwidth           5
nc cycles           0
goto Ns'            0
nr cycles           0
inc. cycle          0

freq/Hz	Re(Z)/Ohm	-Im(Z)/Ohm	|Z|/Ohm	Phase(Z)/deg	time/s	<Ewe>/V	<I>/mA	Cs/µF	Cp/µF	cycle number	I Range	|Ewe|/V	|I|/A	Ns	(Q-Qo)/mA.h	<Ece>/V	|Ece|/V	Phase(Zce)/deg	|Zce|/Ohm	Re(Zce)/Ohm	-Im(Zce)/Ohm	Phase(Zwe-ce)/deg	|Zwe-ce|/Ohm	Re(Zwe-ce)/Ohm	-Im(Zwe-ce)/Ohm	Re(Y)/Ohm-1	Im(Y)/Ohm-1	|Y|/Ohm-1	Phase(Y)/deg	Re(C)/nF	Im(C)/nF	|C|/nF	Phase(C)/deg	Re(M)	Im(M)	|M|	Phase(M)/deg	Re(Permittivity)	Im(Permittivity)	|Permittivity|	Phase(Permittivity)/deg	Re(Resistivity)/Ohm.cm	Im(Resistivity)/Ohm.cm	|Resistivity|/Ohm.cm	Phase(Resistivity)/deg	Re(Conductivity)/mS/cm	Im(Conductivity)/mS/cm	|Conductivity|/mS/cm	Phase(Conductivity)/deg	Tan(Delta)	Loss Angle(Delta)/deg	dq/mA.h	Pwe/W	Pce/W	Pwe-ce/W	<Ewe-Ece>/V	Rwe/Ohm	Rce/Ohm	Rwe-ce/Ohm		Ewe-Ece/V
100004	1.32596	0.256749	1.35059	-10.9587	1.91053	0.273323	0.111796	6.19862	0.224009	1	9	0.00464643	0.00344029	0	1.33512e-05	0.000174035	3.81849e-05	83.7712	0.0110993	0.00120426	-0.0110338	-10.4891	1.34972	1.32717	0.245715	0.726914	0.140754	0.740416	10.9587	224.009	1156.88	1178.36	-79.0413	0.0000000E+000	0.0000000E+000	0.0000000E+000	79.0413	0.0000000E+000	0.0000000E+000	0.0000000E+000	-79.0413	0.0000000E+000	0.0000000E+000	0.0000000E+000	-10.9587	0.0000000E+000	0.0000000E+000	0.0000000E+000	10.9587	5.16443	79.0413	1.33512e-05	3.05563e-05	1.94564e-08	3.05369e-05	0.273149	2444.84	1.55673	2443.28
31621.1	1.52754	0.345687	1.56616	-12.7515	3.30752	0.273329	0.109635	14.5599	0.709336	1	9	0.00515395	0.00329081	0	5.11176e-05	0.00021219	1.79121e-05	29.3848	0.00544306	0.00474278	-0.00267076	-12.6182	1.5702	1.53228	0.343016	0.622756	0.140932	0.638503	12.7515	709.336	3134.44	3213.7	-77.2485	0.0000000E+000	0.0000000E+000	0.0000000E+000	77.2485	0.0000000E+000	0.0000000E+000	0.0000000E+000	-77.2485	0.0000000E+000	0.0000000E+000	0.0000000E+000	-12.7515	0.0000000E+000	0.0000000E+000	0.0000000E+000	12.7515	4.41884	77.2485	2.60772e-05	2.99664e-05	2.32634e-08	2.99432e-05	0.273117	2493.08	1.93542	2491.15
10002.2	1.78075	0.484723	1.84554	-15.2271	4.45656	0.273332	0.105276	32.8269	2.26448	1	9	0.0050695	0.00274689	0	7.75081e-05	2.1417e-05	6.29917e-06	-19.0337	0.0022932	0.00216783	0.000747868	-15.2318	1.84783	1.78292	0.485471	0.522823	0.142313	0.541846	15.2271	2264.48	8319.13	8621.82	-74.7729	0.0000000E+000	0.0000000E+000	0.0000000E+000	74.7729	0.0000000E+000	0.0000000E+000	0.0000000E+000	-74.7729	0.0000000E+000	0.0000000E+000	0.0000000E+000	-15.2271	0.0000000E+000	0.0000000E+000	0.0000000E+000	15.2271	3.67375	74.7729	1.26458e-05	2.87754e-05	2.2547e-09	2.87731e-05	0.273311	2596.34	0.203436	2596.13
3163.08	2.13246	0.746628	2.25939	-19.2964	5.35469	0.273173	0.039634	67.3916	7.35921	1	9	0.00497798	0.00220324	0	9.51062e-05	-0.000150279	5.31641e-06	-6.70263	0.002413	0.00239651	0.000281636	-19.2831	2.26175	2.13486	0.746909	0.417733	0.146259	0.442597	19.2964	7359.21	21018.8	22269.9	-70.7036	0.0000000E+000	0.0000000E+000	0.0000000E+000	70.7036	0.0000000E+000	0.0000000E+000	0.0000000E+000	-70.7036	0.0000000E+000	0.0000000E+000	0.0000000E+000	-19.2964	0.0000000E+000	0.0000000E+000	0.0000000E+000	19.2964	2.85613	70.7036	5.48946e-06	1.08269e-05	-5.95616e-09	1.08329e-05	0.273323	6892.38	3.79166	6896.17
1000.32	2.6307	1.30041	2.93456	-26.3042	6.7088	0.273214	0.0716355	122.349	24.0257	1	9	0.00487086	0.00165983	0	0.000121829	0.000231267	9.2528e-06	-0.982738	0.00557455	0.00557373	9.56101e-05	-26.2577	2.9396	2.63627	1.30051	0.305482	0.151006	0.340767	26.3042	24025.7	48603.4	54217.4	-63.6958	0.0000000E+000	0.0000000E+000	0.0000000E+000	63.6958	0.0000000E+000	0.0000000E+000	0.0000000E+000	-63.6958	0.0000000E+000	0.0000000E+000	0.0000000E+000	-26.3042	0.0000000E+000	0.0000000E+000	0.0000000E+000	26.3042	2.02297	63.6958	8.89585e-06	1.95718e-05	1.65669e-08	1.95552e-05	0.272983	3813.94	3.22839	3810.72
316.316	3.66929	2.53031	4.45715	-34.5898	8.30406	0.273239	-0.00822579	198.85	64.0854	1	10	0.00486765	0.0010921	0	0.000123764	5.95716e-05	3.42176e-05	-33.6086	0.031332	0.0260945	0.0173428	-34.583	4.48847	3.69538	2.54765	0.1847	0.127368	0.224359	34.5898	64085.4	92932.4	112887	-55.4102	0.0000000E+000	0.0000000E+000	0.0000000E+000	55.4102	0.0000000E+000	0.0000000E+000	0.0000000E+000	-55.4102	0.0000000E+000	0.0000000E+000	0.0000000E+000	-34.5898	0.0000000E+000	0.0000000E+000	0.0000000E+000	34.5898	1.45013	55.4102	-8.21889e-07	-2.24761e-06	-4.90023e-10	-2.24712e-06	0.273179	33217.3	7.24205	33210.1
100.032	6.11395	4.60983	7.65708	-37.0158	9.65178	0.273242	-0.00779348	345.141	125.095	1	10	0.00479648	0.000626412	0	0.000121985	0.000193113	6.02129e-05	12.6528	0.0961235	0.0937892	-0.0210551	-36.4719	7.71964	6.20774	4.58877	0.104279	0.0786246	0.130598	37.0158	125095	165912	207787	-52.9842	0.0000000E+000	0.0000000E+000	0.0000000E+000	52.9842	0.0000000E+000	0.0000000E+000	0.0000000E+000	-52.9842	0.0000000E+000	0.0000000E+000	0.0000000E+000	-37.0158	0.0000000E+000	0.0000000E+000	0.0000000E+000	37.0158	1.32628	52.9842	-1.48721e-06	-2.12951e-06	-1.50502e-09	-2.128e-06	0.273049	35060.4	24.7788	35035.6
31.6296	11.1978	5.61732	12.5277	-26.6405	10.9796	0.273242	-0.0106968	895.773	180.099	1	10	0.00481486	0.000384336	0	0.000119483	0.000441118	8.50732e-06	-5.62491	0.0221351	0.0220285	0.00216959	-26.6042	12.5484	11.2198	5.61949	0.0713487	0.0357918	0.0798229	26.6405	180099	359016	401656	-63.3595	0.0000000E+000	0.0000000E+000	0.0000000E+000	63.3595	0.0000000E+000	0.0000000E+000	0.0000000E+000	-63.3595	0.0000000E+000	0.0000000E+000	0.0000000E+000	-26.6405	0.0000000E+000	0.0000000E+000	0.0000000E+000	26.6405	1.99344	63.3595	-5.37643e-07	-2.9228e-06	-4.71854e-09	-2.91808e-06	0.272801	25544.3	41.2384	25503.1
10.0032	15.3889	3.65644	15.8173	-13.3658	12.5618	0.273271	-6.14841e-05	4351.34	232.527	1	11	0.00481756	0.000304575	0	0.000117447	4.04943e-05	1.27614e-05	-39.6285	0.0418989	0.0322704	0.0267234	-13.4328	15.8549	15.4212	3.68316	0.0615094	0.0146148	0.0632218	13.3658	232527	978639	1.00588e+06	-76.6342	0.0000000E+000	0.0000000E+000	0.0000000E+000	76.6342	0.0000000E+000	0.0000000E+000	0.0000000E+000	-76.6342	0.0000000E+000	0.0000000E+000	0.0000000E+000	-13.3658	0.0000000E+000	0.0000000E+000	0.0000000E+000	13.3658	4.20872	76.6342	2.53669e-06	-1.68018e-08	-2.48975e-12	-1.67993e-08	0.273231	4.44458e+06	658.614	4.44393e+06
3.1604	16.9216	1.96341	17.0351	-6.61844	14.0784	0.273281	0.000803767	25648.8	340.722	1	11	0.00481098	0.000282416	0	0.000118415	-7.39696e-05	7.23589e-06	9.21358	0.0256214	0.0252909	-0.00410238	-6.59497	17.0598	16.9469	1.95931	0.058311	0.00676584	0.0587023	6.61844	340722	2.9365e+06	2.9562e+06	-83.3816	0.0000000E+000	0.0000000E+000	0.0000000E+000	83.3816	0.0000000E+000	0.0000000E+000	0.0000000E+000	-83.3816	0.0000000E+000	0.0000000E+000	0.0000000E+000	-6.61844	0.0000000E+000	0.0000000E+000	0.0000000E+000	6.61844	8.61845	83.3816	3.8526e-06	2.19654e-07	-5.94543e-11	2.19714e-07	0.273355	340000	92.0286	340092
1.00006	17.7955	1.40356	17.8507	-4.50969	19.7186	0.273278	0.00127961	113386	700.991	1	12	0.00481404	0.000269683	0	0.000114867	0.000326654	1.59336e-06	-45.7916	0.00590825	0.00411965	0.00423508	-4.5222	17.8552	17.7996	1.4078	0.0558467	0.00440474	0.0560202	4.50969	700990	8.88771e+06	8.91531e+06	-85.4903	0.0000000E+000	0.0000000E+000	0.0000000E+000	85.4903	0.0000000E+000	0.0000000E+000	0.0000000E+000	-85.4903	0.0000000E+000	0.0000000E+000	0.0000000E+000	-4.50969	0.0000000E+000	0.0000000E+000	0.0000000E+000	4.50969	12.6788	85.4903	-7.04843e-06	3.4969e-07	4.1799e-10	3.49272e-07	0.272952	213564	255.276	213308
0.316193	18.6964	1.40235	18.7489	-4.2895	34.0629	0.273283	-0.000911692	358932	2008.03	1	12	0.0048134	0.000256729	0	0.000111175	9.77262e-05	2.22204e-06	61.7218	0.00865522	0.00410044	-0.00762228	-4.26534	18.7525	18.7005	1.39473	0.0531869	0.00398935	0.0533363	4.2895	2.00803e+06	2.67715e+07	2.68467e+07	-85.7105	0.0000000E+000	0.0000000E+000	0.0000000E+000	85.7105	0.0000000E+000	0.0000000E+000	0.0000000E+000	-85.7105	0.0000000E+000	0.0000000E+000	0.0000000E+000	-4.2895	0.0000000E+000	0.0000000E+000	0.0000000E+000	4.2895	13.3322	85.7105	9.2162e-06	-2.4915e-07	-8.90962e-11	-2.49061e-07	0.273185	299754	107.192	299646
0.0999041	19.7847	1.97592	19.8831	-5.70328	79.2709	0.273285	0.000398943	806246	7962.28	1	12	0.00481091	0.00024196	0	0.000220604	0.000116803	1.16103e-06	26.4227	0.00479845	0.00429718	-0.00213527	-5.69593	19.8872	19.789	1.97378	0.050045	0.00499805	0.0502939	5.70328	7.96228e+06	7.97255e+07	8.01221e+07	-84.2967	0.0000000E+000	0.0000000E+000	0.0000000E+000	84.2967	0.0000000E+000	0.0000000E+000	0.0000000E+000	-84.2967	0.0000000E+000	0.0000000E+000	0.0000000E+000	-5.70328	0.0000000E+000	0.0000000E+000	0.0000000E+000	5.70328	10.0129	84.2967	4.03386e-05	1.09025e-07	4.65979e-11	1.08978e-07	0.273168	685022	292.782	684729
0.0315922	21.3533	4.12669	21.7484	-10.938	222.153	0.273276	0.000620796	1.22078e+06	43952.8	1	12	0.00481443	0.000221369	0	-4.3981e-06	0.000135881	2.16522e-06	10.5146	0.00978105	0.00961681	-0.0017849	-10.9286	21.7575	21.3629	4.12491	0.045145	0.00872462	0.0459804	10.938	4.39528e+07	2.27431e+08	2.31639e+08	-79.062	0.0000000E+000	0.0000000E+000	0.0000000E+000	79.062	0.0000000E+000	0.0000000E+000	0.0000000E+000	-79.062	0.0000000E+000	0.0000000E+000	0.0000000E+000	-10.938	0.0000000E+000	0.0000000E+000	0.0000000E+000	10.938	5.17444	79.062	-0.000177196	1.69649e-07	8.43542e-11	1.69564e-07	0.27314	440203	218.882	439984
0.0100092	24.3655	9.92203	26.3083	-22.1569	673.375	0.273281	-0.00147407	1.60259e+06	227949	1	12	0.00481301	0.000182947	0	-0.000416464	2.33964e-06	2.75267e-06	9.21423	0.0150463	0.0148521	-0.00240931	-22.1399	26.3211	24.3804	9.91962	0.0352039	0.0143356	0.0380109	22.1569	2.27949e+08	5.59775e+08	6.04408e+08	-67.843	0.0000000E+000	0.0000000E+000	0.0000000E+000	67.843	0.0000000E+000	0.0000000E+000	0.0000000E+000	-67.843	0.0000000E+000	0.0000000E+000	0.0000000E+000	-22.1569	0.0000000E+000	0.0000000E+000	0.0000000E+000	22.1569	2.4557	67.843	7.13794e-05	-4.02835e-07	-3.4488e-12	-4.02831e-07	0.273278	185392	1.5872	185391