File: txt/18217_R279_UA653_SOC00_C04.mpt
EC-Lab ASCII FILE
Nb header lines : 65

Potentio Electrochemical Impedance Spectroscopy

Run on channel : 4 (SN 66756)
User :
CE vs. WE compliance from -10 V to 10 V
Electrode connection : standard
Potential control : Ewe
Ewe ctrl range : min = -10.00 V, max = 10.00 V
Safety Limits :
	Do not start on E overload
Acquisition started on : 10/08/2025 08:30:46.835
Technique started on : 10/08/2025 08:30:48.888
Loaded Setting File :  C:\Users\Celltest\OneDrive - store-dot.com\Documents\EC-Lab\Data\@Biologic Test Protocols\anode half cell EIS SOC00.mps
Saved on :
	File : 18217_R279_UA653_SOC00_C04.mpr
	Directory : C:\Users\Celltest\OneDrive - store-dot.com\Documents\EC-Lab\Data\Charmaine\
	Host : 169.254.61.224
Device : VMP-3e (SN .003165)
Address : USB
EC-LAB for windows v11.62 (software)
Internet server v27.00 (firmware)
Command interpretor v12.03 (firmware)
Electrode material :
Initial state :
Electrolyte :
Comments :
Electrode surface area : 0.001 cm²
Characteristic mass : 0.001 g
Equivalent Weight : 0.000 g/eq.
Density : 0.000 g/cm3
Volume (V) : 0.001 cm³
Record Ece
Cycle Definition : Charge/Discharge alternance
Mode                Single sine
E (V)               0.0000
vs.                 Eoc
tE (h:m:s)          0:00:0.0000
record              0
dI                  0.000
unit dI             mA
dt (s)              0.000
fi                  100.000
unit fi             kHz
ff                  10.000
unit ff             mHz
Nd                  6
Points              per decade
spacing             Logarithmic
Va (mV)             5.0
pw                  0.10
Na                  2
corr                0
E range min (V)     -10.000
E range max (V)     10.000
I Range             Auto
Bandwidth           5
nc cycles           0
goto Ns'            0
nr cycles           0
inc. cycle          0

freq/Hz	Re(Z)/Ohm	-Im(Z)/Ohm	|Z|/Ohm	Phase(Z)/deg	time/s	<Ewe>/V	<I>/mA	Cs/µF	Cp/µF	cycle number	I Range	|Ewe|/V	|I|/A	Ns	(Q-Qo)/mA.h	<Ece>/V	|Ece|/V	Phase(Zce)/deg	|Zce|/Ohm	Re(Zce)/Ohm	-Im(Zce)/Ohm	Phase(Zwe-ce)/deg	|Zwe-ce|/Ohm	Re(Zwe-ce)/Ohm	-Im(Zwe-ce)/Ohm	Re(Y)/Ohm-1	Im(Y)/Ohm-1	|Y|/Ohm-1	Phase(Y)/deg	Re(C)/nF	Im(C)/nF	|C|/nF	Phase(C)/deg	Re(M)	Im(M)	|M|	Phase(M)/deg	Re(Permittivity)	Im(Permittivity)	|Permittivity|	Phase(Permittivity)/deg	Re(Resistivity)/Ohm.cm	Im(Resistivity)/Ohm.cm	|Resistivity|/Ohm.cm	Phase(Resistivity)/deg	Re(Conductivity)/mS/cm	Im(Conductivity)/mS/cm	|Conductivity|/mS/cm	Phase(Conductivity)/deg	Tan(Delta)	Loss Angle(Delta)/deg	dq/mA.h	Pwe/W	Pce/W	Pwe-ce/W	<Ewe-Ece>/V	Rwe/Ohm	Rce/Ohm	Rwe-ce/Ohm		Ewe-Ece/V
100004	1.32781	0.273491	1.35569	-11.6385	2.05255	0.276201	-0.0328442	5.81918	0.236825	1	9	0.00496634	0.00366334	0	-8.65465e-06	-0.000244821	3.4005e-05	89.9015	0.00928252	1.59651e-05	-0.00928251	-11.2536	1.35386	1.32783	0.264208	0.722468	0.148807	0.737634	11.6385	236.825	1149.8	1173.94	-78.3615	0.0000000E+000	0.0000000E+000	0.0000000E+000	78.3615	0.0000000E+000	0.0000000E+000	0.0000000E+000	-78.3615	0.0000000E+000	0.0000000E+000	0.0000000E+000	-11.6385	0.0000000E+000	0.0000000E+000	0.0000000E+000	11.6385	4.85506	78.3615	-8.65465e-06	-9.0716e-06	8.04096e-09	-9.07964e-06	0.276446	8409.43	7.45401	8416.89
31621.1	1.53829	0.358934	1.57961	-13.134	3.57554	0.276205	-0.0282939	14.0226	0.72403	1	9	0.00505661	0.00320118	0	-4.13911e-05	9.9158e-05	1.64716e-05	20.2718	0.00514548	0.00482677	-0.00178277	-13.0315	1.58391	1.54312	0.357151	0.616507	0.143851	0.633068	13.134	724.031	3102.99	3186.34	-76.866	0.0000000E+000	0.0000000E+000	0.0000000E+000	76.866	0.0000000E+000	0.0000000E+000	0.0000000E+000	-76.866	0.0000000E+000	0.0000000E+000	0.0000000E+000	-13.134	0.0000000E+000	0.0000000E+000	0.0000000E+000	13.134	4.28572	76.866	6.56476e-06	-7.81493e-06	-2.80557e-09	-7.81212e-06	0.276106	9761.99	3.50457	9758.48
10002.2	1.81332	0.501915	1.88151	-15.4717	4.60053	0.276196	-0.0365367	31.7025	2.25602	1	9	0.00501339	0.00266456	0	-5.69505e-05	0.000213818	1.14098e-05	-52.0862	0.00428203	0.0026312	0.00337825	-15.5493	1.88494	1.81596	0.505293	0.512229	0.141781	0.531489	15.4717	2256.02	8150.57	8457.03	-74.5283	0.0000000E+000	0.0000000E+000	0.0000000E+000	74.5283	0.0000000E+000	0.0000000E+000	0.0000000E+000	-74.5283	0.0000000E+000	0.0000000E+000	0.0000000E+000	-15.4717	0.0000000E+000	0.0000000E+000	0.0000000E+000	15.4717	3.61281	74.5283	-1.98273e-06	-1.00913e-05	-7.81219e-09	-1.00835e-05	0.275982	7559.42	5.85214	7553.57
3163.08	2.17287	0.77453	2.30678	-19.6189	5.50064	0.276027	-0.102105	64.9639	7.32378	1	9	0.00458779	0.00198883	0	-6.98778e-05	-0.000206601	6.25841e-06	-13.71	0.00314679	0.00305713	0.000745812	-19.6109	2.30991	2.17592	0.775275	0.408338	0.145554	0.433505	19.6189	7323.78	20546.1	21812.4	-70.3811	0.0000000E+000	0.0000000E+000	0.0000000E+000	70.3811	0.0000000E+000	0.0000000E+000	0.0000000E+000	-70.3811	0.0000000E+000	0.0000000E+000	0.0000000E+000	-19.6189	0.0000000E+000	0.0000000E+000	0.0000000E+000	19.6189	2.8054	70.3811	-8.10597e-06	-2.81838e-05	2.10951e-08	-2.82049e-05	0.276234	2703.36	2.02341	2705.38
1000.32	2.69217	1.34852	3.01103	-26.6065	6.85382	0.276141	-0.0118459	117.984	23.6651	1	9	0.00451181	0.00149843	0	-7.40795e-05	-0.000187491	1.07407e-05	-14.9026	0.00716796	0.00692686	0.00184343	-26.5789	3.01805	2.6991	1.35036	0.296943	0.14874	0.332112	26.6065	23665.1	47244.8	52840.4	-63.3935	0.0000000E+000	0.0000000E+000	0.0000000E+000	63.3935	0.0000000E+000	0.0000000E+000	0.0000000E+000	-63.3935	0.0000000E+000	0.0000000E+000	0.0000000E+000	-26.6065	0.0000000E+000	0.0000000E+000	0.0000000E+000	26.6065	1.99639	63.3935	-2.52198e-06	-3.27113e-06	2.221e-09	-3.27336e-06	0.276329	23311.2	15.8276	23327
316.316	3.76118	2.628	4.58834	-34.9427	8.44901	0.276138	-0.0285754	191.458	62.8079	1	10	0.00456174	0.000994203	0	-8.49487e-05	-3.46116e-05	3.48023e-05	-3.38555	0.0350052	0.0349442	0.00206722	-34.7154	4.6182	3.79612	2.63007	0.178654	0.124829	0.217944	34.9427	62807.9	89890.1	109659	-55.0573	0.0000000E+000	0.0000000E+000	0.0000000E+000	55.0573	0.0000000E+000	0.0000000E+000	0.0000000E+000	-55.0573	0.0000000E+000	0.0000000E+000	0.0000000E+000	-34.9427	0.0000000E+000	0.0000000E+000	0.0000000E+000	34.9427	1.43119	55.0573	-2.63784e-06	-7.89075e-06	9.89041e-10	-7.89174e-06	0.276173	9663.5	1.21124	9664.71
100.032	6.26435	4.88421	7.9434	-37.9429	10.0088	0.276145	-0.0284635	325.752	123.158	1	10	0.00487074	0.00061318	0	-9.53658e-05	-0.000130161	1.42924e-05	-3.68696	0.0233086	0.0232604	0.00149887	-37.8485	7.96268	6.28761	4.88571	0.0992804	0.0774072	0.125891	37.9429	123158	157959	200297	-52.0571	0.0000000E+000	0.0000000E+000	0.0000000E+000	52.0571	0.0000000E+000	0.0000000E+000	0.0000000E+000	-52.0571	0.0000000E+000	0.0000000E+000	0.0000000E+000	-37.9429	0.0000000E+000	0.0000000E+000	0.0000000E+000	37.9429	1.28257	52.0571	-2.8422e-06	-7.86006e-06	3.70485e-09	-7.86376e-06	0.276275	9701.73	4.57292	9706.3
31.6296	11.6547	6.20328	13.2028	-28.0244	11.3385	0.276132	-0.0322534	811.158	179.068	1	10	0.00486278	0.000368315	0	-0.000105411	0.000118268	6.58135e-06	21.3467	0.0178688	0.0166429	-0.00650443	-27.9656	13.2144	11.6714	6.19678	0.0668608	0.035587	0.0757417	28.0244	179068	336433	381120	-61.9756	0.0000000E+000	0.0000000E+000	0.0000000E+000	61.9756	0.0000000E+000	0.0000000E+000	0.0000000E+000	-61.9756	0.0000000E+000	0.0000000E+000	0.0000000E+000	-28.0244	0.0000000E+000	0.0000000E+000	0.0000000E+000	28.0244	1.8788	61.9756	-3.27143e-06	-8.9062e-06	-3.81454e-09	-8.90239e-06	0.276014	8561.35	3.66684	8557.69
10.0032	16.4956	4.15708	17.0114	-14.1447	12.9198	0.276175	-0.010702	3827.3	228.555	1	11	0.00486268	0.000285849	0	-0.000111849	2.27182e-05	9.54157e-06	-47.2292	0.0333798	0.0226672	0.0245033	-14.2059	17.0394	16.5183	4.18159	0.057002	0.0143651	0.0587842	14.1447	228555	906924	935280	-75.8553	0.0000000E+000	0.0000000E+000	0.0000000E+000	75.8553	0.0000000E+000	0.0000000E+000	0.0000000E+000	-75.8553	0.0000000E+000	0.0000000E+000	0.0000000E+000	-14.1447	0.0000000E+000	0.0000000E+000	0.0000000E+000	14.1447	3.96807	75.8553	-2.34643e-06	-2.95562e-06	-2.4313e-10	-2.95537e-06	0.276152	25806	2.12281	25803.9
3.1604	18.3058	2.22116	18.4401	-6.91824	14.4365	0.276184	-0.00877912	22672.5	328.953	1	11	0.00486029	0.000263572	0	-0.000113176	-0.000283041	3.85787e-06	-73.3992	0.0146369	0.00418177	0.0140268	-6.95993	18.4459	18.31	2.23518	0.0538349	0.00653213	0.0542298	6.91824	328953	2.71108e+06	2.73097e+06	-83.0818	0.0000000E+000	0.0000000E+000	0.0000000E+000	83.0818	0.0000000E+000	0.0000000E+000	0.0000000E+000	-83.0818	0.0000000E+000	0.0000000E+000	0.0000000E+000	-6.91824	0.0000000E+000	0.0000000E+000	0.0000000E+000	6.91824	8.24155	83.0818	-1.87585e-06	-2.42465e-06	2.48485e-09	-2.42714e-06	0.276467	31459.2	32.2402	31491.4
1.00006	19.2429	1.54485	19.3048	-4.58994	20.0766	0.276186	-0.00793335	103017	659.701	1	12	0.00486613	0.000252069	0	-0.000135386	-0.0005888	1.69749e-06	-5.51459	0.00673423	0.00670306	0.000647154	-4.59026	19.3115	19.2496	1.54549	0.0516345	0.00414529	0.0518006	4.58994	659701	8.21736e+06	8.2438e+06	-85.4101	0.0000000E+000	0.0000000E+000	0.0000000E+000	85.4101	0.0000000E+000	0.0000000E+000	0.0000000E+000	-85.4101	0.0000000E+000	0.0000000E+000	0.0000000E+000	-4.58994	0.0000000E+000	0.0000000E+000	0.0000000E+000	4.58994	12.4562	85.4101	-7.17332e-06	-2.19108e-06	4.67116e-09	-2.19575e-06	0.276775	34813.2	74.2183	34887.5
0.316193	20.1427	1.47854	20.1969	-4.19817	34.4179	0.276182	-0.00604046	340435	1824.45	1	12	0.00486447	0.000240852	0	-0.000124935	-0.000111051	2.58412e-06	-82.1982	0.0107291	0.00145644	0.0106297	-4.22794	20.1991	20.1442	1.48917	0.0493797	0.00362463	0.0495125	4.19817	1.82445e+06	2.48551e+07	2.4922e+07	-85.8018	0.0000000E+000	0.0000000E+000	0.0000000E+000	85.8018	0.0000000E+000	0.0000000E+000	0.0000000E+000	-85.8018	0.0000000E+000	0.0000000E+000	0.0000000E+000	-4.19817	0.0000000E+000	0.0000000E+000	0.0000000E+000	4.19817	13.6234	85.8018	2.60672e-06	-1.66827e-06	6.70801e-10	-1.66894e-06	0.276293	45722.1	18.3846	45740.5
0.0999041	21.0675	2.01715	21.1639	-5.46922	79.6268	0.276185	-0.00199495	789766	7174.39	1	12	0.00486806	0.000230017	0	-0.000252627	2.27182e-05	2.55936e-06	3.16452	0.0111268	0.0111099	-0.000614237	-5.4647	21.1749	21.0786	2.01654	0.0470352	0.00450348	0.0472503	5.46922	7.17439e+06	7.49307e+07	7.52734e+07	-84.5308	0.0000000E+000	0.0000000E+000	0.0000000E+000	84.5308	0.0000000E+000	0.0000000E+000	0.0000000E+000	-84.5308	0.0000000E+000	0.0000000E+000	0.0000000E+000	-5.46922	0.0000000E+000	0.0000000E+000	0.0000000E+000	5.46922	10.4442	84.5308	-7.53771e-05	-5.50977e-07	-4.53218e-11	-5.50931e-07	0.276162	138442	11.3878	138430
0.0315922	22.4188	4.16121	22.8017	-10.5151	222.51	0.27619	-0.00339982	1.21066e+06	40320.4	1	12	0.00486456	0.000213342	0	-0.000494953	0.000328477	1.70359e-06	10.862	0.00798527	0.0078422	-0.00150478	-10.5078	22.8092	22.4267	4.15971	0.0431198	0.00800358	0.0438563	10.5151	4.03204e+07	2.17229e+08	2.20939e+08	-79.4849	0.0000000E+000	0.0000000E+000	0.0000000E+000	79.4849	0.0000000E+000	0.0000000E+000	0.0000000E+000	-79.4849	0.0000000E+000	0.0000000E+000	0.0000000E+000	-10.5151	0.0000000E+000	0.0000000E+000	0.0000000E+000	10.5151	5.38757	79.4849	-3.51871e-05	-9.38995e-07	-1.11676e-09	-9.37878e-07	0.275861	81236.7	96.6162	81140
0.0100092	25.1069	9.58173	26.8731	-20.8887	673.732	0.276185	-0.00033872	1.6595e+06	210974	1	12	0.0048652	0.000181043	0	0.000333984	-0.000149271	3.18484e-06	-13.3656	0.0175916	0.0171151	0.00406654	-20.8838	26.8906	25.124	9.58579	0.0347661	0.013268	0.0372119	20.8887	2.10974e+08	5.52813e+08	5.91703e+08	-69.1113	0.0000000E+000	0.0000000E+000	0.0000000E+000	69.1113	0.0000000E+000	0.0000000E+000	0.0000000E+000	-69.1113	0.0000000E+000	0.0000000E+000	0.0000000E+000	-20.8887	0.0000000E+000	0.0000000E+000	0.0000000E+000	20.8887	2.62029	69.1113	0.000386106	-9.35494e-08	5.05612e-11	-9.35999e-08	0.276334	815377	440.692	815818