File: txt/18219_R279_UA654_SOC00_C05_C06.mpt
EC-Lab ASCII FILE
Nb header lines : 65

Potentio Electrochemical Impedance Spectroscopy

Run on channel : 6 (SN 65795)
User :
CE vs. WE compliance from -10 V to 10 V
Electrode connection : standard
Potential control : Ewe
Ewe ctrl range : min = -10.00 V, max = 10.00 V
Safety Limits :
	Do not start on E overload
Acquisition started on : 10/08/2025 08:31:30.007
Technique started on : 10/08/2025 08:31:31.733
Loaded Setting File :  C:\Users\Celltest\OneDrive - store-dot.com\Documents\EC-Lab\Data\@Biologic Test Protocols\anode half cell EIS SOC00.mps
Saved on :
	File : 18219_R279_UA654_SOC00_C05_C06.mpr
	Directory : C:\Users\Celltest\OneDrive - store-dot.com\Documents\EC-Lab\Data\Charmaine\
	Host : 169.254.61.224
Device : VMP-3e (SN .003165)
Address : USB
EC-LAB for windows v11.62 (software)
Internet server v27.00 (firmware)
Command interpretor v12.03 (firmware)
Electrode material :
Initial state :
Electrolyte :
Comments :
Electrode surface area : 0.001 cm²
Characteristic mass : 0.001 g
Equivalent Weight : 0.000 g/eq.
Density : 0.000 g/cm3
Volume (V) : 0.001 cm³
Record Ece
Cycle Definition : Charge/Discharge alternance
Mode                Single sine
E (V)               0.0000
vs.                 Eoc
tE (h:m:s)          0:00:0.0000
record              0
dI                  0.000
unit dI             mA
dt (s)              0.000
fi                  100.000
unit fi             kHz
ff                  10.000
unit ff             mHz
Nd                  6
Points              per decade
spacing             Logarithmic
Va (mV)             5.0
pw                  0.10
Na                  2
corr                0
E range min (V)     -10.000
E range max (V)     10.000
I Range             Auto
Bandwidth           5
nc cycles           0
goto Ns'            0
nr cycles           0
inc. cycle          0

freq/Hz	Re(Z)/Ohm	-Im(Z)/Ohm	|Z|/Ohm	Phase(Z)/deg	time/s	<Ewe>/V	<I>/mA	Cs/µF	Cp/µF	cycle number	I Range	|Ewe|/V	|I|/A	Ns	(Q-Qo)/mA.h	<Ece>/V	|Ece|/V	Phase(Zce)/deg	|Zce|/Ohm	Re(Zce)/Ohm	-Im(Zce)/Ohm	Phase(Zwe-ce)/deg	|Zwe-ce|/Ohm	Re(Zwe-ce)/Ohm	-Im(Zwe-ce)/Ohm	Re(Y)/Ohm-1	Im(Y)/Ohm-1	|Y|/Ohm-1	Phase(Y)/deg	Re(C)/nF	Im(C)/nF	|C|/nF	Phase(C)/deg	Re(M)	Im(M)	|M|	Phase(M)/deg	Re(Permittivity)	Im(Permittivity)	|Permittivity|	Phase(Permittivity)/deg	Re(Resistivity)/Ohm.cm	Im(Resistivity)/Ohm.cm	|Resistivity|/Ohm.cm	Phase(Resistivity)/deg	Re(Conductivity)/mS/cm	Im(Conductivity)/mS/cm	|Conductivity|/mS/cm	Phase(Conductivity)/deg	Tan(Delta)	Loss Angle(Delta)/deg	dq/mA.h	Pwe/W	Pce/W	Pwe-ce/W	<Ewe-Ece>/V	Rwe/Ohm	Rce/Ohm	Rwe-ce/Ohm		Ewe-Ece/V
100004	1.0046	0.212526	1.02684	-11.9449	1.72554	0.290325	0.0326242	7.48846	0.320783	1	9	0.00469491	0.0045722	0	5.61104e-06	0.000249062	5.26626e-05	83.7928	0.011518	0.00124537	-0.0114505	-11.3047	1.02575	1.00585	0.201075	0.952776	0.201561	0.973863	11.9449	320.783	1516.33	1549.89	-78.0551	0.0000000E+000	0.0000000E+000	0.0000000E+000	78.0551	0.0000000E+000	0.0000000E+000	0.0000000E+000	-78.0551	0.0000000E+000	0.0000000E+000	0.0000000E+000	-11.9449	0.0000000E+000	0.0000000E+000	0.0000000E+000	11.9449	4.72698	78.0551	5.61104e-06	9.47164e-06	8.12544e-09	9.46352e-06	0.290076	8899.07	7.63425	8891.44
31621.1	1.17224	0.3169	1.21432	-15.1276	3.12252	0.290301	0.0417877	15.8825	1.08168	1	9	0.00502685	0.00413965	0	2.37317e-05	0.000115375	9.40265e-06	27.1132	0.00227136	0.00202176	-0.00103517	-15.0557	1.216	1.17426	0.315865	0.79497	0.214911	0.823507	15.1276	1081.68	4001.23	4144.86	-74.8724	0.0000000E+000	0.0000000E+000	0.0000000E+000	74.8724	0.0000000E+000	0.0000000E+000	0.0000000E+000	-74.8724	0.0000000E+000	0.0000000E+000	0.0000000E+000	-15.1276	0.0000000E+000	0.0000000E+000	0.0000000E+000	15.1276	3.69908	74.8724	7.63624e-06	1.2131e-05	4.82127e-09	1.21262e-05	0.290186	6947.05	2.76099	6944.29
10002.2	1.42183	0.475295	1.49917	-18.4839	4.02557	0.290289	0.0325869	33.478	3.36499	1	9	0.00457614	0.00305244	0	3.3511e-05	0.000229964	4.70546e-06	-57.2956	0.00154154	0.0008329	0.00129716	-18.5208	1.50037	1.42267	0.476592	0.632624	0.211476	0.667035	18.4839	3364.99	10066.3	10613.8	-71.5161	0.0000000E+000	0.0000000E+000	0.0000000E+000	71.5161	0.0000000E+000	0.0000000E+000	0.0000000E+000	-71.5161	0.0000000E+000	0.0000000E+000	0.0000000E+000	-18.4839	0.0000000E+000	0.0000000E+000	0.0000000E+000	18.4839	2.99148	71.5161	1.41347e-06	9.45962e-06	7.4938e-09	9.45213e-06	0.290059	8908.15	7.05693	8901.1
3163.08	1.78547	0.740094	1.93278	-22.5145	5.04664	0.290031	-0.129376	67.9866	9.96856	1	9	0.00483667	0.00250244	0	2.11385e-05	-0.000132899	6.46295e-06	28.6214	0.00258266	0.00226707	-0.00123715	-22.4549	1.9344	1.78773	0.738857	0.477956	0.198117	0.51739	22.5145	9968.57	24049	26033.2	-67.4855	0.0000000E+000	0.0000000E+000	0.0000000E+000	67.4855	0.0000000E+000	0.0000000E+000	0.0000000E+000	-67.4855	0.0000000E+000	0.0000000E+000	0.0000000E+000	-22.5145	0.0000000E+000	0.0000000E+000	0.0000000E+000	22.5145	2.41249	67.4855	-1.44441e-05	-3.7523e-05	1.71939e-08	-3.75402e-05	0.290163	2241.77	1.02723	2242.79
1000.32	2.27346	1.29505	2.61645	-29.6674	6.39977	0.290204	0.0166439	122.856	30.0984	1	9	0.00472323	0.00180521	0	2.86063e-05	-1.83109e-05	1.19685e-05	-35.4798	0.00662998	0.00539892	0.00384814	-29.6821	2.62304	2.27886	1.2989	0.332097	0.189174	0.382198	29.6674	30098.4	52837.9	60809.2	-60.3326	0.0000000E+000	0.0000000E+000	0.0000000E+000	60.3326	0.0000000E+000	0.0000000E+000	0.0000000E+000	-60.3326	0.0000000E+000	0.0000000E+000	0.0000000E+000	-29.6674	0.0000000E+000	0.0000000E+000	0.0000000E+000	29.6674	1.7555	60.3325	2.8406e-06	4.83012e-06	-3.04764e-10	4.83042e-06	0.290222	17436.1	1.10016	17437.2
316.316	3.21465	2.57353	4.11789	-38.6795	7.99707	0.290237	-0.0273163	195.51	76.3622	1	10	0.00473396	0.00114961	0	2.61702e-05	9.62774e-05	6.00716e-06	-1.992	0.0052254	0.00522224	0.000181634	-38.6361	4.12208	3.21987	2.57371	0.189576	0.151768	0.242843	38.6795	76362.2	95385.6	122187	-51.3205	0.0000000E+000	0.0000000E+000	0.0000000E+000	51.3205	0.0000000E+000	0.0000000E+000	0.0000000E+000	-51.3205	0.0000000E+000	0.0000000E+000	0.0000000E+000	-38.6795	0.0000000E+000	0.0000000E+000	0.0000000E+000	38.6795	1.24912	51.3205	-2.31357e-06	-7.92821e-06	-2.62994e-09	-7.92558e-06	0.290141	10625	3.52454	10621.5
100.032	5.54439	4.95431	7.43542	-41.783	9.3448	0.290246	-0.0264965	321.143	142.578	1	10	0.00466217	0.000627022	0	1.61716e-05	-7.5605e-05	4.18023e-05	-39.9098	0.0666679	0.051138	0.0427729	-41.7664	7.50205	5.59553	4.99708	0.100287	0.0896132	0.134491	41.783	142578	159560	213981	-48.217	0.0000000E+000	0.0000000E+000	0.0000000E+000	48.217	0.0000000E+000	0.0000000E+000	0.0000000E+000	-48.217	0.0000000E+000	0.0000000E+000	0.0000000E+000	-41.783	0.0000000E+000	0.0000000E+000	0.0000000E+000	41.783	1.11911	48.217	-2.42257e-06	-7.69051e-06	2.00327e-09	-7.69251e-06	0.290322	10954.1	2.85339	10957
31.6296	11.134	7.0399	13.173	-32.3046	10.6736	0.290234	-0.030905	714.76	204.139	1	10	0.00469328	0.000356281	0	7.10971e-06	0.000306356	7.723e-06	143.664	0.0216767	-0.0174619	-0.0128438	-32.298	13.1513	11.1166	7.02706	0.0641631	0.0405695	0.075913	32.3046	204139	322859	381982	-57.6954	0.0000000E+000	0.0000000E+000	0.0000000E+000	57.6954	0.0000000E+000	0.0000000E+000	0.0000000E+000	-57.6954	0.0000000E+000	0.0000000E+000	0.0000000E+000	-32.3046	0.0000000E+000	0.0000000E+000	0.0000000E+000	32.3046	1.58156	57.6954	-3.08075e-06	-8.96969e-06	-9.46793e-09	-8.96023e-06	0.289928	9391.17	9.91282	9381.25
10.0032	17.1433	5.29877	17.9435	-17.1757	12.2548	0.29025	-0.0132892	3002.66	261.844	1	11	0.00469058	0.000261409	0	1.95339e-07	0.000325454	4.03317e-06	-105.295	0.0154286	-0.00407	0.0148821	-17.225	17.944	17.1392	5.31365	0.0532452	0.0164574	0.0557306	17.1757	261844	847152	886696	-72.8243	0.0000000E+000	0.0000000E+000	0.0000000E+000	72.8243	0.0000000E+000	0.0000000E+000	0.0000000E+000	-72.8243	0.0000000E+000	0.0000000E+000	0.0000000E+000	-17.1757	0.0000000E+000	0.0000000E+000	0.0000000E+000	17.1757	3.23533	72.8243	-2.53456e-06	-3.8572e-06	-4.32503e-09	-3.85287e-06	0.289924	21841	24.49	21816.5
3.1604	19.6857	3.06914	19.9235	-8.86147	13.7715	0.290244	-0.0124122	16408.2	389.37	1	11	0.00468872	0.000235336	0	-2.79495e-06	-7.5605e-05	3.2071e-06	95.1888	0.0136278	-0.00123246	-0.0135719	-8.82344	19.9202	19.6845	3.05557	0.0495928	0.00773186	0.0501919	8.86147	389370	2.49745e+06	2.52762e+06	-81.1385	0.0000000E+000	0.0000000E+000	0.0000000E+000	81.1385	0.0000000E+000	0.0000000E+000	0.0000000E+000	-81.1385	0.0000000E+000	0.0000000E+000	0.0000000E+000	-8.86147	0.0000000E+000	0.0000000E+000	0.0000000E+000	8.86147	6.41409	81.1385	-2.40025e-06	-3.60256e-06	9.38422e-10	-3.6035e-06	0.29032	23383.8	6.0912	23389.9
1.00006	21.1015	2.3375	21.2306	-6.32111	19.4098	0.29024	-0.0112881	68083.4	825.317	1	12	0.00469085	0.000220948	0	-2.93304e-05	0.000401846	2.82247e-06	34.9156	0.0127743	0.0104749	-0.00731164	-6.2984	21.2402	21.112	2.33019	0.0468156	0.00518595	0.0471019	6.32111	825316	7.45045e+06	7.49602e+06	-83.6789	0.0000000E+000	0.0000000E+000	0.0000000E+000	83.6789	0.0000000E+000	0.0000000E+000	0.0000000E+000	-83.6789	0.0000000E+000	0.0000000E+000	0.0000000E+000	-6.32111	0.0000000E+000	0.0000000E+000	0.0000000E+000	6.32111	9.02738	83.6789	-1.03917e-05	-3.27626e-06	-4.53608e-09	-3.27172e-06	0.289838	25712	35.5991	25676.4
0.316193	22.6268	2.25974	22.7394	-5.70323	33.7528	0.290247	-0.00862516	222745	2199.73	1	12	0.00469367	0.000206411	0	-3.42371e-05	0.000115375	1.93787e-06	9.63222	0.00938839	0.00925604	-0.0015709	-5.69697	22.7484	22.6361	2.25817	0.0437589	0.00437021	0.0439766	5.70323	2.19973e+06	2.20259e+07	2.21355e+07	-84.2968	0.0000000E+000	0.0000000E+000	0.0000000E+000	84.2968	0.0000000E+000	0.0000000E+000	0.0000000E+000	-84.2968	0.0000000E+000	0.0000000E+000	0.0000000E+000	-5.70323	0.0000000E+000	0.0000000E+000	0.0000000E+000	5.70323	10.013	84.2968	-3.39221e-06	-2.50343e-06	-9.95132e-10	-2.50244e-06	0.290132	33651.2	13.3766	33637.9
0.0999041	24.025	2.44273	24.1489	-5.80555	78.9609	0.290243	-0.00412193	652172	6672.94	1	12	0.0046916	0.000194278	0	-0.000172035	0.000611924	2.2305e-06	0.944742	0.011481	0.0114794	-0.0001893	-5.80235	24.1603	24.0365	2.44254	0.0411974	0.00418871	0.0414098	5.80555	6.67294e+06	6.56306e+07	6.5969e+07	-84.1944	0.0000000E+000	0.0000000E+000	0.0000000E+000	84.1944	0.0000000E+000	0.0000000E+000	0.0000000E+000	-84.1944	0.0000000E+000	0.0000000E+000	0.0000000E+000	-5.80555	0.0000000E+000	0.0000000E+000	0.0000000E+000	5.80555	9.83533	84.1944	-7.7621e-05	-1.19636e-06	-2.52231e-09	-1.19384e-06	0.289631	70414.2	148.456	70265.8
0.0315922	25.3372	4.0709	25.6621	-9.12764	221.844	0.290243	-0.00374643	1.23751e+06	31141.9	1	12	0.004692	0.000182838	0	-0.000444275	7.87179e-07	1.89407e-06	61.8297	0.0103593	0.00489056	-0.0091322	-9.10577	25.6655	25.3421	4.06176	0.0384745	0.00618165	0.0389679	9.12764	3.11419e+07	1.93826e+08	1.96312e+08	-80.8724	0.0000000E+000	0.0000000E+000	0.0000000E+000	80.8724	0.0000000E+000	0.0000000E+000	0.0000000E+000	-80.8724	0.0000000E+000	0.0000000E+000	0.0000000E+000	-9.12764	0.0000000E+000	0.0000000E+000	0.0000000E+000	9.12764	6.22398	80.8724	-5.92108e-05	-1.08738e-06	-2.94911e-12	-1.08737e-06	0.290242	77471.8	0.210114	77471.6
0.0100092	27.5816	8.91321	28.986	-17.9086	673.067	0.290234	-0.000510826	1.78397e+06	168686	1	12	0.0046912	0.000161843	0	0.00025115	0.00036365	3.74759e-06	-59.3859	0.0231556	0.0117921	0.0199281	-17.9389	29.0034	27.5934	8.93314	0.0328278	0.0106086	0.0344994	17.9086	1.68686e+08	5.21992e+08	5.48571e+08	-72.0914	0.0000000E+000	0.0000000E+000	0.0000000E+000	72.0914	0.0000000E+000	0.0000000E+000	0.0000000E+000	-72.0914	0.0000000E+000	0.0000000E+000	0.0000000E+000	-17.9086	0.0000000E+000	0.0000000E+000	0.0000000E+000	17.9086	3.09447	72.0914	0.00036316	-1.48259e-07	-1.85762e-10	-1.48073e-07	0.289871	568167	711.886	567455