File: txt/18220_R279_UA654_SOC00_C07.mpt
EC-Lab ASCII FILE
Nb header lines : 65

Potentio Electrochemical Impedance Spectroscopy

Run on channel : 7 (SN 66126)
User :
CE vs. WE compliance from -10 V to 10 V
Electrode connection : standard
Potential control : Ewe
Ewe ctrl range : min = -10.00 V, max = 10.00 V
Safety Limits :
	Do not start on E overload
Acquisition started on : 10/08/2025 08:32:12.403
Technique started on : 10/08/2025 08:32:14.315
Loaded Setting File :  C:\Users\Celltest\OneDrive - store-dot.com\Documents\EC-Lab\Data\@Biologic Test Protocols\anode half cell EIS SOC00.mps
Saved on :
	File : 18220_R279_UA654_SOC00_C07.mpr
	Directory : C:\Users\Celltest\OneDrive - store-dot.com\Documents\EC-Lab\Data\Charmaine\
	Host : 169.254.61.224
Device : VMP-3e (SN .003165)
Address : USB
EC-LAB for windows v11.62 (software)
Internet server v27.00 (firmware)
Command interpretor v12.03 (firmware)
Electrode material :
Initial state :
Electrolyte :
Comments :
Electrode surface area : 0.001 cm²
Characteristic mass : 0.001 g
Equivalent Weight : 0.000 g/eq.
Density : 0.000 g/cm3
Volume (V) : 0.001 cm³
Record Ece
Cycle Definition : Charge/Discharge alternance
Mode                Single sine
E (V)               0.0000
vs.                 Eoc
tE (h:m:s)          0:00:0.0000
record              0
dI                  0.000
unit dI             mA
dt (s)              0.000
fi                  100.000
unit fi             kHz
ff                  10.000
unit ff             mHz
Nd                  6
Points              per decade
spacing             Logarithmic
Va (mV)             5.0
pw                  0.10
Na                  2
corr                0
E range min (V)     -10.000
E range max (V)     10.000
I Range             Auto
Bandwidth           5
nc cycles           0
goto Ns'            0
nr cycles           0
inc. cycle          0

freq/Hz	Re(Z)/Ohm	-Im(Z)/Ohm	|Z|/Ohm	Phase(Z)/deg	time/s	<Ewe>/V	<I>/mA	Cs/µF	Cp/µF	cycle number	I Range	|Ewe|/V	|I|/A	Ns	(Q-Qo)/mA.h	<Ece>/V	|Ece|/V	Phase(Zce)/deg	|Zce|/Ohm	Re(Zce)/Ohm	-Im(Zce)/Ohm	Phase(Zwe-ce)/deg	|Zwe-ce|/Ohm	Re(Zwe-ce)/Ohm	-Im(Zwe-ce)/Ohm	Re(Y)/Ohm-1	Im(Y)/Ohm-1	|Y|/Ohm-1	Phase(Y)/deg	Re(C)/nF	Im(C)/nF	|C|/nF	Phase(C)/deg	Re(M)	Im(M)	|M|	Phase(M)/deg	Re(Permittivity)	Im(Permittivity)	|Permittivity|	Phase(Permittivity)/deg	Re(Resistivity)/Ohm.cm	Im(Resistivity)/Ohm.cm	|Resistivity|/Ohm.cm	Phase(Resistivity)/deg	Re(Conductivity)/mS/cm	Im(Conductivity)/mS/cm	|Conductivity|/mS/cm	Phase(Conductivity)/deg	Tan(Delta)	Loss Angle(Delta)/deg	dq/mA.h	Pwe/W	Pce/W	Pwe-ce/W	<Ewe-Ece>/V	Rwe/Ohm	Rce/Ohm	Rwe-ce/Ohm		Ewe-Ece/V
100004	1.2185	0.229807	1.23998	-10.6804	1.91155	0.283354	0.0825597	6.92535	0.237869	1	9	0.00457562	0.00369008	0	8.92751e-06	-0.000460124	4.16115e-05	88.5205	0.0112766	0.000291144	-0.0112728	-10.1653	1.23823	1.21879	0.218534	0.792495	0.149463	0.806466	10.6804	237.869	1261.25	1283.48	-79.3196	0.0000000E+000	0.0000000E+000	0.0000000E+000	79.3196	0.0000000E+000	0.0000000E+000	0.0000000E+000	-79.3196	0.0000000E+000	0.0000000E+000	0.0000000E+000	-10.6804	0.0000000E+000	0.0000000E+000	0.0000000E+000	10.6804	5.30227	79.3196	8.92751e-06	2.33936e-05	-3.79877e-08	2.34316e-05	0.283814	3432.1	5.57323	3437.68
31621.1	1.40025	0.316477	1.43557	-12.7357	3.31054	0.283367	0.0796181	15.9038	0.772919	1	9	0.00506692	0.00352955	0	3.08291e-05	-0.000212144	1.487e-05	59.6572	0.00421299	0.00212828	-0.00363589	-12.5755	1.43685	1.40238	0.312841	0.679448	0.153565	0.696586	12.7357	772.919	3419.79	3506.04	-77.2643	0.0000000E+000	0.0000000E+000	0.0000000E+000	77.2643	0.0000000E+000	0.0000000E+000	0.0000000E+000	-77.2643	0.0000000E+000	0.0000000E+000	0.0000000E+000	-12.7357	0.0000000E+000	0.0000000E+000	0.0000000E+000	12.7357	4.42451	77.2643	9.95858e-06	2.25611e-05	-1.68905e-08	2.2578e-05	0.283579	3559.08	2.66452	3561.74
10002.2	1.64492	0.469722	1.71067	-15.9372	4.21154	0.283371	0.0841608	33.8752	2.55407	1	9	0.00493584	0.00288533	0	5.8093e-05	-0.000116767	1.05623e-05	16.8834	0.0036607	0.00350292	-0.00106316	-15.8709	1.71375	1.64842	0.468659	0.562098	0.160513	0.584567	15.9372	2554.07	8944.07	9301.59	-74.0628	0.0000000E+000	0.0000000E+000	0.0000000E+000	74.0628	0.0000000E+000	0.0000000E+000	0.0000000E+000	-74.0628	0.0000000E+000	0.0000000E+000	0.0000000E+000	-15.9372	0.0000000E+000	0.0000000E+000	0.0000000E+000	15.9372	3.50189	74.0628	4.08617e-06	2.38487e-05	-9.82718e-09	2.38585e-05	0.283487	3367.01	1.38742	3368.4
3163.08	1.99302	0.699733	2.11229	-19.3458	5.28663	0.283188	-0.0208449	71.908	7.89108	1	9	0.00485529	0.0022986	0	6.49005e-05	-0.000116767	4.51533e-06	-110.941	0.00196439	-0.000702098	0.00183463	-19.399	2.11223	1.99232	0.701568	0.44669	0.156829	0.47342	19.3458	7891.08	22475.8	23820.8	-70.6542	0.0000000E+000	0.0000000E+000	0.0000000E+000	70.6542	0.0000000E+000	0.0000000E+000	0.0000000E+000	-70.6542	0.0000000E+000	0.0000000E+000	0.0000000E+000	-19.3458	0.0000000E+000	0.0000000E+000	0.0000000E+000	19.3458	2.84826	70.6542	-3.86726e-06	-5.90303e-06	2.43399e-09	-5.90546e-06	0.283305	13585.5	5.60169	13591.1
1000.32	2.4671	1.22211	2.7532	-26.3522	6.6398	0.283268	0.0497919	130.188	25.6517	1	9	0.00475825	0.00172826	0	8.1552e-05	-9.76912e-05	8.32775e-06	-62.9637	0.00481858	0.00219031	0.004292	-26.4119	2.75707	2.46929	1.2264	0.325469	0.161226	0.363213	26.3522	25651.7	51783.4	57788.7	-63.6478	0.0000000E+000	0.0000000E+000	0.0000000E+000	63.6478	0.0000000E+000	0.0000000E+000	0.0000000E+000	-63.6478	0.0000000E+000	0.0000000E+000	0.0000000E+000	-26.3522	0.0000000E+000	0.0000000E+000	0.0000000E+000	26.3522	2.01872	63.6478	4.37353e-06	1.41045e-05	-4.86423e-09	1.41093e-05	0.283366	5689.04	1.96199	5691
316.316	3.37465	2.39662	4.13909	-35.3817	8.23709	0.28328	-0.0142165	209.942	70.3863	1	10	0.00476384	0.00115094	0	8.69974e-05	-0.000326596	3.48609e-05	44.9695	0.0302891	0.021429	-0.0214062	-34.9688	4.14427	3.39608	2.37521	0.196979	0.139891	0.241599	35.3817	70386.3	99110.2	121561	-54.6183	0.0000000E+000	0.0000000E+000	0.0000000E+000	54.6183	0.0000000E+000	0.0000000E+000	0.0000000E+000	-54.6183	0.0000000E+000	0.0000000E+000	0.0000000E+000	-35.3817	0.0000000E+000	0.0000000E+000	0.0000000E+000	35.3817	1.40809	54.6183	-1.22529e-06	-4.02723e-06	4.64304e-09	-4.03187e-06	0.283606	19926.2	22.9731	19949.1
100.032	5.68091	4.48151	7.23579	-38.2689	9.58478	0.283285	-0.0131629	355.023	136.186	1	10	0.00473223	0.000654003	0	8.33965e-05	-0.000307521	8.13932e-06	-41.3924	0.0124454	0.00933652	0.00822904	-38.2743	7.24822	5.69025	4.48974	0.108504	0.0855957	0.138202	38.2689	136186	172634	219885	-51.7311	0.0000000E+000	0.0000000E+000	0.0000000E+000	51.7311	0.0000000E+000	0.0000000E+000	0.0000000E+000	-51.7311	0.0000000E+000	0.0000000E+000	0.0000000E+000	-38.2689	0.0000000E+000	0.0000000E+000	0.0000000E+000	38.2689	1.26763	51.7311	-1.98422e-06	-3.72887e-06	4.04788e-09	-3.73291e-06	0.283593	21521.5	23.3626	21544.8
31.6296	10.6203	5.88539	12.142	-28.9936	10.9135	0.283285	-0.0164576	854.972	200.872	1	10	0.0047302	0.000389573	0	7.91076e-05	-7.86157e-05	7.43211e-06	-89.4467	0.0190776	0.000184238	0.0190767	-29.0719	12.1514	10.6205	5.90447	0.0720369	0.0399202	0.0823586	28.9936	200872	362478	414415	-61.0064	0.0000000E+000	0.0000000E+000	0.0000000E+000	61.0064	0.0000000E+000	0.0000000E+000	0.0000000E+000	-61.0064	0.0000000E+000	0.0000000E+000	0.0000000E+000	-28.9936	0.0000000E+000	0.0000000E+000	0.0000000E+000	28.9936	1.80452	61.0064	-1.12741e-06	-4.66218e-06	1.29382e-09	-4.66347e-06	0.283363	17213	4.77687	17217.8
10.0032	15.287	4.16225	15.8435	-15.231	12.4958	0.283324	-0.00193144	3822.54	263.82	1	11	0.00472531	0.000298249	0	7.60054e-05	-0.000135842	6.84203e-06	16.5508	0.0229407	0.0219902	-0.00653498	-15.1873	15.863	15.309	4.15572	0.0609003	0.0165816	0.0631173	15.231	263820	968948	1.00422e+06	-74.7691	0.0000000E+000	0.0000000E+000	0.0000000E+000	74.7691	0.0000000E+000	0.0000000E+000	0.0000000E+000	-74.7691	0.0000000E+000	0.0000000E+000	0.0000000E+000	-15.231	0.0000000E+000	0.0000000E+000	0.0000000E+000	15.231	3.67277	74.7691	2.0566e-06	-5.47224e-07	2.62371e-10	-5.47487e-07	0.28346	146690	70.3319	146761
3.1604	17.1991	2.43666	17.3709	-8.06362	14.0125	0.283334	-0.000726757	20667.3	406.658	1	11	0.00472657	0.000272097	0	7.73388e-05	-0.0004792	2.99894e-06	115.804	0.0110216	-0.00479759	-0.00992262	-8.03342	17.3648	17.1943	2.42674	0.0569984	0.00807515	0.0575676	8.06362	406658	2.87039e+06	2.89906e+06	-81.9364	0.0000000E+000	0.0000000E+000	0.0000000E+000	81.9364	0.0000000E+000	0.0000000E+000	0.0000000E+000	-81.9364	0.0000000E+000	0.0000000E+000	0.0000000E+000	-8.06362	0.0000000E+000	0.0000000E+000	0.0000000E+000	8.06362	7.0585	81.9364	3.64088e-06	-2.05915e-07	3.48262e-10	-2.06263e-07	0.283813	389860	659.367	390519
1.00006	18.3528	1.90346	18.4512	-5.92128	19.653	0.283329	-0.00037741	83608	889.79	1	12	0.00472867	0.00025628	0	6.65514e-05	-0.0004792	1.98188e-06	60.1057	0.00773327	0.00385428	-0.00670433	-5.89935	18.4544	18.3566	1.89676	0.0539078	0.00559107	0.054197	5.92128	889791	8.57915e+06	8.62517e+06	-84.0787	0.0000000E+000	0.0000000E+000	0.0000000E+000	84.0787	0.0000000E+000	0.0000000E+000	0.0000000E+000	-84.0787	0.0000000E+000	0.0000000E+000	0.0000000E+000	-5.92128	0.0000000E+000	0.0000000E+000	0.0000000E+000	5.92128	9.64177	84.0787	-9.17497e-06	-1.06931e-07	1.80855e-10	-1.07112e-07	0.283809	750721	1269.71	751990
0.316193	19.5911	1.95025	19.6879	-5.68495	33.9952	0.283331	-0.00171386	258093	2532.56	1	12	0.00472845	0.00024017	0	7.22714e-05	-2.13895e-05	5.05958e-07	68.6284	0.00210666	0.000767699	-0.0019618	-5.67905	19.6885	19.5919	1.94829	0.0505428	0.00503143	0.0507926	5.68495	2.53256e+06	2.54406e+07	2.55663e+07	-84.315	0.0000000E+000	0.0000000E+000	0.0000000E+000	84.315	0.0000000E+000	0.0000000E+000	0.0000000E+000	-84.315	0.0000000E+000	0.0000000E+000	0.0000000E+000	-5.68495	0.0000000E+000	0.0000000E+000	0.0000000E+000	5.68495	10.0454	84.315	1.33472e-05	-4.8559e-07	3.66587e-11	-4.85627e-07	0.283352	165317	12.4803	165329
0.0999041	20.7893	2.33534	20.92	-6.40938	79.2031	0.283329	0.000700865	682162	8500.85	1	12	0.0047275	0.00022598	0	0.000149187	-4.04649e-05	2.10837e-06	-13.2554	0.00932989	0.00908132	0.00213927	-6.41243	20.9293	20.7983	2.33748	0.0475023	0.00533612	0.0478011	6.40938	8.50085e+06	7.56749e+07	7.61509e+07	-83.5906	0.0000000E+000	0.0000000E+000	0.0000000E+000	83.5906	0.0000000E+000	0.0000000E+000	0.0000000E+000	-83.5906	0.0000000E+000	0.0000000E+000	0.0000000E+000	-6.40938	0.0000000E+000	0.0000000E+000	0.0000000E+000	6.40938	8.90204	83.5906	1.82663e-05	1.98575e-07	-2.83604e-11	1.98604e-07	0.283369	404256	57.7357	404314
0.0315922	21.9297	4.15535	22.3199	-10.7295	222.088	0.283335	0.000170685	1.21236e+06	42020.8	1	12	0.00472725	0.000211796	0	-0.000138102	-2.13895e-05	1.37621e-06	105.784	0.0064978	-0.00176744	-0.0062528	-10.7146	22.317	21.9279	4.14909	0.0440198	0.00834111	0.0448031	10.7295	4.20208e+07	2.21763e+08	2.25709e+08	-79.2705	0.0000000E+000	0.0000000E+000	0.0000000E+000	79.2705	0.0000000E+000	0.0000000E+000	0.0000000E+000	-79.2705	0.0000000E+000	0.0000000E+000	0.0000000E+000	-10.7295	0.0000000E+000	0.0000000E+000	0.0000000E+000	10.7295	5.27745	79.2705	-0.000181128	4.8361e-08	-3.65086e-12	4.83647e-08	0.283357	1.65999e+06	125.316	1.66012e+06
0.0100092	24.3584	9.61806	26.1885	-21.5469	673.311	0.283333	-0.00143351	1.65324e+06	222991	1	12	0.00472921	0.000180583	0	-0.000216639	-7.86157e-05	1.4838e-06	18.3015	0.0082167	0.00780108	-0.00258018	-21.5354	26.1948	24.3662	9.61548	0.0355162	0.0140238	0.0381846	21.5469	2.22991e+08	5.6474e+08	6.07171e+08	-68.4531	0.0000000E+000	0.0000000E+000	0.0000000E+000	68.4531	0.0000000E+000	0.0000000E+000	0.0000000E+000	-68.4531	0.0000000E+000	0.0000000E+000	0.0000000E+000	-21.5469	0.0000000E+000	0.0000000E+000	0.0000000E+000	21.5469	2.53257	68.4531	0.000230639	-4.06161e-07	1.12696e-10	-4.06273e-07	0.283412	197650	54.8415	197705