File: txt/18221_R279_UA654_SOC00_C08.mpt
EC-Lab ASCII FILE
Nb header lines : 65

Potentio Electrochemical Impedance Spectroscopy

Run on channel : 8 (SN 65398)
User :
CE vs. WE compliance from -10 V to 10 V
Electrode connection : standard
Potential control : Ewe
Ewe ctrl range : min = -10.00 V, max = 10.00 V
Safety Limits :
	Do not start on E overload
Acquisition started on : 10/08/2025 08:32:01.208
Technique started on : 10/08/2025 08:32:03.119
Loaded Setting File :  C:\Users\Celltest\OneDrive - store-dot.com\Documents\EC-Lab\Data\@Biologic Test Protocols\anode half cell EIS SOC00.mps
Saved on :
	File : 18221_R279_UA654_SOC00_C08.mpr
	Directory : C:\Users\Celltest\OneDrive - store-dot.com\Documents\EC-Lab\Data\Charmaine\
	Host : 169.254.61.224
Device : VMP-3e (SN .003165)
Address : USB
EC-LAB for windows v11.62 (software)
Internet server v27.00 (firmware)
Command interpretor v12.03 (firmware)
Electrode material :
Initial state :
Electrolyte :
Comments :
Electrode surface area : 0.001 cm²
Characteristic mass : 0.001 g
Equivalent Weight : 0.000 g/eq.
Density : 0.000 g/cm3
Volume (V) : 0.001 cm³
Record Ece
Cycle Definition : Charge/Discharge alternance
Mode                Single sine
E (V)               0.0000
vs.                 Eoc
tE (h:m:s)          0:00:0.0000
record              0
dI                  0.000
unit dI             mA
dt (s)              0.000
fi                  100.000
unit fi             kHz
ff                  10.000
unit ff             mHz
Nd                  6
Points              per decade
spacing             Logarithmic
Va (mV)             5.0
pw                  0.10
Na                  2
corr                0
E range min (V)     -10.000
E range max (V)     10.000
I Range             Auto
Bandwidth           5
nc cycles           0
goto Ns'            0
nr cycles           0
inc. cycle          0

freq/Hz	Re(Z)/Ohm	-Im(Z)/Ohm	|Z|/Ohm	Phase(Z)/deg	time/s	<Ewe>/V	<I>/mA	Cs/µF	Cp/µF	cycle number	I Range	|Ewe|/V	|I|/A	Ns	(Q-Qo)/mA.h	<Ece>/V	|Ece|/V	Phase(Zce)/deg	|Zce|/Ohm	Re(Zce)/Ohm	-Im(Zce)/Ohm	Phase(Zwe-ce)/deg	|Zwe-ce|/Ohm	Re(Zwe-ce)/Ohm	-Im(Zwe-ce)/Ohm	Re(Y)/Ohm-1	Im(Y)/Ohm-1	|Y|/Ohm-1	Phase(Y)/deg	Re(C)/nF	Im(C)/nF	|C|/nF	Phase(C)/deg	Re(M)	Im(M)	|M|	Phase(M)/deg	Re(Permittivity)	Im(Permittivity)	|Permittivity|	Phase(Permittivity)/deg	Re(Resistivity)/Ohm.cm	Im(Resistivity)/Ohm.cm	|Resistivity|/Ohm.cm	Phase(Resistivity)/deg	Re(Conductivity)/mS/cm	Im(Conductivity)/mS/cm	|Conductivity|/mS/cm	Phase(Conductivity)/deg	Tan(Delta)	Loss Angle(Delta)/deg	dq/mA.h	Pwe/W	Pce/W	Pwe-ce/W	<Ewe-Ece>/V	Rwe/Ohm	Rce/Ohm	Rwe-ce/Ohm		Ewe-Ece/V
100004	1.00091	0.269592	1.03658	-15.0746	1.91052	0.282828	0.0141021	5.90333	0.399303	1	9	0.00485486	0.00468352	0	-1.33843e-06	-0.00020366	6.13304e-05	98.0093	0.0130949	-0.00182457	-0.0129672	-14.4055	1.03152	0.999088	0.256625	0.93151	0.250899	0.964708	15.0746	399.303	1482.49	1535.32	-74.9254	0.0000000E+000	0.0000000E+000	0.0000000E+000	74.9254	0.0000000E+000	0.0000000E+000	0.0000000E+000	-74.9254	0.0000000E+000	0.0000000E+000	0.0000000E+000	-15.0746	0.0000000E+000	0.0000000E+000	0.0000000E+000	15.0746	3.7127	74.9254	-1.33843e-06	3.98848e-06	-2.87203e-09	3.99135e-06	0.283032	20055.7	14.4418	20070.2
31621.1	1.21842	0.398135	1.28182	-18.0955	3.30953	0.282835	0.0171155	12.6419	1.21961	1	9	0.00508473	0.00396681	0	-7.49557e-06	6.3091e-06	2.48725e-05	56.3112	0.00627016	0.00347794	-0.00521716	-17.8259	1.28352	1.2219	0.392917	0.741556	0.242313	0.780142	18.0955	1219.61	3732.39	3926.6	-71.9045	0.0000000E+000	0.0000000E+000	0.0000000E+000	71.9045	0.0000000E+000	0.0000000E+000	0.0000000E+000	-71.9045	0.0000000E+000	0.0000000E+000	0.0000000E+000	-18.0955	0.0000000E+000	0.0000000E+000	0.0000000E+000	18.0955	3.06032	71.9045	5.55003e-06	4.84086e-06	1.07983e-10	4.84075e-06	0.282829	16525.1	0.36862	16524.8
10002.2	1.53981	0.588331	1.64838	-20.9108	4.46056	0.282844	0.0143625	27.0459	3.44533	1	9	0.00490341	0.00297468	0	2.40263e-06	-1.2779e-05	1.12074e-05	-120.515	0.00376759	-0.00191307	0.00324575	-21.04	1.64776	1.5379	0.591577	0.5667	0.216524	0.606656	20.9108	3445.33	9017.3	9653.08	-69.0892	0.0000000E+000	0.0000000E+000	0.0000000E+000	69.0892	0.0000000E+000	0.0000000E+000	0.0000000E+000	-69.0892	0.0000000E+000	0.0000000E+000	0.0000000E+000	-20.9108	0.0000000E+000	0.0000000E+000	0.0000000E+000	20.9108	2.61726	69.0892	2.9466e-06	4.06234e-06	-1.83537e-10	4.06252e-06	0.282857	19693.3	0.889746	19694.2
3163.08	2.00069	0.885269	2.1878	-23.8685	5.48561	0.282529	-0.12749	56.8374	9.30614	1	9	0.00486967	0.00222583	0	-1.47098e-05	6.3091e-06	8.73121e-06	10.2746	0.00392268	0.00385977	-0.000699672	-23.8109	2.19105	2.00455	0.88457	0.417989	0.184952	0.45708	23.8685	9306.14	21031.7	22998.6	-66.1315	0.0000000E+000	0.0000000E+000	0.0000000E+000	66.1315	0.0000000E+000	0.0000000E+000	0.0000000E+000	-66.1315	0.0000000E+000	0.0000000E+000	0.0000000E+000	-23.8685	0.0000000E+000	0.0000000E+000	0.0000000E+000	23.8685	2.25998	66.1315	-1.44969e-05	-3.60196e-05	-8.04345e-10	-3.60187e-05	0.282523	2216.1	0.0494871	2216.05
1000.32	2.67008	1.43726	3.03233	-28.2929	6.83979	0.282733	0.0507834	110.699	24.8693	1	9	0.00476708	0.00157208	0	4.15744e-06	0.000235366	4.88552e-06	59.4285	0.00310767	0.0015806	-0.00267569	-28.2342	3.03246	2.67166	1.43459	0.290382	0.156308	0.329779	28.2929	24869.3	46201	52469.1	-61.7071	0.0000000E+000	0.0000000E+000	0.0000000E+000	61.7071	0.0000000E+000	0.0000000E+000	0.0000000E+000	-61.7071	0.0000000E+000	0.0000000E+000	0.0000000E+000	-28.2929	0.0000000E+000	0.0000000E+000	0.0000000E+000	28.2929	1.85776	61.7071	6.73037e-06	1.43582e-05	1.19527e-08	1.43462e-05	0.282498	5567.43	4.6347	5562.8
316.316	3.81082	2.4679	4.54014	-32.9273	8.43501	0.282769	-0.0233276	203.878	60.2405	1	10	0.00478756	0.00105449	0	-5.26263e-07	0.000159014	1.03241e-05	-36.1908	0.00979054	0.00790151	0.00578108	-32.9343	4.54992	3.81872	2.47369	0.184876	0.119726	0.220257	32.9273	60240.5	93020.5	110823	-57.0727	0.0000000E+000	0.0000000E+000	0.0000000E+000	57.0727	0.0000000E+000	0.0000000E+000	0.0000000E+000	-57.0727	0.0000000E+000	0.0000000E+000	0.0000000E+000	-32.9273	0.0000000E+000	0.0000000E+000	0.0000000E+000	32.9273	1.54415	57.0727	-2.96666e-06	-6.59634e-06	-3.70941e-09	-6.59263e-06	0.28261	12121.6	6.81653	12114.8
100.032	6.13617	4.06326	7.35953	-33.5118	9.78282	0.282761	-0.021888	391.567	119.359	1	10	0.00473782	0.000643767	0	-9.76038e-06	0.000101749	2.51205e-05	-17.6219	0.0390211	0.0371901	0.011813	-33.4291	7.39707	6.17336	4.07508	0.113291	0.0750196	0.135878	33.5118	119359	180251	216188	-56.4882	0.0000000E+000	0.0000000E+000	0.0000000E+000	56.4882	0.0000000E+000	0.0000000E+000	0.0000000E+000	-56.4882	0.0000000E+000	0.0000000E+000	0.0000000E+000	-33.5118	0.0000000E+000	0.0000000E+000	0.0000000E+000	33.5118	1.51016	56.4882	-2.07674e-06	-6.18908e-06	-2.22709e-09	-6.18685e-06	0.282659	12918.5	4.64863	12913.9
31.6296	10.4449	4.69907	11.4532	-24.2226	11.1096	0.282746	-0.0279553	1070.82	180.253	1	10	0.00474542	0.00041433	0	-1.87162e-05	0.000254454	1.06171e-05	3.32172	0.0256247	0.0255817	-0.00148476	-24.1635	11.476	10.4705	4.69758	0.0796245	0.0358225	0.0873116	24.2226	180253	400658	439338	-65.7774	0.0000000E+000	0.0000000E+000	0.0000000E+000	65.7774	0.0000000E+000	0.0000000E+000	0.0000000E+000	-65.7774	0.0000000E+000	0.0000000E+000	0.0000000E+000	-24.2226	0.0000000E+000	0.0000000E+000	0.0000000E+000	24.2226	2.22275	65.7774	-3.85688e-06	-7.90425e-06	-7.11333e-09	-7.89714e-06	0.282492	10114.2	9.10217	10105.1
10.0032	13.731	3.047	14.065	-12.5116	12.6878	0.2828	-0.00722136	5221.66	245.061	1	11	0.00473805	0.000336868	0	-2.72087e-05	0.000178102	4.94125e-06	-89.5669	0.0146682	0.000110867	0.0146678	-12.5698	14.0683	13.7311	3.06167	0.0694101	0.0154026	0.0710985	12.5116	245061	1.10434e+06	1.13121e+06	-77.4884	0.0000000E+000	0.0000000E+000	0.0000000E+000	77.4884	0.0000000E+000	0.0000000E+000	0.0000000E+000	-77.4884	0.0000000E+000	0.0000000E+000	0.0000000E+000	-12.5116	0.0000000E+000	0.0000000E+000	0.0000000E+000	12.5116	4.50639	77.4884	-2.8032e-06	-2.0422e-06	-1.28613e-09	-2.04092e-06	0.282622	39161.7	24.6632	39137
3.1604	15.1083	1.84338	15.2203	-6.95635	14.2055	0.282781	-0.00690756	27318.9	400.725	1	11	0.00474357	0.000311661	0	-2.74722e-05	-1.2779e-05	5.43479e-06	28.611	0.0174382	0.0153088	-0.00835045	-6.9182	15.2345	15.1236	1.83503	0.0652181	0.00795734	0.0657017	6.95635	400725	3.28433e+06	3.30868e+06	-83.0436	0.0000000E+000	0.0000000E+000	0.0000000E+000	83.0436	0.0000000E+000	0.0000000E+000	0.0000000E+000	-83.0436	0.0000000E+000	0.0000000E+000	0.0000000E+000	-6.95635	0.0000000E+000	0.0000000E+000	0.0000000E+000	6.95635	8.19596	83.0436	-2.1789e-06	-1.95333e-06	8.82714e-11	-1.95341e-06	0.282794	40937.9	1.85	40939.7
1.00006	16.0406	1.54117	16.1144	-5.4881	19.8438	0.282789	-0.00618891	103262	944.522	1	12	0.00474745	0.000294608	0	-4.56459e-05	0.000139925	3.71589e-06	-44.5377	0.012613	0.0089904	0.00884649	-5.51634	16.1242	16.0496	1.55002	0.0617717	0.00593499	0.0620561	5.4881	944522	9.83064e+06	9.87591e+06	-84.5119	0.0000000E+000	0.0000000E+000	0.0000000E+000	84.5119	0.0000000E+000	0.0000000E+000	0.0000000E+000	-84.5119	0.0000000E+000	0.0000000E+000	0.0000000E+000	-5.4881	0.0000000E+000	0.0000000E+000	0.0000000E+000	5.4881	10.4081	84.5119	-3.88603e-06	-1.75016e-06	-8.65987e-10	-1.74929e-06	0.282649	45692.8	22.6091	45670.2
0.316193	17.0377	1.57761	17.1106	-5.29023	34.1869	0.282801	-0.00372342	319057	2712.3	1	12	0.00474549	0.000277343	0	-2.28636e-05	8.26613e-05	4.30632e-06	14.3759	0.0155271	0.0150409	-0.0038551	-5.27275	17.1252	17.0527	1.57376	0.0581944	0.00538853	0.0584434	5.29023	2.7123e+06	2.9292e+07	2.94173e+07	-84.7098	0.0000000E+000	0.0000000E+000	0.0000000E+000	84.7098	0.0000000E+000	0.0000000E+000	0.0000000E+000	-84.7098	0.0000000E+000	0.0000000E+000	0.0000000E+000	-5.29023	0.0000000E+000	0.0000000E+000	0.0000000E+000	5.29023	10.7997	84.7098	5.71434e-06	-1.05299e-06	-3.07783e-10	-1.05268e-06	0.282719	75952	22.2004	75929.8
0.0999041	17.8955	2.08655	18.0167	-6.65043	79.3951	0.282789	-0.0011765	763500	10240.3	1	12	0.00474752	0.000263506	0	-0.000159834	0.00019719	2.28431e-06	-1.18928	0.00866889	0.00866703	0.000179926	-6.64781	18.0254	17.9042	2.08673	0.0551304	0.00642799	0.0555039	6.65043	1.02403e+07	8.7827e+07	8.8422e+07	-83.3496	0.0000000E+000	0.0000000E+000	0.0000000E+000	83.3496	0.0000000E+000	0.0000000E+000	0.0000000E+000	-83.3496	0.0000000E+000	0.0000000E+000	0.0000000E+000	-6.65043	0.0000000E+000	0.0000000E+000	0.0000000E+000	6.65043	8.57662	83.3496	-8.03641e-05	-3.32702e-07	-2.31994e-10	-3.3247e-07	0.282592	240364	167.607	240197
0.0315922	19.0227	4.19159	19.479	-12.4264	222.278	0.282788	-0.00335431	1.20188e+06	55652.7	1	12	0.00474985	0.000243845	0	-0.000352121	4.44852e-05	3.27337e-06	16.0742	0.013424	0.0128992	-0.00371686	-12.4076	19.4908	19.0356	4.18787	0.0501347	0.011047	0.0513374	12.4264	5.56527e+07	2.52568e+08	2.58627e+08	-77.5736	0.0000000E+000	0.0000000E+000	0.0000000E+000	77.5736	0.0000000E+000	0.0000000E+000	0.0000000E+000	-77.5736	0.0000000E+000	0.0000000E+000	0.0000000E+000	-12.4264	0.0000000E+000	0.0000000E+000	0.0000000E+000	12.4264	4.53829	77.5736	2.84353e-06	-9.48556e-07	-1.49217e-10	-9.48407e-07	0.282743	84305.9	13.2621	84292.6
0.0100092	21.4893	9.42984	23.4673	-23.6926	673.502	0.282788	-0.00016537	1.68623e+06	272271	1	12	0.00474794	0.000202322	0	0.000601588	0.000120837	2.33092e-06	-4.15584	0.0115209	0.0114906	0.000834913	-23.6832	23.4781	21.5008	9.43068	0.0390209	0.017123	0.0426125	23.6926	2.72271e+08	6.20468e+08	6.77578e+08	-66.3074	0.0000000E+000	0.0000000E+000	0.0000000E+000	66.3074	0.0000000E+000	0.0000000E+000	0.0000000E+000	-66.3074	0.0000000E+000	0.0000000E+000	0.0000000E+000	-23.6926	0.0000000E+000	0.0000000E+000	0.0000000E+000	23.6926	2.27887	66.3074	0.000375515	-4.67647e-08	-1.99829e-11	-4.67447e-08	0.282667	1.71003e+06	730.709	1.7093e+06