File: txt/18268_R297_UC86_SOC50_C04.mpt
EC-Lab ASCII FILE
Nb header lines : 64

Potentio Electrochemical Impedance Spectroscopy

Run on channel : 4 (SN 66756)
User :
CE vs. WE compliance from -10 V to 10 V
Electrode connection : standard
Potential control : Ewe
Ewe ctrl range : min = -10.00 V, max = 10.00 V
Safety Limits :
	Do not start on E overload
Acquisition started on : 10/07/2025 16:30:11.403
Loaded Setting File :  C:\Users\Celltest\OneDrive - store-dot.com\Documents\EC-Lab\Data\txt_done\UC80_17231_EIS_50SOC.mps
Saved on :
	File : UC86_18268_SOC50_EIS_C04.mpr
	Directory : C:\Users\Celltest\OneDrive - store-dot.com\Documents\EC-Lab\Data\Michael\R297\
	Host : 169.254.61.224
Device : VMP-3e (SN .003165)
Address : USB
EC-LAB for windows v11.62 (software)
Internet server v27.00 (firmware)
Command interpretor v12.03 (firmware)
Electrode material :
Initial state :
Electrolyte :
Comments :
Electrode surface area : 0.001 cm²
Characteristic mass : 0.001 g
Equivalent Weight : 0.000 g/eq.
Density : 0.000 g/cm3
Volume (V) : 0.001 cm³
Record Ece
Cycle Definition : Charge/Discharge alternance
Mode                Multi sine
E (V)               0.0000
vs.                 Eoc
tE (h:m:s)          0:00:0.0000
record              0
dI                  0.000
unit dI             mA
dt (s)              0.000
fi                  1.000
unit fi             MHz
ff                  0.100
unit ff             mHz
Nd                  10
Points              per decade
spacing             Logarithmic
Va (mV)             5.0
pw                  0.10
Na                  2
corr                0
E range min (V)     -10.000
E range max (V)     10.000
I Range             Auto
Bandwidth           5
nc cycles           0
goto Ns'            0
nr cycles           0
inc. cycle          0

freq/Hz	Re(Z)/Ohm	-Im(Z)/Ohm	|Z|/Ohm	Phase(Z)/deg	time/s	<Ewe>/V	<I>/mA	Cs/µF	Cp/µF	cycle number	I Range	|Ewe|/V	|I|/A	Ns	(Q-Qo)/mA.h	<Ece>/V	|Ece|/V	Phase(Zce)/deg	|Zce|/Ohm	Re(Zce)/Ohm	-Im(Zce)/Ohm	Phase(Zwe-ce)/deg	|Zwe-ce|/Ohm	Re(Zwe-ce)/Ohm	-Im(Zwe-ce)/Ohm	Re(Y)/Ohm-1	Im(Y)/Ohm-1	|Y|/Ohm-1	Phase(Y)/deg	Re(C)/nF	Im(C)/nF	|C|/nF	Phase(C)/deg	Re(M)	Im(M)	|M|	Phase(M)/deg	Re(Permittivity)	Im(Permittivity)	|Permittivity|	Phase(Permittivity)/deg	Re(Resistivity)/Ohm.cm	Im(Resistivity)/Ohm.cm	|Resistivity|/Ohm.cm	Phase(Resistivity)/deg	Re(Conductivity)/mS/cm	Im(Conductivity)/mS/cm	|Conductivity|/mS/cm	Phase(Conductivity)/deg	Tan(Delta)	Loss Angle(Delta)/deg	dq/mA.h	Pwe/W	Pce/W	Pwe-ce/W	<Ewe-Ece>/V	Rwe/Ohm	Rce/Ohm	Rwe-ce/Ohm		Ewe-Ece/V
1.00002e+06	0.956174	-0.139019	0.966227	8.2723	2.24353	3.78722	-0.0156875	-1.14482	-0.0236988	1	9	0.000206143	0.000213349	0	-6.22588e-06	-9.19415e-05	0.000186966	3.95588	0.876342	0.874254	-0.0604573	6.21943	1.84126	1.83043	-0.199476	1.02419	-0.148907	1.03495	-8.2723	-23.6988	163.001	164.715	-98.2723	0.0000000E+000	0.0000000E+000	0.0000000E+000	98.2723	0.0000000E+000	0.0000000E+000	0.0000000E+000	-98.2723	0.0000000E+000	0.0000000E+000	0.0000000E+000	8.2723	0.0000000E+000	0.0000000E+000	0.0000000E+000	-8.2723	6.87803	81.7277	-6.22588e-06	-5.94122e-05	1.44234e-09	-5.94136e-05	3.78731	241416	5.8608	241422
251206	0.693941	0.238901	0.733913	-18.9969	4.54352	3.78584	-0.105425	2.65199	0.281008	1	9	0.0019201	0.00261624	0	-6.81005e-05	-9.19415e-05	4.96183e-05	70.236	0.0189655	0.0064131	-0.0178483	-17.5172	0.734412	0.700354	0.221053	1.28835	0.443536	1.36256	18.9969	281.008	816.251	863.267	-71.0031	0.0000000E+000	0.0000000E+000	0.0000000E+000	71.0031	0.0000000E+000	0.0000000E+000	0.0000000E+000	-71.0031	0.0000000E+000	0.0000000E+000	0.0000000E+000	-18.9969	0.0000000E+000	0.0000000E+000	0.0000000E+000	18.9969	2.90473	71.0031	-1.24727e-05	-0.000399121	9.69291e-09	-0.000399131	3.78593	35910.3	0.872105	35911.2
63093.8	1.05049	0.566752	1.19362	-28.3475	6.84354	3.78574	-0.0954663	4.45082	1.00345	1	9	0.00532783	0.00446359	0	-0.000132664	-0.000168381	2.3368e-05	94.8297	0.00523523	-0.000440776	-0.00521665	-28.1367	1.19076	1.05004	0.561536	0.737324	0.397797	0.837788	28.3475	1003.45	1859.91	2113.33	-61.6525	0.0000000E+000	0.0000000E+000	0.0000000E+000	61.6525	0.0000000E+000	0.0000000E+000	0.0000000E+000	-61.6525	0.0000000E+000	0.0000000E+000	0.0000000E+000	-28.3475	0.0000000E+000	0.0000000E+000	0.0000000E+000	28.3475	1.85352	61.6525	-2.83905e-06	-0.000361411	1.60747e-08	-0.000361427	3.78591	39655.3	1.76378	39657
15847.7	1.65125	0.997446	1.92912	-31.1343	9.26754	3.78574	-0.0907669	10.0685	2.69168	1	9	0.00478302	0.00247937	0	-0.000183157	-0.000378591	6.47419e-06	-125.292	0.00261122	-0.00150861	0.00213133	-31.2117	1.92894	1.64974	0.999578	0.443703	0.268021	0.51837	31.1343	2691.68	4456.01	5205.88	-58.8657	0.0000000E+000	0.0000000E+000	0.0000000E+000	58.8657	0.0000000E+000	0.0000000E+000	0.0000000E+000	-58.8657	0.0000000E+000	0.0000000E+000	0.0000000E+000	-31.1343	0.0000000E+000	0.0000000E+000	0.0000000E+000	31.1343	1.65548	58.8657	-7.80287e-06	-0.00034362	3.43635e-08	-0.000343655	3.78612	41708.4	4.17102	41712.6
3983.6	2.68032	1.68156	3.16413	-32.1031	11.1161	3.78561	-0.143393	23.7592	6.71039	1	9	0.00464818	0.00146902	0	-0.000226544	4.18282e-05	6.06463e-06	-89.9331	0.00412835	4.82227e-06	0.00412834	-32.1664	3.16633	2.68032	1.68569	0.267717	0.167959	0.316042	32.1031	6710.39	10696	12626.7	-57.8969	0.0000000E+000	0.0000000E+000	0.0000000E+000	57.8969	0.0000000E+000	0.0000000E+000	0.0000000E+000	-57.8969	0.0000000E+000	0.0000000E+000	0.0000000E+000	-32.1031	0.0000000E+000	0.0000000E+000	0.0000000E+000	32.1031	1.59394	57.8969	-1.1249e-05	-0.000542832	-5.99789e-09	-0.000542826	3.78557	26400.2	0.291702	26399.9
1000.32	4.61404	2.74566	5.36917	-30.7554	13.9898	3.78567	-0.0546381	57.9475	15.1535	1	10	0.00458421	0.000853802	0	-0.000275147	0.000213818	1.19047e-05	25.3855	0.0139431	0.0125968	-0.00597751	-30.6321	5.37695	4.62664	2.73968	0.160054	0.0952428	0.186248	30.7554	15153.5	25465.2	29632.9	-59.2446	0.0000000E+000	0.0000000E+000	0.0000000E+000	59.2446	0.0000000E+000	0.0000000E+000	0.0000000E+000	-59.2446	0.0000000E+000	0.0000000E+000	0.0000000E+000	-30.7554	0.0000000E+000	0.0000000E+000	0.0000000E+000	30.7554	1.68049	59.2446	-7.18076e-06	-0.000206842	-1.16826e-08	-0.00020683	3.78546	69286.2	3.91334	69282.3
251.044	7.92896	3.32016	8.59604	-22.7209	16.9041	3.78566	-0.0534669	190.946	28.486	1	10	0.00499979	0.000581639	0	-0.000318134	-0.000206601	8.83994e-06	24.6004	0.0151983	0.0138188	-0.00632686	-22.6466	8.60635	7.94278	3.31383	0.107305	0.0449327	0.116333	22.7209	28486	68028.2	73751.6	-67.2791	0.0000000E+000	0.0000000E+000	0.0000000E+000	67.2791	0.0000000E+000	0.0000000E+000	0.0000000E+000	-67.2791	0.0000000E+000	0.0000000E+000	0.0000000E+000	-22.7209	0.0000000E+000	0.0000000E+000	0.0000000E+000	22.7209	2.38813	67.2791	-9.27681e-06	-0.000202407	1.10463e-08	-0.000202418	3.78587	70803.9	3.8641	70807.7
63.0823	10.6662	1.94355	10.8418	-10.3269	19.624	3.78567	-0.055373	1298.13	41.7159	1	10	0.00499015	0.000460267	0	-0.00035773	-0.000149271	4.06369e-06	79.0058	0.00882897	0.00168377	-0.00866693	-10.2802	10.8419	10.6679	1.93488	0.0907412	0.0165344	0.0922353	10.3269	41715.9	228938	232707	-79.6731	0.0000000E+000	0.0000000E+000	0.0000000E+000	79.6731	0.0000000E+000	0.0000000E+000	0.0000000E+000	-79.6731	0.0000000E+000	0.0000000E+000	0.0000000E+000	-10.3269	0.0000000E+000	0.0000000E+000	0.0000000E+000	10.3269	5.48801	79.6731	-6.33838e-06	-0.000209624	8.2656e-09	-0.000209632	3.78582	68366.7	2.69574	68369.4
15.8576	11.5507	0.886036	11.5846	-4.38648	22.282	3.78566	-0.0569434	11327.4	66.2629	1	10	0.00501698	0.000433072	0	-0.000401762	-0.000302151	2.29121e-05	-26.1987	0.0529059	0.0474708	0.0233572	-4.48329	11.6338	11.5982	0.909393	0.0860684	0.00660218	0.0863213	4.38648	66262.9	863828	866366	-85.6135	0.0000000E+000	0.0000000E+000	0.0000000E+000	85.6135	0.0000000E+000	0.0000000E+000	0.0000000E+000	-85.6135	0.0000000E+000	0.0000000E+000	0.0000000E+000	-4.38648	0.0000000E+000	0.0000000E+000	0.0000000E+000	4.38648	13.0364	85.6135	-8.41922e-06	-0.000215568	1.72055e-08	-0.000215586	3.78596	66481.1	5.30616	66486.4
3.97785	11.9586	0.661329	11.9769	-3.16532	25.4904	3.78572	-0.0311851	60499.8	184.46	1	11	0.00498148	0.000415924	0	-0.000437001	-0.000168381	7.47747e-06	-38.3666	0.017978	0.0140957	0.0111588	-3.21483	11.9916	11.9727	0.672488	0.0833668	0.00461031	0.0834941	3.16532	184460	3.33553e+06	3.34062e+06	-86.8347	0.0000000E+000	0.0000000E+000	0.0000000E+000	86.8347	0.0000000E+000	0.0000000E+000	0.0000000E+000	-86.8347	0.0000000E+000	0.0000000E+000	0.0000000E+000	-3.16532	0.0000000E+000	0.0000000E+000	0.0000000E+000	3.16532	18.0827	86.8347	-9.00211e-06	-0.000118058	5.25098e-09	-0.000118063	3.78589	121395	5.39942	121401
1.00469	12.3707	0.74332	12.393	-3.4386	240.304	3.7857	-0.0205652	213113	766.669	1	11	0.00506293	0.000408531	0	-0.00338116	-0.000187491	7.11476e-07	-3.55095	0.00174155	0.00173821	0.000107865	-3.43862	12.3948	12.3724	0.743428	0.0805453	0.00483974	0.0806906	3.4386	766670	1.27593e+07	1.27823e+07	-86.5614	0.0000000E+000	0.0000000E+000	0.0000000E+000	86.5614	0.0000000E+000	0.0000000E+000	0.0000000E+000	-86.5614	0.0000000E+000	0.0000000E+000	0.0000000E+000	-3.4386	0.0000000E+000	0.0000000E+000	0.0000000E+000	3.4386	16.6425	86.5614	-0.00289008	-7.78537e-05	3.8558e-09	-7.78576e-05	3.78589	184083	9.11691	184092
0.251173	13.0442	1.37762	13.1167	-6.02878	240.309	3.7857	-0.0205652	459956	5073.72	1	11	0.0050898	0.000388039	0	-0.00338116	-0.000187491	4.51661e-07	9.6785	0.00116396	0.00114739	-0.000195684	-6.0274	13.1178	13.0453	1.37743	0.0758169	0.00800719	0.0762386	6.02878	5.07372e+06	4.80411e+07	4.83083e+07	-83.9712	0.0000000E+000	0.0000000E+000	0.0000000E+000	83.9712	0.0000000E+000	0.0000000E+000	0.0000000E+000	-83.9712	0.0000000E+000	0.0000000E+000	0.0000000E+000	-6.02878	0.0000000E+000	0.0000000E+000	0.0000000E+000	6.02878	9.46861	83.9712	0.000000000000000E+000	-7.78537e-05	3.8558e-09	-7.78576e-05	3.78589	184083	9.11691	184092
0.0602816	14.5321	2.46106	14.7391	-9.612	240.313	3.7857	-0.0205652	1.07279e+06	29910	1	11	0.00508335	0.00034489	0	-0.00338116	-0.000187491	9.56871e-07	-56.3508	0.00277442	0.00153733	0.00230956	-9.61985	14.741	14.5337	2.46337	0.0668944	0.0113287	0.0678469	9.612	2.991e+07	1.76614e+08	1.79129e+08	-80.388	0.0000000E+000	0.0000000E+000	0.0000000E+000	80.388	0.0000000E+000	0.0000000E+000	0.0000000E+000	-80.388	0.0000000E+000	0.0000000E+000	0.0000000E+000	-9.612	0.0000000E+000	0.0000000E+000	0.0000000E+000	9.612	5.90484	80.388	0.000000000000000E+000	-7.78537e-05	3.8558e-09	-7.78576e-05	3.78589	184083	9.11691	184092
0.00796479	20.4694	4.41675	20.9405	-12.1762	20329.2	3.78569	-8.45003e-05	4.52421e+06	201268	1	11	0.00507397	0.000242304	0	-0.0124476	-0.000397701	3.65532e-07	-29.1185	0.00150857	0.00131791	0.000734097	-12.1774	20.9419	20.4707	4.41748	0.0466801	0.0100723	0.0477544	12.1762	2.01268e+08	9.32776e+08	9.54243e+08	-77.8238	0.0000000E+000	0.0000000E+000	0.0000000E+000	77.8238	0.0000000E+000	0.0000000E+000	0.0000000E+000	-77.8238	0.0000000E+000	0.0000000E+000	0.0000000E+000	-12.1762	0.0000000E+000	0.0000000E+000	0.0000000E+000	12.1762	4.6345	77.8238	-0.00906647	-3.19892e-07	3.36058e-11	-3.19925e-07	3.78609	4.48009e+07	4706.5	4.48056e+07
0.0019912	24.0511	6.60959	24.9428	-15.3664	20329.2	3.78569	-8.45003e-05	1.20929e+07	849162	1	11	0.00508879	0.000204019	0	-0.0124476	-0.000397701	4.68273e-07	-3.89042	0.00229525	0.00228996	0.000155729	-15.3653	24.945	24.0534	6.60974	0.0386585	0.0106239	0.0400917	15.3664	8.49162e+08	3.08995e+09	3.20451e+09	-74.6336	0.0000000E+000	0.0000000E+000	0.0000000E+000	74.6336	0.0000000E+000	0.0000000E+000	0.0000000E+000	-74.6336	0.0000000E+000	0.0000000E+000	0.0000000E+000	-15.3664	0.0000000E+000	0.0000000E+000	0.0000000E+000	15.3664	3.63882	74.6336	0.000000000000000E+000	-3.19892e-07	3.36058e-11	-3.19925e-07	3.78609	4.48009e+07	4706.5	4.48056e+07
0.000497799	26.0995	14.3104	29.7653	-28.736	20329.2	3.78569	-8.45003e-05	2.23416e+07	5.16413e+06	1	11	0.00508779	0.00017093	0	-0.0124476	-0.000397701	7.96093e-07	41.4358	0.00465742	0.00349166	-0.00308219	-28.7275	29.7669	26.103	14.3073	0.0294586	0.0161522	0.0335962	28.736	5.16413e+09	9.41843e+09	1.07413e+10	-61.264	0.0000000E+000	0.0000000E+000	0.0000000E+000	61.264	0.0000000E+000	0.0000000E+000	0.0000000E+000	-61.264	0.0000000E+000	0.0000000E+000	0.0000000E+000	-28.736	0.0000000E+000	0.0000000E+000	0.0000000E+000	28.736	1.82382	61.264	0.000000000000000E+000	-3.19892e-07	3.36058e-11	-3.19925e-07	3.78609	4.48009e+07	4706.5	4.48056e+07
9.95598e-05	35.0611	65.8756	74.6249	-61.9767	20329.2	3.78569	-8.45003e-05	2.42667e+07	1.89101e+07	1	11	0.00508764	6.81762e-05	0	-0.0124476	-0.000397701	4.39374e-06	39.555	0.0644468	0.0496893	-0.0410409	-61.9282	74.6121	35.1108	65.8346	0.0062959	0.0118292	0.0134003	61.9767	1.89101e+10	1.00645e+10	2.14216e+10	-28.0233	0.0000000E+000	0.0000000E+000	0.0000000E+000	28.0233	0.0000000E+000	0.0000000E+000	0.0000000E+000	-28.0233	0.0000000E+000	0.0000000E+000	0.0000000E+000	-61.9767	0.0000000E+000	0.0000000E+000	0.0000000E+000	61.9767	0.532232	28.0233	0.000000000000000E+000	-3.19892e-07	3.36058e-11	-3.19925e-07	3.78609	4.48009e+07	4706.5	4.48056e+07