File: txt/18265_R297_UC86_SOC50_C01.mpt
EC-Lab ASCII FILE
Nb header lines : 64

Potentio Electrochemical Impedance Spectroscopy

Run on channel : 1 (SN 66354)
User :
CE vs. WE compliance from -10 V to 10 V
Electrode connection : standard
Potential control : Ewe
Ewe ctrl range : min = -10.00 V, max = 10.00 V
Safety Limits :
	Do not start on E overload
Acquisition started on : 10/07/2025 16:29:04.375
Loaded Setting File :  C:\Users\Celltest\OneDrive - store-dot.com\Documents\EC-Lab\Data\txt_done\UC80_17231_EIS_50SOC.mps
Saved on :
	File : UC86_18265_SOC50_EIS_C01.mpr
	Directory : C:\Users\Celltest\OneDrive - store-dot.com\Documents\EC-Lab\Data\Michael\R297\
	Host : 169.254.61.224
Device : VMP-3e (SN .003165)
Address : USB
EC-LAB for windows v11.62 (software)
Internet server v27.00 (firmware)
Command interpretor v12.03 (firmware)
Electrode material :
Initial state :
Electrolyte :
Comments :
Electrode surface area : 0.001 cm²
Characteristic mass : 0.001 g
Equivalent Weight : 0.000 g/eq.
Density : 0.000 g/cm3
Volume (V) : 0.001 cm³
Record Ece
Cycle Definition : Charge/Discharge alternance
Mode                Multi sine
E (V)               0.0000
vs.                 Eoc
tE (h:m:s)          0:00:0.0000
record              0
dI                  0.000
unit dI             mA
dt (s)              0.000
fi                  1.000
unit fi             MHz
ff                  0.100
unit ff             mHz
Nd                  10
Points              per decade
spacing             Logarithmic
Va (mV)             5.0
pw                  0.10
Na                  2
corr                0
E range min (V)     -10.000
E range max (V)     10.000
I Range             Auto
Bandwidth           5
nc cycles           0
goto Ns'            0
nr cycles           0
inc. cycle          0

freq/Hz	Re(Z)/Ohm	-Im(Z)/Ohm	|Z|/Ohm	Phase(Z)/deg	time/s	<Ewe>/V	<I>/mA	Cs/µF	Cp/µF	cycle number	I Range	|Ewe|/V	|I|/A	Ns	(Q-Qo)/mA.h	<Ece>/V	|Ece|/V	Phase(Zce)/deg	|Zce|/Ohm	Re(Zce)/Ohm	-Im(Zce)/Ohm	Phase(Zwe-ce)/deg	|Zwe-ce|/Ohm	Re(Zwe-ce)/Ohm	-Im(Zwe-ce)/Ohm	Re(Y)/Ohm-1	Im(Y)/Ohm-1	|Y|/Ohm-1	Phase(Y)/deg	Re(C)/nF	Im(C)/nF	|C|/nF	Phase(C)/deg	Re(M)	Im(M)	|M|	Phase(M)/deg	Re(Permittivity)	Im(Permittivity)	|Permittivity|	Phase(Permittivity)/deg	Re(Resistivity)/Ohm.cm	Im(Resistivity)/Ohm.cm	|Resistivity|/Ohm.cm	Phase(Resistivity)/deg	Re(Conductivity)/mS/cm	Im(Conductivity)/mS/cm	|Conductivity|/mS/cm	Phase(Conductivity)/deg	Tan(Delta)	Loss Angle(Delta)/deg	dq/mA.h	Pwe/W	Pce/W	Pwe-ce/W	<Ewe-Ece>/V	Rwe/Ohm	Rce/Ohm	Rwe-ce/Ohm		Ewe-Ece/V
1.00002e+06	3.22808	1.55564	3.58336	-25.7298	2.33455	3.78743	0.0318574	0.102307	0.0192814	1	10	0.000237481	6.62732e-05	0	6.61951e-06	-0.000207511	0.000196686	-70.7275	2.96781	0.979557	2.80149	-45.9999	6.05712	4.20764	4.35713	0.251398	0.121151	0.279067	25.7298	19.2814	40.0105	44.4141	-64.2702	0.0000000E+000	0.0000000E+000	0.0000000E+000	64.2702	0.0000000E+000	0.0000000E+000	0.0000000E+000	-64.2702	0.0000000E+000	0.0000000E+000	0.0000000E+000	-25.7298	0.0000000E+000	0.0000000E+000	0.0000000E+000	25.7298	2.07509	64.2702	6.61951e-06	0.000120658	-6.61076e-09	0.000120664	3.78764	118887	6.51373	118894
251206	0.783332	0.22223	0.814245	-15.8385	5.03953	3.78714	0.0192932	2.85094	0.212365	1	9	0.00212132	0.00260526	0	3.45731e-05	0.000402963	5.5076e-05	113.812	0.0211403	-0.00853528	-0.0193407	-14.6741	0.80092	0.774796	0.202889	1.18151	0.335191	1.22813	15.8385	212.365	748.558	778.099	-74.1615	0.0000000E+000	0.0000000E+000	0.0000000E+000	74.1615	0.0000000E+000	0.0000000E+000	0.0000000E+000	-74.1615	0.0000000E+000	0.0000000E+000	0.0000000E+000	-15.8385	0.0000000E+000	0.0000000E+000	0.0000000E+000	15.8385	3.52487	74.1615	3.20981e-06	7.30659e-05	7.77444e-09	7.30581e-05	3.78673	196294	20.8863	196273
63093.8	1.12154	0.592711	1.26853	-27.8555	7.33756	3.78708	0.0451477	4.25589	0.929128	1	9	0.00535039	0.0042178	0	7.97056e-05	0.000288499	3.12032e-05	79.4813	0.00739799	0.00135055	-0.00727367	-27.5359	1.26634	1.12289	0.585437	0.696972	0.368335	0.788315	27.8555	929.128	1758.12	1988.53	-62.1445	0.0000000E+000	0.0000000E+000	0.0000000E+000	62.1445	0.0000000E+000	0.0000000E+000	0.0000000E+000	-62.1445	0.0000000E+000	0.0000000E+000	0.0000000E+000	-27.8555	0.0000000E+000	0.0000000E+000	0.0000000E+000	27.8555	1.89223	62.1445	1.43402e-05	0.000170978	1.30251e-08	0.000170965	3.7868	83882.1	6.39012	83875.7
15847.7	1.74699	1.05807	2.04242	-31.2014	9.75952	3.78707	0.0421673	9.49161	2.54729	1	9	0.00498841	0.0024424	0	0.000128278	-0.000226588	7.89633e-06	-49.9338	0.00323301	0.002081	0.00247423	-31.2304	2.04548	1.74907	1.06054	0.418794	0.253644	0.489615	31.2014	2547.29	4205.86	4917.1	-58.7986	0.0000000E+000	0.0000000E+000	0.0000000E+000	58.7986	0.0000000E+000	0.0000000E+000	0.0000000E+000	-58.7986	0.0000000E+000	0.0000000E+000	0.0000000E+000	-31.2014	0.0000000E+000	0.0000000E+000	0.0000000E+000	31.2014	1.65111	58.7986	5.93677e-06	0.000159691	-9.55462e-09	0.0001597	3.78729	89810.4	5.37354	89815.8
3983.6	2.84757	1.79447	3.36582	-32.2181	11.6101	3.78691	-0.0391217	22.2643	6.32846	1	9	0.00458082	0.00136098	0	0.000147562	-9.30469e-05	5.41654e-06	-144.177	0.00397988	-0.003227	0.00232935	-32.281	3.36434	2.84434	1.7968	0.251357	0.158399	0.297104	32.2181	6328.46	10042.4	11870.1	-57.7819	0.0000000E+000	0.0000000E+000	0.0000000E+000	57.7819	0.0000000E+000	0.0000000E+000	0.0000000E+000	-57.7819	0.0000000E+000	0.0000000E+000	0.0000000E+000	-32.2181	0.0000000E+000	0.0000000E+000	0.0000000E+000	32.2181	1.58686	57.7819	-2.87129e-06	-0.00014815	3.64015e-09	-0.000148154	3.787	96798.3	2.3784	96800.7
1000.32	4.88489	2.92515	5.69374	-30.9138	14.4828	3.78698	-0.0122509	54.3917	14.356	1	10	0.0045167	0.000793274	0	0.000143952	0.000174035	7.06016e-06	-92.6669	0.00890002	-0.000414108	0.00889038	-30.9927	5.69796	4.88448	2.93404	0.150681	0.0902304	0.175631	30.9138	14356	23974	27943.7	-59.0862	0.0000000E+000	0.0000000E+000	0.0000000E+000	59.0862	0.0000000E+000	0.0000000E+000	0.0000000E+000	-59.0862	0.0000000E+000	0.0000000E+000	0.0000000E+000	-30.9138	0.0000000E+000	0.0000000E+000	0.0000000E+000	30.9138	1.66996	59.0862	-7.37458e-07	-4.63939e-05	-2.13209e-09	-4.63917e-05	3.78681	309119	14.2059	309104
251.044	8.48177	3.5557	9.19693	-22.7442	17.398	3.78697	-0.0130634	178.297	26.6507	1	10	0.00494973	0.000538194	0	0.000134381	7.86489e-05	1.22034e-05	90.0302	0.0226747	-1.19565e-05	-0.0226747	-22.6138	9.18817	8.48176	3.53302	0.100277	0.0420377	0.108732	22.7442	26650.7	63572.7	68933	-67.2558	0.0000000E+000	0.0000000E+000	0.0000000E+000	67.2558	0.0000000E+000	0.0000000E+000	0.0000000E+000	-67.2558	0.0000000E+000	0.0000000E+000	0.0000000E+000	-22.7442	0.0000000E+000	0.0000000E+000	0.0000000E+000	22.7442	2.38541	67.2558	-1.06457e-06	-4.94706e-05	-1.02742e-09	-4.94695e-05	3.78689	289892	6.02056	289886
63.0823	11.4157	2.07269	11.6024	-10.2908	20.118	3.78698	-0.00899356	1217.25	38.8466	1	10	0.00493049	0.000424955	0	0.000127539	4.04943e-05	1.01864e-05	135.625	0.0239705	-0.0171335	-0.016764	-10.2243	11.5825	11.3986	2.05593	0.0848027	0.0153971	0.0861892	10.2908	38846.6	213955	217453	-79.7092	0.0000000E+000	0.0000000E+000	0.0000000E+000	79.7092	0.0000000E+000	0.0000000E+000	0.0000000E+000	-79.7092	0.0000000E+000	0.0000000E+000	0.0000000E+000	-10.2908	0.0000000E+000	0.0000000E+000	0.0000000E+000	10.2908	5.50769	79.7092	-1.1931e-06	-3.40584e-05	-3.64187e-10	-3.4058e-05	3.78694	421076	4.50258	421072
15.8576	12.3391	0.917787	12.3731	-4.25387	22.776	3.78697	-0.0173904	10935.6	60.168	1	10	0.00493468	0.000398822	0	0.000120983	0.00021219	7.36223e-06	-58.0267	0.0184599	0.00977498	0.0156595	-4.32276	12.3841	12.3488	0.933446	0.0805976	0.0059949	0.0808203	4.25387	60168	808920	811154	-85.7461	0.0000000E+000	0.0000000E+000	0.0000000E+000	85.7461	0.0000000E+000	0.0000000E+000	0.0000000E+000	-85.7461	0.0000000E+000	0.0000000E+000	0.0000000E+000	-4.25387	0.0000000E+000	0.0000000E+000	0.0000000E+000	4.25387	13.4444	85.7461	-3.99724e-07	-6.58567e-05	-3.69006e-09	-6.5853e-05	3.78675	217762	12.2016	217750
3.97785	12.7861	0.642021	12.8022	-2.87455	25.9333	3.78703	0.00203937	62319.3	156.73	1	11	0.00493336	0.000385353	0	0.000120551	-0.000112124	3.03585e-06	90.2238	0.00787809	-3.07778e-05	-0.00787803	-2.83934	12.8017	12.786	0.634143	0.0780134	0.00391725	0.0781117	2.87455	156730	3.12134e+06	3.12527e+06	-87.1255	0.0000000E+000	0.0000000E+000	0.0000000E+000	87.1255	0.0000000E+000	0.0000000E+000	0.0000000E+000	-87.1255	0.0000000E+000	0.0000000E+000	0.0000000E+000	-2.87455	0.0000000E+000	0.0000000E+000	0.0000000E+000	2.87455	19.9154	87.1255	-1.80679e-06	7.72314e-06	-2.28662e-10	7.72337e-06	3.78714	1.85696e+06	54.9799	1.85702e+06
1.00469	13.2204	0.785509	13.2438	-3.4003	240.747	3.78701	0.00301527	201667	709.44	1	11	0.00500766	0.000378115	0	-0.00110952	-0.000207511	5.05335e-07	-30.7138	0.00133646	0.00114899	0.000682598	-3.40296	13.2449	13.2216	0.786192	0.0753743	0.00447846	0.0755073	3.4003	709440	1.19402e+07	1.19612e+07	-86.5997	0.0000000E+000	0.0000000E+000	0.0000000E+000	86.5997	0.0000000E+000	0.0000000E+000	0.0000000E+000	-86.5997	0.0000000E+000	0.0000000E+000	0.0000000E+000	-3.4003	0.0000000E+000	0.0000000E+000	0.0000000E+000	3.4003	16.8304	86.5997	-0.00124375	1.14189e-05	-6.25701e-10	1.14195e-05	3.78722	1.25594e+06	68.82	1.25601e+06
0.251173	13.9548	1.43952	14.0288	-5.88957	240.747	3.78701	0.00301527	440178	4634.68	1	11	0.00503478	0.000358888	0	-0.00110952	-0.000207511	6.23139e-07	-29.8429	0.00173631	0.00150606	0.000864026	-5.89245	14.0304	13.9563	1.44038	0.0709054	0.00731432	0.0712817	5.88957	4.63468e+06	4.49289e+07	4.51673e+07	-84.1104	0.0000000E+000	0.0000000E+000	0.0000000E+000	84.1104	0.0000000E+000	0.0000000E+000	0.0000000E+000	-84.1104	0.0000000E+000	0.0000000E+000	0.0000000E+000	-5.88957	0.0000000E+000	0.0000000E+000	0.0000000E+000	5.88957	9.69406	84.1104	0.000000000000000E+000	1.14189e-05	-6.25701e-10	1.14195e-05	3.78722	1.25594e+06	68.82	1.25601e+06
0.0602816	15.4284	2.48636	15.6274	-9.15479	240.747	3.78701	0.00301527	1.06187e+06	26879.6	1	11	0.00502924	0.000321821	0	-0.00110952	-0.000207511	6.82398e-07	56.556	0.00212043	0.00116861	-0.00176934	-9.1477	15.6283	15.4295	2.48459	0.0631749	0.0101809	0.06399	9.15479	2.68796e+07	1.66794e+08	1.68946e+08	-80.8452	0.0000000E+000	0.0000000E+000	0.0000000E+000	80.8452	0.0000000E+000	0.0000000E+000	0.0000000E+000	-80.8452	0.0000000E+000	0.0000000E+000	0.0000000E+000	-9.15479	0.0000000E+000	0.0000000E+000	0.0000000E+000	9.15479	6.20521	80.8452	0.000000000000000E+000	1.14189e-05	-6.25701e-10	1.14195e-05	3.78722	1.25594e+06	68.82	1.25601e+06
0.00796479	21.8489	4.54492	22.3166	-11.7508	20329.6	3.78702	0.000747433	4.39663e+06	182354	1	11	0.00502154	0.000225013	0	0.000476946	-0.000112124	6.1956e-07	-16.23	0.00275344	0.00264371	0.000769569	-11.7514	22.3194	21.8516	4.54569	0.0438705	0.00912574	0.0448096	11.7508	1.82354e+08	8.76635e+08	8.954e+08	-78.2492	0.0000000E+000	0.0000000E+000	0.0000000E+000	78.2492	0.0000000E+000	0.0000000E+000	0.0000000E+000	-78.2492	0.0000000E+000	0.0000000E+000	0.0000000E+000	-11.7508	0.0000000E+000	0.0000000E+000	0.0000000E+000	11.7508	4.80734	78.2492	0.00158647	2.83055e-06	-8.38053e-11	2.83063e-06	3.78713	5.0667e+06	150.012	5.06686e+06
0.0019912	25.4553	6.8184	26.3527	-14.9951	20329.6	3.78702	0.000747433	1.17226e+07	784762	1	11	0.00503481	0.000191055	0	0.000476946	-0.000112124	9.27599e-07	-25.8358	0.00485515	0.00436986	0.00211584	-14.9971	26.3575	25.4597	6.82052	0.0366546	0.00981821	0.0379468	14.9951	7.84762e+08	2.92978e+09	3.03306e+09	-75.0049	0.0000000E+000	0.0000000E+000	0.0000000E+000	75.0049	0.0000000E+000	0.0000000E+000	0.0000000E+000	-75.0049	0.0000000E+000	0.0000000E+000	0.0000000E+000	-14.9951	0.0000000E+000	0.0000000E+000	0.0000000E+000	14.9951	3.73333	75.0049	0.000000000000000E+000	2.83055e-06	-8.38053e-11	2.83063e-06	3.78713	5.0667e+06	150.012	5.06686e+06
0.000497799	27.5393	15.0985	31.4066	-28.7339	20329.6	3.78702	0.000747433	2.11754e+07	4.89392e+06	1	11	0.00503618	0.000160354	0	0.000476946	-0.000112124	1.14801e-06	-15.4377	0.00715924	0.00690094	0.00190573	-28.7309	31.4136	27.5462	15.1004	0.0279196	0.015307	0.0318404	28.7339	4.89392e+09	8.92639e+09	1.01799e+10	-61.2661	0.0000000E+000	0.0000000E+000	0.0000000E+000	61.2661	0.0000000E+000	0.0000000E+000	0.0000000E+000	-61.2661	0.0000000E+000	0.0000000E+000	0.0000000E+000	-28.7339	0.0000000E+000	0.0000000E+000	0.0000000E+000	28.7339	1.82398	61.2661	0.000000000000000E+000	2.83055e-06	-8.38053e-11	2.83063e-06	3.78713	5.0667e+06	150.012	5.06686e+06
9.95598e-05	36.9509	66.9165	76.4407	-61.0928	20329.6	3.78702	0.000747433	2.38893e+07	1.83071e+07	1	11	0.00503538	6.58731e-05	0	0.000476946	-0.000112124	1.92455e-06	-54.5977	0.029216	0.0169253	0.0238141	-61.0903	76.4697	36.9678	66.9403	0.00632376	0.0114521	0.013082	61.0928	1.83071e+10	1.01091e+10	2.09128e+10	-28.9072	0.0000000E+000	0.0000000E+000	0.0000000E+000	28.9072	0.0000000E+000	0.0000000E+000	0.0000000E+000	-28.9072	0.0000000E+000	0.0000000E+000	0.0000000E+000	-61.0928	0.0000000E+000	0.0000000E+000	0.0000000E+000	61.0928	0.552194	28.9072	0.000000000000000E+000	2.83055e-06	-8.38053e-11	2.83063e-06	3.78713	5.0667e+06	150.012	5.06686e+06