File: txt/18266_R297_UC86_SOC50_C02.mpt
EC-Lab ASCII FILE
Nb header lines : 64

Potentio Electrochemical Impedance Spectroscopy

Run on channel : 2 (SN 66139)
User :
CE vs. WE compliance from -10 V to 10 V
Electrode connection : standard
Potential control : Ewe
Ewe ctrl range : min = -10.00 V, max = 10.00 V
Safety Limits :
	Do not start on E overload
Acquisition started on : 10/07/2025 16:29:25.961
Loaded Setting File :  C:\Users\Celltest\OneDrive - store-dot.com\Documents\EC-Lab\Data\txt_done\UC80_17231_EIS_50SOC.mps
Saved on :
	File : UC86_18266_SOC50_EIS_C02.mpr
	Directory : C:\Users\Celltest\OneDrive - store-dot.com\Documents\EC-Lab\Data\Michael\R297\
	Host : 169.254.61.224
Device : VMP-3e (SN .003165)
Address : USB
EC-LAB for windows v11.62 (software)
Internet server v27.00 (firmware)
Command interpretor v12.03 (firmware)
Electrode material :
Initial state :
Electrolyte :
Comments :
Electrode surface area : 0.001 cm²
Characteristic mass : 0.001 g
Equivalent Weight : 0.000 g/eq.
Density : 0.000 g/cm3
Volume (V) : 0.001 cm³
Record Ece
Cycle Definition : Charge/Discharge alternance
Mode                Multi sine
E (V)               0.0000
vs.                 Eoc
tE (h:m:s)          0:00:0.0000
record              0
dI                  0.000
unit dI             mA
dt (s)              0.000
fi                  1.000
unit fi             MHz
ff                  0.100
unit ff             mHz
Nd                  10
Points              per decade
spacing             Logarithmic
Va (mV)             5.0
pw                  0.10
Na                  2
corr                0
E range min (V)     -10.000
E range max (V)     10.000
I Range             Auto
Bandwidth           5
nc cycles           0
goto Ns'            0
nr cycles           0
inc. cycle          0

freq/Hz	Re(Z)/Ohm	-Im(Z)/Ohm	|Z|/Ohm	Phase(Z)/deg	time/s	<Ewe>/V	<I>/mA	Cs/µF	Cp/µF	cycle number	I Range	|Ewe|/V	|I|/A	Ns	(Q-Qo)/mA.h	<Ece>/V	|Ece|/V	Phase(Zce)/deg	|Zce|/Ohm	Re(Zce)/Ohm	-Im(Zce)/Ohm	Phase(Zwe-ce)/deg	|Zwe-ce|/Ohm	Re(Zwe-ce)/Ohm	-Im(Zwe-ce)/Ohm	Re(Y)/Ohm-1	Im(Y)/Ohm-1	|Y|/Ohm-1	Phase(Y)/deg	Re(C)/nF	Im(C)/nF	|C|/nF	Phase(C)/deg	Re(M)	Im(M)	|M|	Phase(M)/deg	Re(Permittivity)	Im(Permittivity)	|Permittivity|	Phase(Permittivity)/deg	Re(Resistivity)/Ohm.cm	Im(Resistivity)/Ohm.cm	|Resistivity|/Ohm.cm	Phase(Resistivity)/deg	Re(Conductivity)/mS/cm	Im(Conductivity)/mS/cm	|Conductivity|/mS/cm	Phase(Conductivity)/deg	Tan(Delta)	Loss Angle(Delta)/deg	dq/mA.h	Pwe/W	Pce/W	Pwe-ce/W	<Ewe-Ece>/V	Rwe/Ohm	Rce/Ohm	Rwe-ce/Ohm		Ewe-Ece/V
1.00002e+06	0.964349	-0.15292	0.976398	9.01054	2.69452	3.78656	-0.0472256	-1.04076	-0.0255283	1	9	0.000199744	0.000204572	0	-2.52548e-05	1.94333e-05	0.000173141	3.19954	0.846359	0.84504	-0.0472383	6.3125	1.82043	1.80939	-0.200158	1.01153	-0.160402	1.02417	-9.01054	-25.5283	160.988	162.999	-99.0105	0.0000000E+000	0.0000000E+000	0.0000000E+000	99.0105	0.0000000E+000	0.0000000E+000	0.0000000E+000	-99.0105	0.0000000E+000	0.0000000E+000	0.0000000E+000	9.01054	0.0000000E+000	0.0000000E+000	0.0000000E+000	-9.01054	6.30624	80.9895	-2.52548e-05	-0.000178822	-9.1775e-10	-0.000178821	3.78654	80180.2	0.4115	80179.8
251206	0.677875	0.249123	0.722203	-20.1787	4.99452	3.78654	-0.040782	2.54317	0.302611	1	9	0.00183845	0.00254561	0	-5.47546e-05	-7.60209e-05	2.67038e-05	83.9546	0.0104901	0.00110478	-0.0104318	-19.3688	0.719714	0.67898	0.238691	1.29966	0.477634	1.38465	20.1787	302.611	823.419	877.264	-69.8213	0.0000000E+000	0.0000000E+000	0.0000000E+000	69.8213	0.0000000E+000	0.0000000E+000	0.0000000E+000	-69.8213	0.0000000E+000	0.0000000E+000	0.0000000E+000	-20.1787	0.0000000E+000	0.0000000E+000	0.0000000E+000	20.1787	2.72105	69.8213	-7.78555e-06	-0.000154423	3.10028e-09	-0.000154426	3.78662	92848.4	1.86408	92850.2
63093.8	1.02862	0.60902	1.1954	-30.6286	7.29652	3.78642	-0.0309862	4.14192	1.07508	1	9	0.00538386	0.00450383	0	-5.70658e-05	3.85242e-05	1.03707e-05	82.7833	0.00230265	0.000289265	-0.0022844	-30.5273	1.19448	1.02891	0.606736	0.719835	0.426195	0.836543	30.6286	1075.08	1815.79	2110.19	-59.3714	0.0000000E+000	0.0000000E+000	0.0000000E+000	59.3714	0.0000000E+000	0.0000000E+000	0.0000000E+000	-59.3714	0.0000000E+000	0.0000000E+000	0.0000000E+000	-30.6286	0.0000000E+000	0.0000000E+000	0.0000000E+000	30.6286	1.68898	59.3714	-5.30492e-06	-0.000117327	-1.19372e-09	-0.000117326	3.78639	122197	1.24327	122196
15847.7	1.67676	1.10622	2.00879	-33.4144	9.59856	3.78641	-0.0322899	9.07846	2.75313	1	9	0.00464685	0.00231326	0	-8.76751e-05	0.00040125	7.24629e-06	-114.376	0.0031325	-0.00129284	0.00285327	-33.5026	2.00929	1.67547	1.10908	0.415528	0.27414	0.497812	33.4144	2753.13	4173.06	4999.42	-56.5856	0.0000000E+000	0.0000000E+000	0.0000000E+000	56.5856	0.0000000E+000	0.0000000E+000	0.0000000E+000	-56.5856	0.0000000E+000	0.0000000E+000	0.0000000E+000	-33.4144	0.0000000E+000	0.0000000E+000	0.0000000E+000	33.4144	1.51575	56.5856	-2.43665e-06	-0.000122263	-1.29563e-08	-0.00012225	3.78601	117263	12.4265	117251
3983.6	2.83832	1.92529	3.42969	-34.1498	11.5921	3.78624	-0.11654	20.7515	6.53928	1	9	0.00500799	0.00146019	0	-0.000107921	0.000133978	1.11399e-05	-148.614	0.00762911	-0.00651278	0.0039733	-34.2659	3.42654	2.8318	1.92926	0.241297	0.163676	0.291572	34.1498	6539.28	9640.41	11649	-55.8502	0.0000000E+000	0.0000000E+000	0.0000000E+000	55.8502	0.0000000E+000	0.0000000E+000	0.0000000E+000	-55.8502	0.0000000E+000	0.0000000E+000	0.0000000E+000	-34.1498	0.0000000E+000	0.0000000E+000	0.0000000E+000	34.1498	1.47423	55.8502	-9.20555e-06	-0.00044125	-1.56139e-08	-0.000441234	3.78611	32488.7	1.14963	32487.6
1000.32	5.03191	3.12419	5.92289	-31.8351	14.4298	3.78631	-0.048625	50.9266	14.1694	1	10	0.00489103	0.000825785	0	-0.000148569	1.94333e-05	1.36599e-05	-73.9635	0.0165417	0.00456965	0.015898	-31.9422	5.93517	5.03648	3.14008	0.143438	0.0890573	0.168837	31.8351	14169.4	22821.6	26862.6	-58.1649	0.0000000E+000	0.0000000E+000	0.0000000E+000	58.1649	0.0000000E+000	0.0000000E+000	0.0000000E+000	-58.1649	0.0000000E+000	0.0000000E+000	0.0000000E+000	-31.8351	0.0000000E+000	0.0000000E+000	0.0000000E+000	31.8351	1.61063	58.1649	-5.49937e-06	-0.000184109	-9.44946e-10	-0.000184108	3.78629	77867.5	0.399657	77867.1
251.044	8.77867	3.60805	9.49121	-22.3428	17.13	3.7863	-0.0480961	175.71	25.3922	1	10	0.00479497	0.000505201	0	-0.000182567	0.000248523	3.44053e-06	-37.4457	0.00681021	0.00540683	0.00414067	-22.3535	9.49778	8.78407	3.61219	0.0974508	0.0400525	0.105361	22.3428	25392.2	61781.1	66795.7	-67.6572	0.0000000E+000	0.0000000E+000	0.0000000E+000	67.6572	0.0000000E+000	0.0000000E+000	0.0000000E+000	-67.6572	0.0000000E+000	0.0000000E+000	0.0000000E+000	-22.3428	0.0000000E+000	0.0000000E+000	0.0000000E+000	22.3428	2.43308	67.6572	-5.46769e-06	-0.000182106	-1.1953e-08	-0.000182094	3.78606	78723.8	5.16723	78718.6
63.0823	11.748	2.15551	11.9441	-10.3969	19.849	3.7863	-0.0442069	1170.48	38.1203	1	10	0.00478794	0.000400863	0	-0.000215325	-7.60209e-05	2.01558e-06	-104.165	0.00502811	-0.00123044	0.00487524	-10.421	11.9437	11.7467	2.16038	0.0823488	0.0151093	0.0837235	10.3969	38120.3	207764	211232	-79.6031	0.0000000E+000	0.0000000E+000	0.0000000E+000	79.6031	0.0000000E+000	0.0000000E+000	0.0000000E+000	-79.6031	0.0000000E+000	0.0000000E+000	0.0000000E+000	-10.3969	0.0000000E+000	0.0000000E+000	0.0000000E+000	10.3969	5.45022	79.6031	-5.72116e-06	-0.000167381	3.36065e-09	-0.000167384	3.78638	85649.6	1.71966	85651.3
15.8576	12.6549	0.923538	12.6885	-4.17399	22.5071	3.7863	-0.0512029	10867.5	57.5727	1	10	0.0047988	0.0003782	0	-0.000247911	0.000229433	9.60863e-06	96.9369	0.0254062	-0.00306845	-0.0252202	-4.06137	12.6836	12.6518	0.898318	0.0786024	0.00573632	0.0788114	4.17399	57572.7	788894	790992	-85.826	0.0000000E+000	0.0000000E+000	0.0000000E+000	85.826	0.0000000E+000	0.0000000E+000	0.0000000E+000	-85.826	0.0000000E+000	0.0000000E+000	0.0000000E+000	-4.17399	0.0000000E+000	0.0000000E+000	0.0000000E+000	4.17399	13.7026	85.826	-4.79302e-06	-0.00019387	-1.17476e-08	-0.000193858	3.78607	73947	4.48085	73942.5
3.97785	13.0772	0.659509	13.0938	-2.8871	25.6643	3.78636	-0.0287172	60666.7	153.908	1	11	0.00479157	0.000365942	0	-0.000276741	0.00017216	3.93831e-06	49.05	0.0107621	0.0070535	-0.00812844	-2.85004	13.1004	13.0842	0.651381	0.0762751	0.00384671	0.076372	2.8871	153908	3.05179e+06	3.05567e+06	-87.1129	0.0000000E+000	0.0000000E+000	0.0000000E+000	87.1129	0.0000000E+000	0.0000000E+000	0.0000000E+000	-87.1129	0.0000000E+000	0.0000000E+000	0.0000000E+000	-2.8871	0.0000000E+000	0.0000000E+000	0.0000000E+000	2.8871	19.8287	87.1129	-7.74395e-06	-0.000108734	-4.94395e-09	-0.000108729	3.78619	131850	5.99502	131844
1.00469	13.5405	0.827209	13.5658	-3.49593	240.476	3.78634	-0.0178489	191501	712.053	1	11	0.00497849	0.000366989	0	-0.00291384	1.94333e-05	1.1159e-07	23.4694	0.000304069	0.000278914	-0.000121098	-3.49535	13.566	13.5408	0.827088	0.0735777	0.00449496	0.0737149	3.49593	712054	1.16556e+07	1.16773e+07	-86.5041	0.0000000E+000	0.0000000E+000	0.0000000E+000	86.5041	0.0000000E+000	0.0000000E+000	0.0000000E+000	-86.5041	0.0000000E+000	0.0000000E+000	0.0000000E+000	-3.49593	0.0000000E+000	0.0000000E+000	0.0000000E+000	3.49593	16.3689	86.5041	-0.00260169	-6.7582e-05	-3.46864e-10	-6.75817e-05	3.78632	212132	1.08877	212131
0.251173	14.3252	1.48139	14.4016	-5.90406	240.48	3.78634	-0.0178489	427738	4525.81	1	11	0.00500451	0.000347498	0	-0.00291384	1.94333e-05	3.04163e-07	15.7883	0.000875295	0.000842273	-0.000238153	-5.90277	14.4024	14.326	1.48115	0.0690686	0.00714249	0.0694369	5.90406	4.52581e+06	4.3765e+07	4.39984e+07	-84.0959	0.0000000E+000	0.0000000E+000	0.0000000E+000	84.0959	0.0000000E+000	0.0000000E+000	0.0000000E+000	-84.0959	0.0000000E+000	0.0000000E+000	0.0000000E+000	-5.90406	0.0000000E+000	0.0000000E+000	0.0000000E+000	5.90406	9.6701	84.0959	0.000000000000000E+000	-6.7582e-05	-3.46864e-10	-6.75817e-05	3.78632	212132	1.08877	212131
0.0602816	15.7967	2.54828	16.0009	-9.16384	240.484	3.78634	-0.0178489	1.03607e+06	26278	1	11	0.00499869	0.0003124	0	-0.00291384	1.94333e-05	1.91206e-07	-79.1873	0.000612054	0.000114821	0.000601187	-9.1659	16.0011	15.7968	2.54888	0.0616988	0.00995307	0.0624964	9.16384	2.6278e+07	1.62896e+08	1.65002e+08	-80.8362	0.0000000E+000	0.0000000E+000	0.0000000E+000	80.8362	0.0000000E+000	0.0000000E+000	0.0000000E+000	-80.8362	0.0000000E+000	0.0000000E+000	0.0000000E+000	-9.16384	0.0000000E+000	0.0000000E+000	0.0000000E+000	9.16384	6.19897	80.8362	0.000000000000000E+000	-6.7582e-05	-3.46864e-10	-6.75817e-05	3.78632	212132	1.08877	212131
0.00796479	22.5311	4.82153	23.0412	-12.0788	20329.4	3.78634	5.04441e-05	4.14439e+06	181477	1	11	0.00499387	0.000216737	0	-0.00797266	5.7615e-05	2.20578e-07	-149.473	0.00101772	-0.000876658	0.00051694	-12.0805	23.0404	22.5302	4.82205	0.0424397	0.00908188	0.0434006	12.0788	1.81477e+08	8.48044e+08	8.67244e+08	-77.9212	0.0000000E+000	0.0000000E+000	0.0000000E+000	77.9212	0.0000000E+000	0.0000000E+000	0.0000000E+000	-77.9212	0.0000000E+000	0.0000000E+000	0.0000000E+000	-12.0788	0.0000000E+000	0.0000000E+000	0.0000000E+000	12.0788	4.67301	77.9212	-0.00505882	1.90999e-07	2.90634e-12	1.90996e-07	3.78628	7.50602e+07	1142.16	7.5059e+07
0.0019912	26.4211	7.04371	27.3439	-14.9275	20329.4	3.78634	5.04441e-05	1.13476e+07	752986	1	11	0.00500658	0.000183097	0	-0.00797266	5.7615e-05	2.74919e-07	-88.1822	0.00150149	4.7629e-05	0.00150074	-14.9305	27.3443	26.4212	7.04521	0.035337	0.00942065	0.0365712	14.9275	7.52986e+08	2.82447e+09	2.92311e+09	-75.0725	0.0000000E+000	0.0000000E+000	0.0000000E+000	75.0725	0.0000000E+000	0.0000000E+000	0.0000000E+000	-75.0725	0.0000000E+000	0.0000000E+000	0.0000000E+000	-14.9275	0.0000000E+000	0.0000000E+000	0.0000000E+000	14.9275	3.75102	75.0725	0.000000000000000E+000	1.90999e-07	2.90634e-12	1.90996e-07	3.78628	7.50602e+07	1142.16	7.5059e+07
0.000497799	28.7837	15.1159	32.5114	-27.7065	20329.4	3.78634	5.04441e-05	2.1151e+07	4.57224e+06	1	11	0.0050066	0.000153995	0	-0.00797266	5.7615e-05	5.67162e-07	-24.4473	0.00368299	0.00335278	0.00152423	-27.7061	32.5151	28.7871	15.1175	0.0272317	0.0143009	0.0307584	27.7065	4.57224e+09	8.70644e+09	9.83399e+09	-62.2935	0.0000000E+000	0.0000000E+000	0.0000000E+000	62.2935	0.0000000E+000	0.0000000E+000	0.0000000E+000	-62.2935	0.0000000E+000	0.0000000E+000	0.0000000E+000	-27.7065	0.0000000E+000	0.0000000E+000	0.0000000E+000	27.7065	1.90419	62.2935	0.000000000000000E+000	1.90999e-07	2.90634e-12	1.90996e-07	3.78628	7.50602e+07	1142.16	7.5059e+07
9.95598e-05	39.1192	66.9561	77.5463	-59.7043	20329.4	3.78634	5.04441e-05	2.38752e+07	1.77993e+07	1	11	0.00500718	6.45703e-05	0	-0.00797266	5.7615e-05	1.689e-06	-109.295	0.0261575	-0.00864347	0.0246882	-59.719	77.5632	39.1106	66.9808	0.00650531	0.0111344	0.0128955	59.7043	1.77993e+10	1.03993e+10	2.06146e+10	-30.2957	0.0000000E+000	0.0000000E+000	0.0000000E+000	30.2957	0.0000000E+000	0.0000000E+000	0.0000000E+000	-30.2957	0.0000000E+000	0.0000000E+000	0.0000000E+000	-59.7043	0.0000000E+000	0.0000000E+000	0.0000000E+000	59.7043	0.584252	30.2957	0.000000000000000E+000	1.90999e-07	2.90634e-12	1.90996e-07	3.78628	7.50602e+07	1142.16	7.5059e+07