File: txt/18267_R297_UC86_SOC50_C03.mpt
EC-Lab ASCII FILE
Nb header lines : 64

Potentio Electrochemical Impedance Spectroscopy

Run on channel : 3 (SN 65921)
User :
CE vs. WE compliance from -10 V to 10 V
Electrode connection : standard
Potential control : Ewe
Ewe ctrl range : min = -10.00 V, max = 10.00 V
Safety Limits :
	Do not start on E overload
Acquisition started on : 10/07/2025 16:29:50.198
Loaded Setting File :  C:\Users\Celltest\OneDrive - store-dot.com\Documents\EC-Lab\Data\txt_done\UC80_17231_EIS_50SOC.mps
Saved on :
	File : UC86_18267_SOC50_EIS_C03.mpr
	Directory : C:\Users\Celltest\OneDrive - store-dot.com\Documents\EC-Lab\Data\Michael\R297\
	Host : 169.254.61.224
Device : VMP-3e (SN .003165)
Address : USB
EC-LAB for windows v11.62 (software)
Internet server v27.00 (firmware)
Command interpretor v12.03 (firmware)
Electrode material :
Initial state :
Electrolyte :
Comments :
Electrode surface area : 0.001 cm²
Characteristic mass : 0.001 g
Equivalent Weight : 0.000 g/eq.
Density : 0.000 g/cm3
Volume (V) : 0.001 cm³
Record Ece
Cycle Definition : Charge/Discharge alternance
Mode                Multi sine
E (V)               0.0000
vs.                 Eoc
tE (h:m:s)          0:00:0.0000
record              0
dI                  0.000
unit dI             mA
dt (s)              0.000
fi                  1.000
unit fi             MHz
ff                  0.100
unit ff             mHz
Nd                  10
Points              per decade
spacing             Logarithmic
Va (mV)             5.0
pw                  0.10
Na                  2
corr                0
E range min (V)     -10.000
E range max (V)     10.000
I Range             Auto
Bandwidth           5
nc cycles           0
goto Ns'            0
nr cycles           0
inc. cycle          0

freq/Hz	Re(Z)/Ohm	-Im(Z)/Ohm	|Z|/Ohm	Phase(Z)/deg	time/s	<Ewe>/V	<I>/mA	Cs/µF	Cp/µF	cycle number	I Range	|Ewe|/V	|I|/A	Ns	(Q-Qo)/mA.h	<Ece>/V	|Ece|/V	Phase(Zce)/deg	|Zce|/Ohm	Re(Zce)/Ohm	-Im(Zce)/Ohm	Phase(Zwe-ce)/deg	|Zwe-ce|/Ohm	Re(Zwe-ce)/Ohm	-Im(Zwe-ce)/Ohm	Re(Y)/Ohm-1	Im(Y)/Ohm-1	|Y|/Ohm-1	Phase(Y)/deg	Re(C)/nF	Im(C)/nF	|C|/nF	Phase(C)/deg	Re(M)	Im(M)	|M|	Phase(M)/deg	Re(Permittivity)	Im(Permittivity)	|Permittivity|	Phase(Permittivity)/deg	Re(Resistivity)/Ohm.cm	Im(Resistivity)/Ohm.cm	|Resistivity|/Ohm.cm	Phase(Resistivity)/deg	Re(Conductivity)/mS/cm	Im(Conductivity)/mS/cm	|Conductivity|/mS/cm	Phase(Conductivity)/deg	Tan(Delta)	Loss Angle(Delta)/deg	dq/mA.h	Pwe/W	Pce/W	Pwe-ce/W	<Ewe-Ece>/V	Rwe/Ohm	Rce/Ohm	Rwe-ce/Ohm		Ewe-Ece/V
1.00002e+06	7.9397	2.51148	8.32745	-17.5532	2.23357	3.78655	-0.0302456	0.0633697	0.00576393	1	10	0.000146492	1.75914e-05	0	-2.95709e-05	0.00012952	0.000187605	-42.5341	10.6645	7.85844	7.20953	-31.6051	18.5494	15.7981	9.72101	0.114493	0.0362165	0.120085	17.5532	5.76393	18.2218	19.1117	-72.4468	0.0000000E+000	0.0000000E+000	0.0000000E+000	72.4468	0.0000000E+000	0.0000000E+000	0.0000000E+000	-72.4468	0.0000000E+000	0.0000000E+000	0.0000000E+000	-17.5532	0.0000000E+000	0.0000000E+000	0.0000000E+000	17.5532	3.16136	72.4468	-2.95709e-05	-0.000114527	-3.9174e-09	-0.000114523	3.78642	125193	4.28226	125189
251206	-0.420372	-0.590405	0.724769	125.451	4.95155	3.78614	0.00633344	-1.0731	-0.712099	1	9	0.000165181	0.000227908	0	-3.12357e-05	-9.96091e-05	4.98016e-05	157.322	0.218516	-0.201622	-0.084248	132.674	0.917624	-0.621994	-0.674653	-0.800265	-1.12396	1.37975	-125.451	-712.099	-507.018	874.158	144.549	0.0000000E+000	0.0000000E+000	0.0000000E+000	-144.549	0.0000000E+000	0.0000000E+000	0.0000000E+000	144.549	0.0000000E+000	0.0000000E+000	0.0000000E+000	125.451	0.0000000E+000	0.0000000E+000	0.0000000E+000	-125.451	0.712006	35.4511	-2.38028e-07	2.39793e-05	-6.30868e-10	2.39799e-05	3.78624	597802	15.7275	597817
63093.8	1.02652	0.244824	1.05531	-13.4144	7.25152	3.78611	0.00476713	10.3034	0.554533	1	9	0.00126392	0.00119767	0	-3.01905e-05	-0.000195079	6.49817e-06	75.7568	0.00542565	0.00133491	-0.00525887	-13.1199	1.0554	1.02785	0.239565	0.921736	0.219834	0.947588	13.4144	554.533	2325.09	2390.3	-76.5856	0.0000000E+000	0.0000000E+000	0.0000000E+000	76.5856	0.0000000E+000	0.0000000E+000	0.0000000E+000	-76.5856	0.0000000E+000	0.0000000E+000	0.0000000E+000	-13.4144	0.0000000E+000	0.0000000E+000	0.0000000E+000	13.4144	4.19288	76.5856	7.62331e-07	1.80489e-05	-9.29969e-10	1.80498e-05	3.7863	794212	40.9218	794252
15847.7	1.68887	1.01377	1.96977	-30.9749	9.67553	3.78609	-0.0017592	9.90641	2.62398	1	9	0.00500403	0.00254041	0	-2.72489e-05	-0.000233268	8.72607e-06	-41.2092	0.00343491	0.00258411	0.00226295	-30.9926	1.97315	1.69145	1.01603	0.435275	0.26128	0.507673	30.9749	2623.98	4371.38	5098.45	-59.0251	0.0000000E+000	0.0000000E+000	0.0000000E+000	59.0251	0.0000000E+000	0.0000000E+000	0.0000000E+000	-59.0251	0.0000000E+000	0.0000000E+000	0.0000000E+000	-30.9749	0.0000000E+000	0.0000000E+000	0.0000000E+000	30.9749	1.66594	59.0251	-8.4072e-07	-6.66047e-06	4.10363e-10	-6.66088e-06	3.78632	2.15217e+06	132.599	2.1523e+06
3983.6	2.77595	1.84036	3.33058	-33.543	12.9081	3.7861	0.0191625	21.7091	6.62835	1	9	0.00505599	0.00151805	0	-2.64533e-05	0.00012952	6.6053e-06	43.3074	0.00435117	0.00316628	-0.00298452	-33.4701	3.33158	2.77911	1.83737	0.250248	0.165906	0.300248	33.543	6628.35	9998.03	11995.7	-56.457	0.0000000E+000	0.0000000E+000	0.0000000E+000	56.457	0.0000000E+000	0.0000000E+000	0.0000000E+000	-56.457	0.0000000E+000	0.0000000E+000	0.0000000E+000	-33.543	0.0000000E+000	0.0000000E+000	0.0000000E+000	33.543	1.50837	56.457	7.2494e-07	7.25509e-05	2.48191e-09	7.25484e-05	3.78597	197579	6.75903	197572
1000.32	4.81	2.88579	5.60926	-30.9619	15.7818	3.78606	-0.0536108	55.1336	14.5926	1	10	0.00451447	0.000804824	0	-6.31077e-05	-0.000271456	7.91627e-06	106.474	0.00983603	-0.00278925	-0.00943226	-30.8939	5.60202	4.80721	2.87636	0.152874	0.0917176	0.178276	30.9619	14592.6	24322.8	28364.5	-59.0381	0.0000000E+000	0.0000000E+000	0.0000000E+000	59.0381	0.0000000E+000	0.0000000E+000	0.0000000E+000	-59.0381	0.0000000E+000	0.0000000E+000	0.0000000E+000	-30.9619	0.0000000E+000	0.0000000E+000	0.0000000E+000	30.9619	1.66679	59.0381	-5.91842e-06	-0.000202974	1.4553e-08	-0.000202988	3.78633	70621.3	5.06346	70626.3
251.044	8.26786	3.41649	8.94594	-22.4516	18.6961	3.78606	-0.0546064	185.562	27.0643	1	10	0.00486996	0.000544376	0	-0.000106407	0.000110426	5.98916e-06	12.6199	0.0110019	0.0107361	-0.00240372	-22.4112	8.95495	8.27859	3.41408	0.10331	0.0426901	0.111783	22.4516	27064.3	65495.4	70866.9	-67.5484	0.0000000E+000	0.0000000E+000	0.0000000E+000	67.5484	0.0000000E+000	0.0000000E+000	0.0000000E+000	-67.5484	0.0000000E+000	0.0000000E+000	0.0000000E+000	-22.4516	0.0000000E+000	0.0000000E+000	0.0000000E+000	22.4516	2.41999	67.5484	-6.8864e-06	-0.000206743	-6.02994e-09	-0.000206737	3.78595	69333.7	2.02221	69331.7
63.0823	11.0676	1.98136	11.2435	-10.1498	21.416	3.78606	-0.0524772	1273.35	39.5433	1	10	0.00485869	0.000432133	0	-0.000146182	0.00012952	5.91301e-06	-59.576	0.0136833	0.00692917	0.0117991	-10.2027	11.2524	11.0745	1.99316	0.0875482	0.0156733	0.0889401	10.1498	39543.3	220882	224394	-79.8502	0.0000000E+000	0.0000000E+000	0.0000000E+000	79.8502	0.0000000E+000	0.0000000E+000	0.0000000E+000	-79.8502	0.0000000E+000	0.0000000E+000	0.0000000E+000	-10.1498	0.0000000E+000	0.0000000E+000	0.0000000E+000	10.1498	5.58583	79.8502	-6.52063e-06	-0.000198682	-6.79683e-09	-0.000198675	3.78593	72146.8	2.46811	72144.4
15.8576	11.9552	0.874428	11.9871	-4.18329	24.0741	3.78604	-0.0591407	11477.8	61.077	1	10	0.00484938	0.000404549	0	-0.000189916	-0.000118703	1.39089e-05	-43.1416	0.0343813	0.0250868	0.0235101	-4.28639	12.0139	11.9803	0.897938	0.0832007	0.00608548	0.0834229	4.18329	61077	835045	837276	-85.8167	0.0000000E+000	0.0000000E+000	0.0000000E+000	85.8167	0.0000000E+000	0.0000000E+000	0.0000000E+000	-85.8167	0.0000000E+000	0.0000000E+000	0.0000000E+000	-4.18329	0.0000000E+000	0.0000000E+000	0.0000000E+000	4.18329	13.672	85.8167	-8.58944e-06	-0.000223909	7.02019e-09	-0.000223916	3.78616	64017.5	2.00713	64019.6
3.97785	12.3955	0.610308	12.4105	-2.81876	27.2324	3.78609	-0.0454911	65557.6	158.541	1	11	0.00485683	0.000391349	0	-0.000232945	0.000148614	5.35779e-06	-44.5506	0.0136906	0.00975634	0.00960448	-2.8608	12.4207	12.4052	0.619912	0.0804795	0.00396252	0.080577	2.81876	158541	3.22001e+06	3.22391e+06	-87.1812	0.0000000E+000	0.0000000E+000	0.0000000E+000	87.1812	0.0000000E+000	0.0000000E+000	0.0000000E+000	-87.1812	0.0000000E+000	0.0000000E+000	0.0000000E+000	-2.81876	0.0000000E+000	0.0000000E+000	0.0000000E+000	2.81876	20.3102	87.1812	-7.60183e-06	-0.000172233	-6.7606e-09	-0.000172227	3.78594	83227	3.26687	83223.8
1.00469	12.7972	0.776033	12.8207	-3.47023	242.045	3.78607	-0.0281464	204130	747.904	1	11	0.00503833	0.000392985	0	-0.0036415	-0.000118703	5.48555e-07	14.4157	0.00139587	0.00135192	-0.000347508	-3.46831	12.822	12.7985	0.775685	0.0778561	0.00472128	0.0779991	3.47023	747905	1.23333e+07	1.23559e+07	-86.5298	0.0000000E+000	0.0000000E+000	0.0000000E+000	86.5298	0.0000000E+000	0.0000000E+000	0.0000000E+000	-86.5298	0.0000000E+000	0.0000000E+000	0.0000000E+000	-3.47023	0.0000000E+000	0.0000000E+000	0.0000000E+000	3.47023	16.4905	86.5298	-0.00333017	-0.000106564	3.34106e-09	-0.000106568	3.78619	134514	4.21736	134518
0.251173	13.5184	1.4568	13.5967	-6.15067	242.05	3.78607	-0.0281464	434958	4993.19	1	11	0.00506551	0.000372554	0	-0.0036415	-0.000118703	5.64614e-07	-19.4542	0.00151552	0.001429	0.00050475	-6.15214	13.5982	13.5199	1.4573	0.0731238	0.0078801	0.0735472	6.15067	4.99319e+06	4.63346e+07	4.66029e+07	-83.8493	0.0000000E+000	0.0000000E+000	0.0000000E+000	83.8493	0.0000000E+000	0.0000000E+000	0.0000000E+000	-83.8493	0.0000000E+000	0.0000000E+000	0.0000000E+000	-6.15067	0.0000000E+000	0.0000000E+000	0.0000000E+000	6.15067	9.27956	83.8493	0.000000000000000E+000	-0.000106564	3.34106e-09	-0.000106568	3.78619	134514	4.21736	134518
0.0602816	15.0565	2.58995	15.2776	-9.76024	242.054	3.78607	-0.0281464	1.0194e+06	29296.5	1	11	0.00505768	0.000331052	0	-0.0036415	-0.000118703	4.54062e-07	1.36397	0.00137157	0.00137119	-3.26482e-05	-9.75925	15.279	15.0578	2.58991	0.0645079	0.0110964	0.0654553	9.76024	2.92965e+07	1.70313e+08	1.72814e+08	-80.2398	0.0000000E+000	0.0000000E+000	0.0000000E+000	80.2398	0.0000000E+000	0.0000000E+000	0.0000000E+000	-80.2398	0.0000000E+000	0.0000000E+000	0.0000000E+000	-9.76024	0.0000000E+000	0.0000000E+000	0.0000000E+000	9.76024	5.81343	80.2398	0.000000000000000E+000	-0.000106564	3.34106e-09	-0.000106568	3.78619	134514	4.21736	134518
0.00796479	21.5034	4.68515	22.0078	-12.2915	20330.9	3.78614	0.00111532	4.26503e+06	193292	1	11	0.00505353	0.000229624	0	-0.00695537	-8.05151e-05	5.15247e-07	5.45622	0.00224387	0.0022337	-0.000213359	-12.2897	22.01	21.5056	4.68494	0.0443968	0.00967317	0.0454383	12.2915	1.93292e+08	8.87151e+08	9.07964e+08	-77.7085	0.0000000E+000	0.0000000E+000	0.0000000E+000	77.7085	0.0000000E+000	0.0000000E+000	0.0000000E+000	-77.7085	0.0000000E+000	0.0000000E+000	0.0000000E+000	-12.2915	0.0000000E+000	0.0000000E+000	0.0000000E+000	12.2915	4.58968	77.7085	-0.00331387	4.22274e-06	-8.97998e-11	4.22283e-06	3.78622	3.39467e+06	72.1904	3.39475e+06
0.0019912	25.232	6.78336	26.1279	-15.0476	20330.9	3.78614	0.00111532	1.17831e+07	794220	1	11	0.00506442	0.000193832	0	-0.00695537	-8.05151e-05	6.69069e-07	-49.0844	0.0034518	0.00226075	0.00260844	-15.0518	26.1308	25.2343	6.78597	0.0369609	0.00993653	0.0382732	15.0476	7.9422e+08	2.95425e+09	3.05915e+09	-74.9524	0.0000000E+000	0.0000000E+000	0.0000000E+000	74.9524	0.0000000E+000	0.0000000E+000	0.0000000E+000	-74.9524	0.0000000E+000	0.0000000E+000	0.0000000E+000	-15.0476	0.0000000E+000	0.0000000E+000	0.0000000E+000	15.0476	3.71969	74.9524	0.000000000000000E+000	4.22274e-06	-8.97998e-11	4.22283e-06	3.78622	3.39467e+06	72.1904	3.39475e+06
0.000497799	27.3841	14.5843	31.0257	-28.039	20330.9	3.78614	0.00111532	2.1922e+07	4.84406e+06	1	11	0.00506757	0.000163335	0	-0.00695537	-8.05151e-05	7.945e-07	7.1016	0.00486424	0.00482693	-0.000601363	-28.0338	31.0296	27.3889	14.5837	0.0284483	0.0151511	0.0322314	28.039	4.84406e+09	9.09542e+09	1.03049e+10	-61.961	0.0000000E+000	0.0000000E+000	0.0000000E+000	61.961	0.0000000E+000	0.0000000E+000	0.0000000E+000	-61.961	0.0000000E+000	0.0000000E+000	0.0000000E+000	-28.039	0.0000000E+000	0.0000000E+000	0.0000000E+000	28.039	1.87764	61.961	0.000000000000000E+000	4.22274e-06	-8.97998e-11	4.22283e-06	3.78622	3.39467e+06	72.1904	3.39475e+06
9.95598e-05	36.8099	67.1748	76.5991	-61.2785	20330.9	3.78614	0.00111532	2.37974e+07	1.83019e+07	1	11	0.00505697	6.60186e-05	0	-0.00695537	-8.05151e-05	3.40538e-06	-102.789	0.0515821	-0.011418	0.0503025	-61.304	76.6377	36.7985	67.2251	0.00627361	0.0114488	0.013055	61.2785	1.83019e+10	1.00289e+10	2.08695e+10	-28.7215	0.0000000E+000	0.0000000E+000	0.0000000E+000	28.7215	0.0000000E+000	0.0000000E+000	0.0000000E+000	-28.7215	0.0000000E+000	0.0000000E+000	0.0000000E+000	-61.2785	0.0000000E+000	0.0000000E+000	0.0000000E+000	61.2785	0.547972	28.7215	0.000000000000000E+000	4.22274e-06	-8.97998e-11	4.22283e-06	3.78622	3.39467e+06	72.1904	3.39475e+06