File: txt/18305_R274_UC74_SOC50_C03.mpt
EC-Lab ASCII FILE
Nb header lines : 65

Potentio Electrochemical Impedance Spectroscopy

Run on channel : 3 (SN 65921)
User :
CE vs. WE compliance from -10 V to 10 V
Electrode connection : standard
Potential control : Ewe
Ewe ctrl range : min = -10.00 V, max = 10.00 V
Safety Limits :
	Do not start on E overload
Acquisition started on : 10/09/2025 15:26:22.204
Technique started on : 10/09/2025 15:26:24.438
Loaded Setting File :  C:\Users\Celltest\OneDrive - store-dot.com\Documents\EC-Lab\Data\txt_done\UC80_17231_EIS_50SOC.mps
Saved on :
	File : 18305_R274_UC74_SOC50_C03.mpr
	Directory : C:\Users\Celltest\OneDrive - store-dot.com\Documents\EC-Lab\Data\Michael\
	Host : 169.254.61.224
Device : VMP-3e (SN .003165)
Address : USB
EC-LAB for windows v11.62 (software)
Internet server v27.00 (firmware)
Command interpretor v12.03 (firmware)
Electrode material :
Initial state :
Electrolyte :
Comments :
Electrode surface area : 0.001 cm²
Characteristic mass : 0.001 g
Equivalent Weight : 0.000 g/eq.
Density : 0.000 g/cm3
Volume (V) : 0.001 cm³
Record Ece
Cycle Definition : Charge/Discharge alternance
Mode                Multi sine
E (V)               0.0000
vs.                 Eoc
tE (h:m:s)          0:00:0.0000
record              0
dI                  0.000
unit dI             mA
dt (s)              0.000
fi                  1.000
unit fi             MHz
ff                  0.100
unit ff             mHz
Nd                  10
Points              per decade
spacing             Logarithmic
Va (mV)             5.0
pw                  0.10
Na                  2
corr                0
E range min (V)     -10.000
E range max (V)     10.000
I Range             Auto
Bandwidth           5
nc cycles           0
goto Ns'            0
nr cycles           0
inc. cycle          0

freq/Hz	Re(Z)/Ohm	-Im(Z)/Ohm	|Z|/Ohm	Phase(Z)/deg	time/s	<Ewe>/V	<I>/mA	Cs/µF	Cp/µF	cycle number	I Range	|Ewe|/V	|I|/A	Ns	(Q-Qo)/mA.h	<Ece>/V	|Ece|/V	Phase(Zce)/deg	|Zce|/Ohm	Re(Zce)/Ohm	-Im(Zce)/Ohm	Phase(Zwe-ce)/deg	|Zwe-ce|/Ohm	Re(Zwe-ce)/Ohm	-Im(Zwe-ce)/Ohm	Re(Y)/Ohm-1	Im(Y)/Ohm-1	|Y|/Ohm-1	Phase(Y)/deg	Re(C)/nF	Im(C)/nF	|C|/nF	Phase(C)/deg	Re(M)	Im(M)	|M|	Phase(M)/deg	Re(Permittivity)	Im(Permittivity)	|Permittivity|	Phase(Permittivity)/deg	Re(Resistivity)/Ohm.cm	Im(Resistivity)/Ohm.cm	|Resistivity|/Ohm.cm	Phase(Resistivity)/deg	Re(Conductivity)/mS/cm	Im(Conductivity)/mS/cm	|Conductivity|/mS/cm	Phase(Conductivity)/deg	Tan(Delta)	Loss Angle(Delta)/deg	dq/mA.h	Pwe/W	Pce/W	Pwe-ce/W	<Ewe-Ece>/V	Rwe/Ohm	Rce/Ohm	Rwe-ce/Ohm		Ewe-Ece/V
1.00002e+06	0.907868	-0.257757	0.94375	15.85	2.23352	3.8852	-0.00586156	-0.61745	-0.0460584	1	9	0.000215454	0.000228296	0	-5.55675e-05	-0.000156891	0.000194713	0.21739	0.852897	0.852891	-0.00323602	8.43142	1.78	1.76076	-0.260993	1.01932	-0.289399	1.0596	-15.85	-46.0584	162.226	168.638	-105.85	0.0000000E+000	0.0000000E+000	0.0000000E+000	105.85	0.0000000E+000	0.0000000E+000	0.0000000E+000	-105.85	0.0000000E+000	0.0000000E+000	0.0000000E+000	15.85	0.0000000E+000	0.0000000E+000	0.0000000E+000	-15.85	3.52219	74.15	-5.55675e-05	-2.27733e-05	9.19628e-10	-2.27743e-05	3.88536	662828	26.7662	662855
251206	0.662943	0.249756	0.708428	-20.6433	4.53253	3.88478	-0.0798519	2.53673	0.315293	1	9	0.00184617	0.00260601	0	-9.19564e-05	-4.13882e-06	5.48196e-05	99.5106	0.0210359	-0.00347575	-0.0207467	-19.1503	0.698099	0.659467	0.229009	1.32094	0.49765	1.41158	20.6433	315.293	836.9	894.322	-69.3567	0.0000000E+000	0.0000000E+000	0.0000000E+000	69.3567	0.0000000E+000	0.0000000E+000	0.0000000E+000	-69.3567	0.0000000E+000	0.0000000E+000	0.0000000E+000	-20.6433	0.0000000E+000	0.0000000E+000	0.0000000E+000	20.6433	2.65436	69.3567	-5.12334e-06	-0.000310208	3.30492e-10	-0.000310208	3.88479	48649.8	0.0518311	48649.9
63093.8	1.06835	0.38539	1.13574	-19.836	6.83252	3.88467	-0.0731763	6.54535	0.753659	1	9	0.00532817	0.00469136	0	-0.000173887	-0.00029055	2.97635e-05	94.4556	0.00634432	-0.000492867	-0.00632515	-19.5436	1.13315	1.06786	0.379065	0.828242	0.298773	0.880483	19.836	753.659	2089.25	2221.03	-70.164	0.0000000E+000	0.0000000E+000	0.0000000E+000	70.164	0.0000000E+000	0.0000000E+000	0.0000000E+000	-70.164	0.0000000E+000	0.0000000E+000	0.0000000E+000	-19.836	0.0000000E+000	0.0000000E+000	0.0000000E+000	19.836	2.77214	70.164	-2.15212e-05	-0.000284266	2.12614e-08	-0.000284287	3.88496	53086.4	3.97054	53090.4
15847.7	1.39134	0.39399	1.44605	-15.8107	9.00656	3.88467	-0.0654939	25.49	1.89224	1	9	0.00478124	0.00330643	0	-0.000204385	-9.96091e-05	6.0384e-06	81.9092	0.00182626	0.000257033	-0.00180808	-15.739	1.4458	1.39159	0.392182	0.665378	0.188418	0.691541	15.8107	1892.24	6682.26	6945.01	-74.1893	0.0000000E+000	0.0000000E+000	0.0000000E+000	74.1893	0.0000000E+000	0.0000000E+000	0.0000000E+000	-74.1893	0.0000000E+000	0.0000000E+000	0.0000000E+000	-15.8107	0.0000000E+000	0.0000000E+000	0.0000000E+000	15.8107	3.5314	74.1893	-7.40529e-06	-0.000254422	6.52379e-09	-0.000254429	3.88477	59313.5	1.52089	59315
3983.6	1.72522	0.509169	1.79879	-16.443	10.8531	3.8845	-0.154961	78.4661	6.28703	1	9	0.00477787	0.00265616	0	-0.000244981	-0.00029055	1.01095e-05	3.58646	0.00380606	0.00379861	-0.000238087	-16.4016	1.80237	1.72902	0.508931	0.533193	0.157362	0.555929	16.443	6287.03	21302.4	22210.8	-73.557	0.0000000E+000	0.0000000E+000	0.0000000E+000	73.557	0.0000000E+000	0.0000000E+000	0.0000000E+000	-73.557	0.0000000E+000	0.0000000E+000	0.0000000E+000	-16.443	0.0000000E+000	0.0000000E+000	0.0000000E+000	16.443	3.38831	73.557	-1.02987e-05	-0.000601947	4.50239e-08	-0.000601992	3.88479	25067.6	1.87498	25069.4
1000.32	2.2478	0.817415	2.39181	-19.9839	13.4819	3.88455	-0.0643378	194.643	22.7337	1	9	0.00462521	0.00193377	0	-0.000303476	-9.96091e-05	9.17535e-06	140.021	0.00474481	-0.00363587	-0.00304855	-19.945	2.38735	2.24416	0.814367	0.392919	0.142886	0.418093	19.9839	22733.7	62515.1	66520.3	-70.0161	0.0000000E+000	0.0000000E+000	0.0000000E+000	70.0161	0.0000000E+000	0.0000000E+000	0.0000000E+000	-70.0161	0.0000000E+000	0.0000000E+000	0.0000000E+000	-19.9839	0.0000000E+000	0.0000000E+000	0.0000000E+000	19.9839	2.74988	70.0161	-9.36965e-06	-0.000249924	6.40864e-09	-0.00024993	3.88465	60377.4	1.54822	60379
251.044	3.25969	0.972202	3.40159	-16.6072	16.429	3.88458	-0.11623	652.098	53.2677	1	10	0.00462753	0.0013604	0	-0.000377484	-0.000271456	7.08387e-06	-95.4909	0.00520718	-0.000498266	0.00518329	-16.6932	3.40259	3.2592	0.977386	0.281718	0.0840222	0.293981	16.6072	53267.7	178601	186375	-73.3928	0.0000000E+000	0.0000000E+000	0.0000000E+000	73.3928	0.0000000E+000	0.0000000E+000	0.0000000E+000	-73.3928	0.0000000E+000	0.0000000E+000	0.0000000E+000	-16.6072	0.0000000E+000	0.0000000E+000	0.0000000E+000	16.6072	3.3529	73.3928	-1.50842e-05	-0.000451504	3.15513e-08	-0.000451536	3.88485	33421.5	2.33551	33423.8
63.0823	4.02463	0.532735	4.05974	-7.54032	19.1489	3.88459	-0.108794	4735.89	81.5506	1	10	0.0046059	0.00113453	0	-0.000464052	-2.32329e-05	1.09084e-05	-91.2333	0.00961494	-0.000206941	0.00961271	-7.67516	4.06081	4.02443	0.542348	0.244191	0.0323232	0.246321	7.54032	81550.6	616088	621462	-82.4597	0.0000000E+000	0.0000000E+000	0.0000000E+000	82.4597	0.0000000E+000	0.0000000E+000	0.0000000E+000	-82.4597	0.0000000E+000	0.0000000E+000	0.0000000E+000	-7.54032	0.0000000E+000	0.0000000E+000	0.0000000E+000	7.54032	7.55467	82.4597	-1.29632e-05	-0.000422622	2.52761e-09	-0.000422624	3.88461	35705.7	0.213548	35706
15.8576	4.21588	0.21703	4.22146	-2.94693	21.807	3.88457	-0.113265	46244.9	122.23	1	10	0.00458511	0.00108614	0	-0.000546154	-0.000175985	1.58078e-05	13.4373	0.0145541	0.0141557	-0.0033821	-2.8914	4.23543	4.23004	0.213648	0.236571	0.0121785	0.236885	2.94693	122230	2.37435e+06	2.3775e+06	-87.0531	0.0000000E+000	0.0000000E+000	0.0000000E+000	87.0531	0.0000000E+000	0.0000000E+000	0.0000000E+000	-87.0531	0.0000000E+000	0.0000000E+000	0.0000000E+000	-2.94693	0.0000000E+000	0.0000000E+000	0.0000000E+000	2.94693	19.4254	87.0531	-1.48869e-05	-0.000439987	1.99331e-08	-0.000440007	3.88475	34296.2	1.55374	34297.7
3.97785	4.31672	0.173591	4.32021	-2.30282	24.7203	3.88461	-0.0988141	230486	372.124	1	10	0.00460396	0.00106568	0	-0.00063951	0.00022499	4.51972e-06	-45.2234	0.00424116	0.00298724	0.00301062	-2.3411	4.32332	4.31971	0.176601	0.231283	0.00930072	0.23147	2.30282	372125	9.25371e+06	9.26119e+06	-87.6972	0.0000000E+000	0.0000000E+000	0.0000000E+000	87.6972	0.0000000E+000	0.0000000E+000	0.0000000E+000	-87.6972	0.0000000E+000	0.0000000E+000	0.0000000E+000	-2.30282	0.0000000E+000	0.0000000E+000	0.0000000E+000	2.30282	24.8673	87.6972	-2.79945e-05	-0.000383854	-2.22322e-08	-0.000383832	3.88438	39312.3	2.2769	39310
1.00469	4.43213	0.261856	4.43986	-3.38117	240.21	3.88461	-0.0498922	604957	2104.31	1	11	0.00503864	0.00113486	0	-0.00821148	-8.05151e-05	7.19639e-07	1.05529	0.000634119	0.000634012	-1.16787e-05	-3.38054	4.44049	4.43277	0.261844	0.22484	0.0132838	0.225232	3.38117	2.10431e+06	3.56172e+07	3.56794e+07	-86.6188	0.0000000E+000	0.0000000E+000	0.0000000E+000	86.6188	0.0000000E+000	0.0000000E+000	0.0000000E+000	-86.6188	0.0000000E+000	0.0000000E+000	0.0000000E+000	-3.38117	0.0000000E+000	0.0000000E+000	0.0000000E+000	3.38117	16.9259	86.6188	-0.00741283	-0.000193812	4.01707e-09	-0.000193816	3.88469	77860	1.61378	77861.6
0.251173	4.68342	0.555906	4.71629	-6.76914	240.213	3.88461	-0.0498922	1.13984e+06	15836	1	11	0.00506802	0.00107458	0	-0.00821148	-8.05151e-05	5.64391e-07	-0.216204	0.000525222	0.000525218	1.98191e-06	-6.76842	4.71682	4.68394	0.555908	0.210553	0.0249919	0.212031	6.76914	1.5836e+07	1.33416e+08	1.34352e+08	-83.2309	0.0000000E+000	0.0000000E+000	0.0000000E+000	83.2309	0.0000000E+000	0.0000000E+000	0.0000000E+000	-83.2309	0.0000000E+000	0.0000000E+000	0.0000000E+000	-6.76914	0.0000000E+000	0.0000000E+000	0.0000000E+000	6.76914	8.42484	83.2309	0.000000000000000E+000	-0.000193812	4.01707e-09	-0.000193816	3.88469	77860	1.61378	77861.6
0.0602816	5.25844	1.0736	5.36692	-11.5393	240.216	3.88461	-0.0498922	2.4592e+06	98407.3	1	11	0.00505844	0.000942523	0	-0.00821148	-8.05151e-05	7.07903e-07	4.36603	0.000751073	0.000748893	-5.71775e-05	-11.5371	5.36764	5.25919	1.07354	0.182561	0.0372728	0.186327	11.5393	9.84073e+07	4.81995e+08	4.91938e+08	-78.4607	0.0000000E+000	0.0000000E+000	0.0000000E+000	78.4607	0.0000000E+000	0.0000000E+000	0.0000000E+000	-78.4607	0.0000000E+000	0.0000000E+000	0.0000000E+000	-11.5393	0.0000000E+000	0.0000000E+000	0.0000000E+000	11.5393	4.89796	78.4607	0.000000000000000E+000	-0.000193812	4.01707e-09	-0.000193816	3.88469	77860	1.61378	77861.6
0.00796479	7.65283	2.20022	7.96284	-16.0401	20336.4	3.88461	0.000144295	9.08198e+06	693387	1	11	0.00505373	0.000634664	0	-0.074069	7.22374e-05	4.49838e-07	8.48751	0.000708781	0.000701018	-0.000104612	-16.038	7.96348	7.65353	2.20011	0.120694	0.0347	0.125583	16.0401	6.93387e+08	2.41175e+09	2.50945e+09	-73.9599	0.0000000E+000	0.0000000E+000	0.0000000E+000	73.9599	0.0000000E+000	0.0000000E+000	0.0000000E+000	-73.9599	0.0000000E+000	0.0000000E+000	0.0000000E+000	-16.0401	0.0000000E+000	0.0000000E+000	0.0000000E+000	16.0401	3.47822	73.9599	-0.0658575	5.60531e-07	1.04235e-11	5.60521e-07	3.88454	2.69213e+07	500.623	2.69208e+07
0.0019912	9.0297	3.81988	9.80443	-22.9301	20336.4	3.88461	0.000144295	2.09246e+07	3.17622e+06	1	11	0.00506538	0.000516642	0	-0.074069	7.22374e-05	4.9485e-07	-29.6241	0.00095782	0.000832621	0.000473458	-22.9307	9.80538	9.03053	3.82035	0.0939352	0.0397379	0.101995	22.9301	3.17622e+09	7.50817e+09	8.15236e+09	-67.0699	0.0000000E+000	0.0000000E+000	0.0000000E+000	67.0699	0.0000000E+000	0.0000000E+000	0.0000000E+000	-67.0699	0.0000000E+000	0.0000000E+000	0.0000000E+000	-22.9301	0.0000000E+000	0.0000000E+000	0.0000000E+000	22.9301	2.36387	67.0699	0.000000000000000E+000	5.60531e-07	1.04235e-11	5.60521e-07	3.88454	2.69213e+07	500.623	2.69208e+07
0.000497799	9.76215	10.8365	14.5853	-47.9857	20336.4	3.88461	0.000144295	2.95037e+07	1.62865e+07	1	11	0.00506766	0.000347451	0	-0.074069	7.22374e-05	8.46871e-07	-45.3894	0.00243738	0.00171174	0.00173517	-47.9853	14.5877	9.76386	10.8383	0.0458899	0.0509403	0.0685624	47.9857	1.62865e+10	1.46718e+10	2.19206e+10	-42.0143	0.0000000E+000	0.0000000E+000	0.0000000E+000	42.0143	0.0000000E+000	0.0000000E+000	0.0000000E+000	-42.0143	0.0000000E+000	0.0000000E+000	0.0000000E+000	-47.9857	0.0000000E+000	0.0000000E+000	0.0000000E+000	47.9857	0.900856	42.0143	0.000000000000000E+000	5.60531e-07	1.04235e-11	5.60521e-07	3.88454	2.69213e+07	500.623	2.69208e+07
9.95598e-05	3.40566	79.0836	79.1569	-87.5341	20336.4	3.88461	0.000144295	2.02139e+07	2.01765e+07	1	11	0.00506075	6.39332e-05	0	-0.074069	7.22374e-05	4.2024e-06	-109.235	0.0657311	-0.0216545	0.0620618	-87.5517	79.218	3.38401	79.1457	0.000543531	0.0126214	0.0126331	87.5341	2.01765e+10	8.68881e+08	2.01952e+10	-2.46587	0.0000000E+000	0.0000000E+000	0.0000000E+000	2.46587	0.0000000E+000	0.0000000E+000	0.0000000E+000	-2.46587	0.0000000E+000	0.0000000E+000	0.0000000E+000	-87.5341	0.0000000E+000	0.0000000E+000	0.0000000E+000	87.5341	0.0430641	2.46587	0.000000000000000E+000	5.60531e-07	1.04235e-11	5.60521e-07	3.88454	2.69213e+07	500.623	2.69208e+07