File: txt/18303_R274_UC74_SOC50_C01.mpt
EC-Lab ASCII FILE
Nb header lines : 65

Potentio Electrochemical Impedance Spectroscopy

Run on channel : 1 (SN 66354)
User :
CE vs. WE compliance from -10 V to 10 V
Electrode connection : standard
Potential control : Ewe
Ewe ctrl range : min = -10.00 V, max = 10.00 V
Safety Limits :
	Do not start on E overload
Acquisition started on : 10/09/2025 15:25:39.695
Technique started on : 10/09/2025 15:25:42.390
Loaded Setting File :  C:\Users\Celltest\OneDrive - store-dot.com\Documents\EC-Lab\Data\txt_done\UC80_17231_EIS_50SOC.mps
Saved on :
	File : 18303_R274_UC74_SOC50_C01.mpr
	Directory : C:\Users\Celltest\OneDrive - store-dot.com\Documents\EC-Lab\Data\Michael\
	Host : 169.254.61.224
Device : VMP-3e (SN .003165)
Address : USB
EC-LAB for windows v11.62 (software)
Internet server v27.00 (firmware)
Command interpretor v12.03 (firmware)
Electrode material :
Initial state :
Electrolyte :
Comments :
Electrode surface area : 0.001 cm²
Characteristic mass : 0.001 g
Equivalent Weight : 0.000 g/eq.
Density : 0.000 g/cm3
Volume (V) : 0.001 cm³
Record Ece
Cycle Definition : Charge/Discharge alternance
Mode                Multi sine
E (V)               0.0000
vs.                 Eoc
tE (h:m:s)          0:00:0.0000
record              0
dI                  0.000
unit dI             mA
dt (s)              0.000
fi                  1.000
unit fi             MHz
ff                  0.100
unit ff             mHz
Nd                  10
Points              per decade
spacing             Logarithmic
Va (mV)             5.0
pw                  0.10
Na                  2
corr                0
E range min (V)     -10.000
E range max (V)     10.000
I Range             Auto
Bandwidth           5
nc cycles           0
goto Ns'            0
nr cycles           0
inc. cycle          0

freq/Hz	Re(Z)/Ohm	-Im(Z)/Ohm	|Z|/Ohm	Phase(Z)/deg	time/s	<Ewe>/V	<I>/mA	Cs/µF	Cp/µF	cycle number	I Range	|Ewe|/V	|I|/A	Ns	(Q-Qo)/mA.h	<Ece>/V	|Ece|/V	Phase(Zce)/deg	|Zce|/Ohm	Re(Zce)/Ohm	-Im(Zce)/Ohm	Phase(Zwe-ce)/deg	|Zwe-ce|/Ohm	Re(Zwe-ce)/Ohm	-Im(Zwe-ce)/Ohm	Re(Y)/Ohm-1	Im(Y)/Ohm-1	|Y|/Ohm-1	Phase(Y)/deg	Re(C)/nF	Im(C)/nF	|C|/nF	Phase(C)/deg	Re(M)	Im(M)	|M|	Phase(M)/deg	Re(Permittivity)	Im(Permittivity)	|Permittivity|	Phase(Permittivity)/deg	Re(Resistivity)/Ohm.cm	Im(Resistivity)/Ohm.cm	|Resistivity|/Ohm.cm	Phase(Resistivity)/deg	Re(Conductivity)/mS/cm	Im(Conductivity)/mS/cm	|Conductivity|/mS/cm	Phase(Conductivity)/deg	Tan(Delta)	Loss Angle(Delta)/deg	dq/mA.h	Pwe/W	Pce/W	Pwe-ce/W	<Ewe-Ece>/V	Rwe/Ohm	Rce/Ohm	Rwe-ce/Ohm		Ewe-Ece/V
1.00002e+06	1.09689	-0.0272721	1.09723	1.42426	2.69456	3.88584	0.120997	-5.83571	-0.00360525	1	9	0.000213617	0.000194687	0	3.35748e-07	0.000231267	0.000190469	-6.84351	0.978334	0.971364	0.116576	-2.47242	2.07018	2.06825	0.0893043	0.911105	-0.0226529	0.911387	-1.42426	-3.60525	145.004	145.049	-91.4243	0.0000000E+000	0.0000000E+000	0.0000000E+000	91.4243	0.0000000E+000	0.0000000E+000	0.0000000E+000	-91.4243	0.0000000E+000	0.0000000E+000	0.0000000E+000	1.42426	0.0000000E+000	0.0000000E+000	0.0000000E+000	-1.42426	40.2203	88.5757	3.35748e-07	0.000470177	2.79828e-08	0.000470149	3.88561	32115.1	1.91134	32113.2
251206	0.645629	0.235286	0.687166	-20.0232	4.99656	3.88553	0.0694748	2.69273	0.315692	1	9	0.00177272	0.00257976	0	4.37757e-05	2.1417e-05	6.24769e-05	111.218	0.0242181	-0.00876508	-0.0225763	-18.4691	0.671447	0.636864	0.21271	1.36729	0.49828	1.45525	20.0232	315.692	866.263	921.994	-69.9768	0.0000000E+000	0.0000000E+000	0.0000000E+000	69.9768	0.0000000E+000	0.0000000E+000	0.0000000E+000	-69.9768	0.0000000E+000	0.0000000E+000	0.0000000E+000	-20.0232	0.0000000E+000	0.0000000E+000	0.0000000E+000	20.0232	2.74402	69.9768	5.46969e-06	0.000269946	1.48794e-09	0.000269945	3.88551	55927.2	0.308269	55926.9
63093.8	0.994963	0.347068	1.05376	-19.23	7.29655	3.88543	0.0535672	7.26807	0.788434	1	9	0.00529115	0.00502121	0	8.10013e-05	-0.000150279	4.13282e-05	85.6083	0.00823072	0.000630263	-0.00820655	-18.7966	1.05168	0.995593	0.338861	0.896034	0.312559	0.948984	19.23	788.434	2260.26	2393.82	-70.77	0.0000000E+000	0.0000000E+000	0.0000000E+000	70.77	0.0000000E+000	0.0000000E+000	0.0000000E+000	-70.77	0.0000000E+000	0.0000000E+000	0.0000000E+000	-19.23	0.0000000E+000	0.0000000E+000	0.0000000E+000	19.23	2.86677	70.77	-8.1605e-06	0.000208132	-8.05002e-09	0.00020814	3.88558	72533.8	2.80542	72536.6
15847.7	1.28686	0.413545	1.35168	-17.8153	9.47255	3.88543	0.0474575	24.2846	2.27317	1	9	0.00545911	0.00403877	0	9.56909e-05	0.000135881	6.17579e-06	-17.9712	0.00152912	0.00145452	0.000471793	-17.8155	1.3532	1.28831	0.414017	0.704346	0.226349	0.739823	17.8153	2273.17	7073.6	7429.88	-72.1847	0.0000000E+000	0.0000000E+000	0.0000000E+000	72.1847	0.0000000E+000	0.0000000E+000	0.0000000E+000	-72.1847	0.0000000E+000	0.0000000E+000	0.0000000E+000	-17.8153	0.0000000E+000	0.0000000E+000	0.0000000E+000	17.8153	3.11178	72.1847	6.30943e-06	0.000184393	6.44856e-09	0.000184386	3.8853	81871.9	2.86321	81869
3983.6	1.68634	0.61016	1.79333	-19.8914	11.0711	3.88529	-0.0553273	65.4788	7.57995	1	9	0.00476659	0.00265795	0	0.000115895	0.000364808	1.22166e-05	-36.3256	0.00459625	0.00370303	0.00272269	-19.9328	1.79774	1.69004	0.612882	0.524353	0.189724	0.557621	19.8914	7579.95	20949.2	22278.4	-70.1086	0.0000000E+000	0.0000000E+000	0.0000000E+000	70.1086	0.0000000E+000	0.0000000E+000	0.0000000E+000	-70.1086	0.0000000E+000	0.0000000E+000	0.0000000E+000	-19.8914	0.0000000E+000	0.0000000E+000	0.0000000E+000	19.8914	2.76377	70.1086	-2.85159e-06	-0.000214962	-2.01839e-08	-0.000214942	3.88492	70223.7	6.59365	70217.1
1000.32	2.32431	0.921037	2.50015	-21.6165	13.6998	3.88527	-0.0121123	172.744	23.4437	1	9	0.0045992	0.00183957	0	0.000101775	0.000326654	6.95506e-06	37.7694	0.00378081	0.00298866	-0.00231569	-21.542	2.50208	2.3273	0.918721	0.371846	0.147348	0.399976	21.6165	23443.7	59162.2	63637.8	-68.3835	0.0000000E+000	0.0000000E+000	0.0000000E+000	68.3835	0.0000000E+000	0.0000000E+000	0.0000000E+000	-68.3835	0.0000000E+000	0.0000000E+000	0.0000000E+000	-21.6165	0.0000000E+000	0.0000000E+000	0.0000000E+000	21.6165	2.52358	68.3835	-2.68846e-06	-4.70594e-05	-3.95651e-09	-4.70554e-05	3.88494	320772	26.9689	320745
251.044	3.461	1.04081	3.61411	-16.7373	16.6471	3.88531	-0.0517751	609.114	50.517	1	10	0.00457883	0.00126693	0	7.40005e-05	-3.5815e-05	1.5588e-05	-9.29633	0.0123037	0.0121421	0.00198755	-16.7122	3.62631	3.47314	1.0428	0.264971	0.0796834	0.276693	16.7373	50517	167984	175416	-73.2627	0.0000000E+000	0.0000000E+000	0.0000000E+000	73.2627	0.0000000E+000	0.0000000E+000	0.0000000E+000	-73.2627	0.0000000E+000	0.0000000E+000	0.0000000E+000	-16.7373	0.0000000E+000	0.0000000E+000	0.0000000E+000	16.7373	3.3253	73.2627	-6.6004e-06	-0.000201162	1.85432e-09	-0.000201164	3.88535	75042.2	0.691742	75042.9
63.0823	4.23539	0.534466	4.26898	-7.19217	19.3679	3.88532	-0.045771	4720.55	73.992	1	10	0.00455827	0.00106777	0	3.49272e-05	-0.000302897	9.75228e-06	-63.8133	0.00913334	0.00403053	0.00819589	-7.29441	4.27401	4.23942	0.542662	0.232405	0.0293273	0.234248	7.19217	73992	586352	591002	-82.8078	0.0000000E+000	0.0000000E+000	0.0000000E+000	82.8078	0.0000000E+000	0.0000000E+000	0.0000000E+000	-82.8078	0.0000000E+000	0.0000000E+000	0.0000000E+000	-7.19217	0.0000000E+000	0.0000000E+000	0.0000000E+000	7.19217	7.92453	82.8078	-5.39406e-06	-0.000177835	1.38639e-08	-0.000177849	3.88562	84886.1	6.61767	84892.8
15.8576	4.4517	0.221962	4.45723	-2.85441	22.0261	3.88531	-0.052554	45217.3	112.133	1	10	0.0045737	0.00102613	0	4.83283e-06	0.000383886	1.04398e-05	-115.329	0.010174	-0.0043526	0.00919588	-2.97536	4.45335	4.44735	0.231158	0.224076	0.0111725	0.224355	2.85441	112133	2.24895e+06	2.25174e+06	-87.1456	0.0000000E+000	0.0000000E+000	0.0000000E+000	87.1456	0.0000000E+000	0.0000000E+000	0.0000000E+000	-87.1456	0.0000000E+000	0.0000000E+000	0.0000000E+000	-2.85441	0.0000000E+000	0.0000000E+000	0.0000000E+000	2.85441	20.0561	87.1456	-3.43246e-06	-0.000204189	-2.01747e-08	-0.000204169	3.88493	73929.9	7.3046	73922.6
3.97785	4.52799	0.165694	4.53102	-2.0957	24.9383	3.88535	-0.0340386	241471	322.913	1	10	0.00456534	0.00100757	0	-4.00982e-05	-9.30469e-05	5.98451e-06	113.562	0.00593953	-0.00237424	-0.00544435	-2.02796	4.52845	4.52562	0.160249	0.220553	0.00807074	0.220701	2.0957	322913	8.82439e+06	8.8303e+06	-87.9043	0.0000000E+000	0.0000000E+000	0.0000000E+000	87.9043	0.0000000E+000	0.0000000E+000	0.0000000E+000	-87.9043	0.0000000E+000	0.0000000E+000	0.0000000E+000	-2.0957	0.0000000E+000	0.0000000E+000	0.0000000E+000	2.0957	27.3275	87.9043	-1.23467e-05	-0.000132252	3.16718e-09	-0.000132255	3.88544	114145	2.73357	114148
1.00469	4.65055	0.25213	4.65738	-3.10326	240.427	3.88533	-0.0220513	628292	1841.31	1	11	0.00500938	0.00107558	0	-0.0051856	0.000269422	5.38061e-07	9.3587	0.000500252	0.000493594	-8.13484e-05	-3.10193	4.65787	4.65104	0.252049	0.214398	0.0116236	0.214713	3.10326	1.84131e+06	3.39631e+07	3.4013e+07	-86.8967	0.0000000E+000	0.0000000E+000	0.0000000E+000	86.8967	0.0000000E+000	0.0000000E+000	0.0000000E+000	-86.8967	0.0000000E+000	0.0000000E+000	0.0000000E+000	-3.10326	0.0000000E+000	0.0000000E+000	0.0000000E+000	3.10326	18.445	86.8967	-0.0050803	-8.56767e-05	-5.94111e-09	-8.56707e-05	3.88506	176195	12.2179	176182
0.251173	4.88683	0.565719	4.91947	-6.60339	240.429	3.88533	-0.0220513	1.12007e+06	14811.9	1	11	0.00503632	0.00102375	0	-0.0051856	0.000269422	3.52292e-07	-6.4814	0.000344118	0.000341919	3.88443e-05	-6.60339	4.91981	4.88717	0.565758	0.201926	0.0233757	0.203274	6.60339	1.48119e+07	1.27949e+08	1.28804e+08	-83.3966	0.0000000E+000	0.0000000E+000	0.0000000E+000	83.3966	0.0000000E+000	0.0000000E+000	0.0000000E+000	-83.3966	0.0000000E+000	0.0000000E+000	0.0000000E+000	-6.60339	0.0000000E+000	0.0000000E+000	0.0000000E+000	6.60339	8.63827	83.3966	0.000000000000000E+000	-8.56767e-05	-5.94111e-09	-8.56707e-05	3.88506	176195	12.2179	176182
0.0602816	5.5379	1.12647	5.65131	-11.4977	240.432	3.88533	-0.0220513	2.34377e+06	93123	1	11	0.00503008	0.000890073	0	-0.0051856	0.000269422	6.77275e-07	4.76306	0.000760921	0.000758293	-6.31833e-05	-11.4956	5.65204	5.53866	1.12641	0.173399	0.0352713	0.17695	11.4977	9.3123e+07	4.57807e+08	4.67182e+08	-78.5023	0.0000000E+000	0.0000000E+000	0.0000000E+000	78.5023	0.0000000E+000	0.0000000E+000	0.0000000E+000	-78.5023	0.0000000E+000	0.0000000E+000	0.0000000E+000	-11.4977	0.0000000E+000	0.0000000E+000	0.0000000E+000	11.4977	4.91615	78.5023	0.000000000000000E+000	-8.56767e-05	-5.94111e-09	-8.56707e-05	3.88506	176195	12.2179	176182
0.00796479	7.93216	2.16191	8.2215	-15.2456	20329.3	3.88534	0.000801818	9.24292e+06	639118	1	11	0.00502255	0.000610905	0	-0.0621202	-1.67377e-05	4.53212e-07	-11.4365	0.00074187	0.00072714	0.0001471	-15.2453	8.22224	7.93289	2.16205	0.117352	0.0319842	0.121632	15.2456	6.39118e+08	2.34496e+09	2.4305e+09	-74.7544	0.0000000E+000	0.0000000E+000	0.0000000E+000	74.7544	0.0000000E+000	0.0000000E+000	0.0000000E+000	-74.7544	0.0000000E+000	0.0000000E+000	0.0000000E+000	-15.2456	0.0000000E+000	0.0000000E+000	0.0000000E+000	15.2456	3.66906	74.7544	-0.0569346	3.11534e-06	-1.34206e-11	3.11535e-06	3.88536	4.84567e+06	20.8746	4.84569e+06
0.0019912	9.32326	3.77051	10.0568	-22.0194	20329.3	3.88534	0.000801818	2.11986e+07	2.97978e+06	1	11	0.00503553	0.000500707	0	-0.0621202	-1.67377e-05	8.21196e-07	-39.7475	0.00164007	0.001261	0.00104867	-22.0222	10.0584	9.32452	3.77156	0.0921819	0.0372801	0.0994349	22.0194	2.97978e+09	7.36803e+09	7.94776e+09	-67.9806	0.0000000E+000	0.0000000E+000	0.0000000E+000	67.9806	0.0000000E+000	0.0000000E+000	0.0000000E+000	-67.9806	0.0000000E+000	0.0000000E+000	0.0000000E+000	-22.0194	0.0000000E+000	0.0000000E+000	0.0000000E+000	22.0194	2.47268	67.9806	0.000000000000000E+000	3.11534e-06	-1.34206e-11	3.11535e-06	3.88536	4.84567e+06	20.8746	4.84569e+06
0.000497799	10.1376	10.6321	14.6905	-46.364	20329.3	3.88534	0.000801818	3.00709e+07	1.57511e+07	1	11	0.00503722	0.000342889	0	-0.0621202	-1.67377e-05	5.57686e-07	1.11936	0.00162644	0.00162612	-3.17729e-05	-46.3593	14.6916	10.1392	10.6321	0.046974	0.0492656	0.068071	46.364	1.57511e+10	1.50184e+10	2.17635e+10	-43.636	0.0000000E+000	0.0000000E+000	0.0000000E+000	43.636	0.0000000E+000	0.0000000E+000	0.0000000E+000	-43.636	0.0000000E+000	0.0000000E+000	0.0000000E+000	-46.364	0.0000000E+000	0.0000000E+000	0.0000000E+000	46.364	0.953485	43.636	0.000000000000000E+000	3.11534e-06	-1.34206e-11	3.11535e-06	3.88536	4.84567e+06	20.8746	4.84569e+06
9.95598e-05	6.52096	73.7551	74.0428	-84.9474	20329.3	3.88534	0.000801818	2.16742e+07	2.15061e+07	1	11	0.00502973	6.79299e-05	0	-0.0621202	-1.67377e-05	2.05402e-06	-95.7395	0.0302373	-0.00302389	0.0300858	-84.9518	74.0725	6.51793	73.7852	0.00118945	0.0134532	0.0135057	84.9474	2.15061e+10	1.90143e+09	2.159e+10	-5.05259	0.0000000E+000	0.0000000E+000	0.0000000E+000	5.05259	0.0000000E+000	0.0000000E+000	0.0000000E+000	-5.05259	0.0000000E+000	0.0000000E+000	0.0000000E+000	-84.9474	0.0000000E+000	0.0000000E+000	0.0000000E+000	84.9474	0.0884136	5.05258	0.000000000000000E+000	3.11534e-06	-1.34206e-11	3.11535e-06	3.88536	4.84567e+06	20.8746	4.84569e+06