File: txt/18304_R274_UC74_SOC50_C02.mpt
EC-Lab ASCII FILE
Nb header lines : 65

Potentio Electrochemical Impedance Spectroscopy

Run on channel : 2 (SN 66139)
User :
CE vs. WE compliance from -10 V to 10 V
Electrode connection : standard
Potential control : Ewe
Ewe ctrl range : min = -10.00 V, max = 10.00 V
Safety Limits :
	Do not start on E overload
Acquisition started on : 10/09/2025 15:26:01.172
Technique started on : 10/09/2025 15:26:03.406
Loaded Setting File :  C:\Users\Celltest\OneDrive - store-dot.com\Documents\EC-Lab\Data\txt_done\UC80_17231_EIS_50SOC.mps
Saved on :
	File : 18304_R274_UC74_SOC50_C02.mpr
	Directory : C:\Users\Celltest\OneDrive - store-dot.com\Documents\EC-Lab\Data\Michael\
	Host : 169.254.61.224
Device : VMP-3e (SN .003165)
Address : USB
EC-LAB for windows v11.62 (software)
Internet server v27.00 (firmware)
Command interpretor v12.03 (firmware)
Electrode material :
Initial state :
Electrolyte :
Comments :
Electrode surface area : 0.001 cm²
Characteristic mass : 0.001 g
Equivalent Weight : 0.000 g/eq.
Density : 0.000 g/cm3
Volume (V) : 0.001 cm³
Record Ece
Cycle Definition : Charge/Discharge alternance
Mode                Multi sine
E (V)               0.0000
vs.                 Eoc
tE (h:m:s)          0:00:0.0000
record              0
dI                  0.000
unit dI             mA
dt (s)              0.000
fi                  1.000
unit fi             MHz
ff                  0.100
unit ff             mHz
Nd                  10
Points              per decade
spacing             Logarithmic
Va (mV)             5.0
pw                  0.10
Na                  2
corr                0
E range min (V)     -10.000
E range max (V)     10.000
I Range             Auto
Bandwidth           5
nc cycles           0
goto Ns'            0
nr cycles           0
inc. cycle          0

freq/Hz	Re(Z)/Ohm	-Im(Z)/Ohm	|Z|/Ohm	Phase(Z)/deg	time/s	<Ewe>/V	<I>/mA	Cs/µF	Cp/µF	cycle number	I Range	|Ewe|/V	|I|/A	Ns	(Q-Qo)/mA.h	<Ece>/V	|Ece|/V	Phase(Zce)/deg	|Zce|/Ohm	Re(Zce)/Ohm	-Im(Zce)/Ohm	Phase(Zwe-ce)/deg	|Zwe-ce|/Ohm	Re(Zwe-ce)/Ohm	-Im(Zwe-ce)/Ohm	Re(Y)/Ohm-1	Im(Y)/Ohm-1	|Y|/Ohm-1	Phase(Y)/deg	Re(C)/nF	Im(C)/nF	|C|/nF	Phase(C)/deg	Re(M)	Im(M)	|M|	Phase(M)/deg	Re(Permittivity)	Im(Permittivity)	|Permittivity|	Phase(Permittivity)/deg	Re(Resistivity)/Ohm.cm	Im(Resistivity)/Ohm.cm	|Resistivity|/Ohm.cm	Phase(Resistivity)/deg	Re(Conductivity)/mS/cm	Im(Conductivity)/mS/cm	|Conductivity|/mS/cm	Phase(Conductivity)/deg	Tan(Delta)	Loss Angle(Delta)/deg	dq/mA.h	Pwe/W	Pce/W	Pwe-ce/W	<Ewe-Ece>/V	Rwe/Ohm	Rce/Ohm	Rwe-ce/Ohm		Ewe-Ece/V
1.00002e+06	1.88254	2.81484	3.38633	-56.2258	2.23356	3.88536	0.0135526	0.0565404	0.0390666	1	10	0.000183897	5.43055e-05	0	3.74214e-06	-0.000114203	0.000171485	-70.4043	3.15778	1.05906	2.97489	-63.0662	6.49414	2.9416	5.78973	0.164166	0.245468	0.295305	56.2258	39.0666	26.1274	46.9983	-33.7742	0.0000000E+000	0.0000000E+000	0.0000000E+000	33.7742	0.0000000E+000	0.0000000E+000	0.0000000E+000	-33.7742	0.0000000E+000	0.0000000E+000	0.0000000E+000	-56.2258	0.0000000E+000	0.0000000E+000	0.0000000E+000	56.2258	0.66879	33.7742	3.74214e-06	5.26566e-05	-1.54774e-09	5.26581e-05	3.88547	286688	8.42664	286696
251206	0.84634	0.117979	0.854524	-7.93581	4.94053	3.88537	0.040712	5.37015	0.102363	1	9	0.000948871	0.00111041	0	2.71059e-05	-0.000133293	4.78927e-05	71.3692	0.0431307	0.0137789	-0.0408705	-5.12277	0.863568	0.860119	0.0771082	1.15904	0.161568	1.17024	7.93581	102.363	734.322	741.422	-82.0642	0.0000000E+000	0.0000000E+000	0.0000000E+000	82.0642	0.0000000E+000	0.0000000E+000	0.0000000E+000	-82.0642	0.0000000E+000	0.0000000E+000	0.0000000E+000	-7.93581	0.0000000E+000	0.0000000E+000	0.0000000E+000	7.93581	7.17367	82.0642	4.52514e-06	0.000158181	-5.42665e-09	0.000158187	3.8855	95435.4	3.27406	95438.7
63093.8	-0.0311758	-0.212311	0.214588	98.3536	7.0206	3.88533	0.0382538	-11.8812	-11.6304	1	9	4.72527e-05	0.000220202	0	4.65871e-05	-3.78392e-05	1.48348e-05	142.986	0.0673693	-0.0537936	-0.040557	108.574	0.266762	-0.0849694	-0.252868	-0.67703	-4.61065	4.6601	-98.3536	-11630.4	-1707.82	11755.2	171.646	0.0000000E+000	0.0000000E+000	0.0000000E+000	-171.646	0.0000000E+000	0.0000000E+000	0.0000000E+000	171.646	0.0000000E+000	0.0000000E+000	0.0000000E+000	98.3536	0.0000000E+000	0.0000000E+000	0.0000000E+000	-98.3536	0.14684	8.35363	1.84345e-06	0.000148629	-1.44749e-09	0.00014863	3.88537	101567	0.989163	101568
15847.7	1.42061	0.421746	1.48189	-16.5349	9.80253	3.88529	0.0219029	23.8124	1.92874	1	9	0.00493986	0.00333349	0	0.000255515	0.000305796	9.8208e-06	-50.0365	0.00294611	0.00189228	0.00225805	-16.5977	1.48435	1.4225	0.424004	0.646907	0.192052	0.674813	16.5349	1928.74	6496.76	6777.01	-73.4651	0.0000000E+000	0.0000000E+000	0.0000000E+000	73.4651	0.0000000E+000	0.0000000E+000	0.0000000E+000	-73.4651	0.0000000E+000	0.0000000E+000	0.0000000E+000	-16.5349	0.0000000E+000	0.0000000E+000	0.0000000E+000	16.5349	3.3684	73.4651	3.43473e-08	8.5099e-05	6.69782e-09	8.50923e-05	3.88498	177387	13.9614	177373
3983.6	1.80199	0.569687	1.8899	-17.544	11.7731	3.8852	-0.0199988	70.1307	6.37241	1	9	0.00514674	0.00272329	0	0.000271879	0.000133978	8.5257e-06	-117.551	0.00313066	-0.00144806	0.00277564	-17.6375	1.88936	1.80054	0.572463	0.504517	0.1595	0.529129	17.544	6372.41	20156.7	21140	-72.456	0.0000000E+000	0.0000000E+000	0.0000000E+000	72.456	0.0000000E+000	0.0000000E+000	0.0000000E+000	-72.456	0.0000000E+000	0.0000000E+000	0.0000000E+000	-17.544	0.0000000E+000	0.0000000E+000	0.0000000E+000	17.544	3.16312	72.456	-2.33299e-06	-7.76993e-05	-2.6794e-09	-7.76966e-05	3.88507	194272	6.69934	194266
1000.32	2.37144	0.862182	2.52331	-19.9797	14.4018	3.88519	-0.00387131	184.536	21.5446	1	9	0.00495817	0.00196495	0	0.000260075	1.94333e-05	8.27509e-06	32.7484	0.00421136	0.00354198	-0.00227814	-19.9037	2.52586	2.37498	0.859904	0.372453	0.135412	0.396305	19.9797	21544.6	59258.7	63053.7	-70.0203	0.0000000E+000	0.0000000E+000	0.0000000E+000	70.0203	0.0000000E+000	0.0000000E+000	0.0000000E+000	-70.0203	0.0000000E+000	0.0000000E+000	0.0000000E+000	-19.9797	0.0000000E+000	0.0000000E+000	0.0000000E+000	19.9797	2.75051	70.0203	7.12064e-07	-1.50408e-05	-7.52325e-11	-1.50407e-05	3.88517	1.00358e+06	5.01983	1.00358e+06
251.044	3.45778	1.03852	3.61037	-16.7173	17.3491	3.88522	-0.0159735	610.454	50.5105	1	10	0.00492739	0.00136479	0	0.000246813	9.57967e-05	1.26191e-05	17.2395	0.00924622	0.00883083	-0.00274027	-16.6355	3.61805	3.46662	1.03578	0.265273	0.0796731	0.27698	16.7173	50510.5	168176	175597	-73.2827	0.0000000E+000	0.0000000E+000	0.0000000E+000	73.2827	0.0000000E+000	0.0000000E+000	0.0000000E+000	-73.2827	0.0000000E+000	0.0000000E+000	0.0000000E+000	-16.7173	0.0000000E+000	0.0000000E+000	0.0000000E+000	16.7173	3.32952	73.2827	-2.02627e-06	-6.20605e-05	-1.53021e-09	-6.2059e-05	3.88512	243230	5.99724	243224
63.0823	4.29382	0.569767	4.33146	-7.55868	20.069	3.88522	-0.0142301	4428.08	76.6198	1	10	0.00490798	0.0011331	0	0.000236775	5.7615e-05	9.99581e-06	4.11473	0.00882164	0.0087989	-0.000632987	-7.53511	4.3401	4.30262	0.569134	0.228863	0.0303688	0.230869	7.55868	76619.8	577415	582476	-82.4413	0.0000000E+000	0.0000000E+000	0.0000000E+000	82.4413	0.0000000E+000	0.0000000E+000	0.0000000E+000	-82.4413	0.0000000E+000	0.0000000E+000	0.0000000E+000	-7.55868	0.0000000E+000	0.0000000E+000	0.0000000E+000	7.55868	7.53611	82.4413	-2.06094e-06	-5.5287e-05	-8.19866e-10	-5.52862e-05	3.88516	273029	4.04882	273025
15.8576	4.50755	0.236814	4.51377	-3.00739	22.727	3.88525	-0.017702	42381.4	116.657	1	10	0.00489388	0.00108421	0	0.000217441	9.57967e-05	1.75864e-05	-4.10843	0.0162205	0.0161788	0.0011621	-3.01134	4.52999	4.52373	0.237976	0.221239	0.0116233	0.221544	3.00739	116657	2.22047e+06	2.22353e+06	-86.9926	0.0000000E+000	0.0000000E+000	0.0000000E+000	86.9926	0.0000000E+000	0.0000000E+000	0.0000000E+000	-86.9926	0.0000000E+000	0.0000000E+000	0.0000000E+000	-3.00739	0.0000000E+000	0.0000000E+000	0.0000000E+000	3.00739	19.0341	86.9926	-5.38912e-06	-6.87766e-05	-1.69579e-09	-6.87749e-05	3.88515	219481	5.41164	219475
3.97785	4.6063	0.176055	4.60966	-2.18881	25.6373	3.88525	-0.00718569	227260	331.499	1	10	0.00490736	0.00106458	0	0.000222751	0.000286705	5.61234e-06	-11.1031	0.00527187	0.0051732	0.00101523	-2.19895	4.61487	4.61147	0.17707	0.216777	0.00828534	0.216936	2.18881	331498	8.67333e+06	8.67966e+06	-87.8112	0.0000000E+000	0.0000000E+000	0.0000000E+000	87.8112	0.0000000E+000	0.0000000E+000	0.0000000E+000	-87.8112	0.0000000E+000	0.0000000E+000	0.0000000E+000	-2.18881	0.0000000E+000	0.0000000E+000	0.0000000E+000	2.18881	26.164	87.8112	5.30398e-06	-2.79182e-05	-2.06017e-09	-2.79161e-05	3.88496	540692	39.8995	540653
1.00469	4.72449	0.272522	4.73234	-3.30133	241.127	3.88524	-0.00809093	581278	1927.69	1	11	0.00498018	0.00105237	0	-0.0037605	-1.87484e-05	2.52573e-07	31.8624	0.000240004	0.000203839	-0.000126693	-3.29966	4.73254	4.72469	0.272396	0.210961	0.0121689	0.211312	3.30133	1.92769e+06	3.34187e+07	3.34742e+07	-86.6987	0.0000000E+000	0.0000000E+000	0.0000000E+000	86.6987	0.0000000E+000	0.0000000E+000	0.0000000E+000	-86.6987	0.0000000E+000	0.0000000E+000	0.0000000E+000	-3.30133	0.0000000E+000	0.0000000E+000	0.0000000E+000	3.30133	17.3361	86.6987	-0.00399171	-3.14352e-05	1.51692e-10	-3.14353e-05	3.88525	480196	2.31721	480198
0.251173	4.98592	0.589225	5.02062	-6.73982	241.127	3.88524	-0.00809093	1.07539e+06	14812	1	11	0.00500732	0.00099735	0	-0.0037605	-1.87484e-05	5.1821e-07	90.5342	0.000519587	-4.84443e-06	-0.000519564	-6.73394	5.02055	4.98592	0.588706	0.197802	0.0233758	0.199179	6.73982	1.4812e+07	1.25336e+08	1.26209e+08	-83.2602	0.0000000E+000	0.0000000E+000	0.0000000E+000	83.2602	0.0000000E+000	0.0000000E+000	0.0000000E+000	-83.2602	0.0000000E+000	0.0000000E+000	0.0000000E+000	-6.73982	0.0000000E+000	0.0000000E+000	0.0000000E+000	6.73982	8.46183	83.2602	0.000000000000000E+000	-3.14352e-05	1.51692e-10	-3.14353e-05	3.88525	480196	2.31721	480198
0.0602816	5.60622	1.11718	5.71645	-11.2699	241.127	3.88524	-0.00809093	2.36327e+06	90261.7	1	11	0.0050005	0.000874755	0	-0.0037605	-1.87484e-05	2.47015e-07	11.1845	0.000282381	0.000277018	-5.4773e-05	-11.2689	5.71671	5.6065	1.11712	0.171561	0.0341876	0.174934	11.2699	9.02617e+07	4.52952e+08	4.61858e+08	-78.7301	0.0000000E+000	0.0000000E+000	0.0000000E+000	78.7301	0.0000000E+000	0.0000000E+000	0.0000000E+000	-78.7301	0.0000000E+000	0.0000000E+000	0.0000000E+000	-11.2699	0.0000000E+000	0.0000000E+000	0.0000000E+000	11.2699	5.01821	78.7301	0.000000000000000E+000	-3.14352e-05	1.51692e-10	-3.14353e-05	3.88525	480196	2.31721	480198
0.00796479	8.11628	2.25837	8.42462	-15.5493	20330.1	3.88522	0.000395263	8.84812e+06	635829	1	11	0.00499492	0.000592895	0	-0.059991	0.000114888	2.1284e-07	-59.9659	0.000358984	0.000179677	0.000310782	-15.551	8.42488	8.11646	2.25868	0.114355	0.0318196	0.1187	15.5493	6.35829e+08	2.28508e+09	2.3719e+09	-74.4507	0.0000000E+000	0.0000000E+000	0.0000000E+000	74.4507	0.0000000E+000	0.0000000E+000	0.0000000E+000	-74.4507	0.0000000E+000	0.0000000E+000	0.0000000E+000	-15.5493	0.0000000E+000	0.0000000E+000	0.0000000E+000	15.5493	3.59387	74.4507	-0.0562305	1.53568e-06	4.54108e-11	1.53564e-06	3.88511	9.82947e+06	290.661	9.82918e+06
0.0019912	9.55609	3.89943	10.3211	-22.1983	20330.1	3.88522	0.000395263	2.04977e+07	2.92589e+06	1	11	0.0050074	0.000485163	0	-0.059991	0.000114888	2.82347e-07	-55.2462	0.000581964	0.000331749	0.000478147	-22.2	10.3216	9.55642	3.89991	0.089708	0.036606	0.0968892	22.1983	2.92589e+09	7.1703e+09	7.74429e+09	-67.8017	0.0000000E+000	0.0000000E+000	0.0000000E+000	67.8017	0.0000000E+000	0.0000000E+000	0.0000000E+000	-67.8017	0.0000000E+000	0.0000000E+000	0.0000000E+000	-22.1983	0.0000000E+000	0.0000000E+000	0.0000000E+000	22.1983	2.45064	67.8017	0.000000000000000E+000	1.53568e-06	4.54108e-11	1.53564e-06	3.88511	9.82947e+06	290.661	9.82918e+06
0.000497799	10.3412	10.9392	15.0534	-46.6096	20330.1	3.88522	0.000395263	2.92269e+07	1.5434e+07	1	11	0.00500694	0.000332612	0	-0.059991	0.000114888	8.15629e-07	-76.4374	0.0024522	0.000575059	0.00238382	-46.6142	15.0555	10.3418	10.9415	0.0456353	0.0482741	0.0664301	46.6096	1.5434e+10	1.45904e+10	2.12389e+10	-43.3904	0.0000000E+000	0.0000000E+000	0.0000000E+000	43.3904	0.0000000E+000	0.0000000E+000	0.0000000E+000	-43.3904	0.0000000E+000	0.0000000E+000	0.0000000E+000	-46.6096	0.0000000E+000	0.0000000E+000	0.0000000E+000	46.6096	0.945337	43.3904	0.000000000000000E+000	1.53568e-06	4.54108e-11	1.53564e-06	3.88511	9.82947e+06	290.661	9.82918e+06
9.95598e-05	7.26812	75.9639	76.3108	-84.5347	20330.1	3.88522	0.000395263	2.1044e+07	2.08531e+07	1	11	0.00500945	6.56454e-05	0	-0.059991	0.000114888	1.99213e-06	-71.5673	0.0303468	0.00959536	0.0287899	-84.5295	76.3404	7.27771	75.9927	0.0012481	0.0130447	0.0131043	84.5347	2.08531e+10	1.9952e+09	2.09484e+10	-5.46535	0.0000000E+000	0.0000000E+000	0.0000000E+000	5.46535	0.0000000E+000	0.0000000E+000	0.0000000E+000	-5.46535	0.0000000E+000	0.0000000E+000	0.0000000E+000	-84.5347	0.0000000E+000	0.0000000E+000	0.0000000E+000	84.5347	0.0956786	5.46535	0.000000000000000E+000	1.53568e-06	4.54108e-11	1.53564e-06	3.88511	9.82947e+06	290.661	9.82918e+06