File: txt/18347_R257_UA646_SOC00_C02.mpt
EC-Lab ASCII FILE
Nb header lines : 65

Potentio Electrochemical Impedance Spectroscopy

Run on channel : 2 (SN 66139)
User :
CE vs. WE compliance from -10 V to 10 V
Electrode connection : standard
Potential control : Ewe
Ewe ctrl range : min = -10.00 V, max = 10.00 V
Safety Limits :
	Do not start on E overload
Acquisition started on : 10/13/2025 14:39:37.044
Technique started on : 10/13/2025 14:39:38.956
Loaded Setting File :  C:\Users\Celltest\OneDrive - store-dot.com\Documents\EC-Lab\Data\@Biologic Test Protocols\anode half cell EIS SOC00.mps
Saved on :
	File : 18347_R257_UA646_SOC00_C02.mpr
	Directory : C:\Users\Celltest\OneDrive - store-dot.com\Documents\EC-Lab\Data\John\
	Host : 169.254.61.224
Device : VMP-3e (SN .003165)
Address : USB
EC-LAB for windows v11.62 (software)
Internet server v27.00 (firmware)
Command interpretor v12.03 (firmware)
Electrode material :
Initial state :
Electrolyte :
Comments :
Electrode surface area : 0.001 cm²
Characteristic mass : 0.001 g
Equivalent Weight : 0.000 g/eq.
Density : 0.000 g/cm3
Volume (V) : 0.001 cm³
Record Ece
Cycle Definition : Charge/Discharge alternance
Mode                Single sine
E (V)               0.0000
vs.                 Eoc
tE (h:m:s)          0:00:0.0000
record              0
dI                  0.000
unit dI             mA
dt (s)              0.000
fi                  100.000
unit fi             kHz
ff                  10.000
unit ff             mHz
Nd                  6
Points              per decade
spacing             Logarithmic
Va (mV)             5.0
pw                  0.10
Na                  2
corr                0
E range min (V)     -10.000
E range max (V)     10.000
I Range             Auto
Bandwidth           5
nc cycles           0
goto Ns'            0
nr cycles           0
inc. cycle          0

freq/Hz	Re(Z)/Ohm	-Im(Z)/Ohm	|Z|/Ohm	Phase(Z)/deg	time/s	<Ewe>/V	<I>/mA	Cs/µF	Cp/µF	cycle number	I Range	|Ewe|/V	|I|/A	Ns	(Q-Qo)/mA.h	<Ece>/V	|Ece|/V	Phase(Zce)/deg	|Zce|/Ohm	Re(Zce)/Ohm	-Im(Zce)/Ohm	Phase(Zwe-ce)/deg	|Zwe-ce|/Ohm	Re(Zwe-ce)/Ohm	-Im(Zwe-ce)/Ohm	Re(Y)/Ohm-1	Im(Y)/Ohm-1	|Y|/Ohm-1	Phase(Y)/deg	Re(C)/nF	Im(C)/nF	|C|/nF	Phase(C)/deg	Re(M)	Im(M)	|M|	Phase(M)/deg	Re(Permittivity)	Im(Permittivity)	|Permittivity|	Phase(Permittivity)/deg	Re(Resistivity)/Ohm.cm	Im(Resistivity)/Ohm.cm	|Resistivity|/Ohm.cm	Phase(Resistivity)/deg	Re(Conductivity)/mS/cm	Im(Conductivity)/mS/cm	|Conductivity|/mS/cm	Phase(Conductivity)/deg	Tan(Delta)	Loss Angle(Delta)/deg	dq/mA.h	Pwe/W	Pce/W	Pwe-ce/W	<Ewe-Ece>/V	Rwe/Ohm	Rce/Ohm	Rwe-ce/Ohm		Ewe-Ece/V
100004	1.27103	0.455527	1.3502	-19.7172	1.91156	0.246858	-0.00625501	3.49373	0.397671	1	9	0.00460729	0.0034123	0	-2.85656e-06	0.000248523	2.49976e-05	87.3032	0.00732571	0.00034468	-0.0073176	-19.4195	1.34807	1.27138	0.44821	0.697208	0.249873	0.740632	19.7172	397.671	1109.6	1178.71	-70.2828	0.0000000E+000	0.0000000E+000	0.0000000E+000	70.2828	0.0000000E+000	0.0000000E+000	0.0000000E+000	-70.2828	0.0000000E+000	0.0000000E+000	0.0000000E+000	-19.7172	0.0000000E+000	0.0000000E+000	0.0000000E+000	19.7172	2.79025	70.2828	-2.85656e-06	-1.5441e-06	-1.55452e-09	-1.54254e-06	0.246609	39465.7	39.7319	39425.9
31621.1	1.67685	0.650069	1.79845	-21.1899	3.43254	0.246856	-0.00297738	7.74253	1.01159	1	9	0.00498156	0.00276992	0	-2.87867e-05	1.94333e-05	8.88336e-06	-13.2328	0.00320708	0.00312193	0.000734128	-21.1758	1.80163	1.67997	0.650803	0.518439	0.200985	0.556035	21.1899	1011.59	2609.4	2798.62	-68.8101	0.0000000E+000	0.0000000E+000	0.0000000E+000	68.8101	0.0000000E+000	0.0000000E+000	0.0000000E+000	-68.8101	0.0000000E+000	0.0000000E+000	0.0000000E+000	-21.1899	0.0000000E+000	0.0000000E+000	0.0000000E+000	21.1899	2.5795	68.8101	-1.06619e-05	-7.34985e-07	-5.78603e-11	-7.34927e-07	0.246837	82910.7	6.52699	82904.2
10002.2	2.18558	0.877744	2.35525	-21.8808	4.33355	0.246853	-0.00659026	18.1282	2.51779	1	9	0.00451733	0.00191799	0	-2.92958e-05	-0.000133293	1.07464e-05	-101.314	0.00560296	-0.00109925	0.00549407	-22.0147	2.35628	2.18448	0.883238	0.393998	0.158232	0.424584	21.8808	2517.79	6269.27	6755.96	-68.1192	0.0000000E+000	0.0000000E+000	0.0000000E+000	68.1192	0.0000000E+000	0.0000000E+000	0.0000000E+000	-68.1192	0.0000000E+000	0.0000000E+000	0.0000000E+000	-21.8808	0.0000000E+000	0.0000000E+000	0.0000000E+000	21.8808	2.48999	68.1192	5.91201e-07	-1.62683e-06	8.78439e-10	-1.6277e-06	0.246986	37457.2	20.2258	37477.4
3163.08	2.84375	1.28954	3.12247	-24.3927	5.35568	0.246637	-0.047449	39.0189	6.65502	1	9	0.00462516	0.00148125	0	-3.73266e-05	7.67059e-05	4.61016e-06	-17.3286	0.00311234	0.00297108	0.000927015	-24.3857	3.12556	2.84672	1.29047	0.291672	0.132263	0.32026	24.3927	6655.02	14675.9	16114.3	-65.6073	0.0000000E+000	0.0000000E+000	0.0000000E+000	65.6073	0.0000000E+000	0.0000000E+000	0.0000000E+000	-65.6073	0.0000000E+000	0.0000000E+000	0.0000000E+000	-24.3927	0.0000000E+000	0.0000000E+000	0.0000000E+000	24.3927	2.20524	65.6073	-5.71288e-06	-1.17027e-05	-3.63962e-09	-1.1699e-05	0.24656	5197.94	1.61659	5196.32
1000.32	3.68478	2.03082	4.20736	-28.8608	6.95478	0.24679	-0.0218407	78.3447	18.253	1	10	0.00463187	0.0011009	0	-3.24487e-05	-1.87484e-05	2.79746e-05	-43.7522	0.0254107	0.0183551	0.0175725	-28.9492	4.23192	3.70314	2.04839	0.208158	0.114724	0.237679	28.8608	18253	33118.8	37815.7	-61.1392	0.0000000E+000	0.0000000E+000	0.0000000E+000	61.1392	0.0000000E+000	0.0000000E+000	0.0000000E+000	-61.1392	0.0000000E+000	0.0000000E+000	0.0000000E+000	-28.8608	0.0000000E+000	0.0000000E+000	0.0000000E+000	28.8608	1.81443	61.1392	-2.61637e-06	-5.39006e-06	4.09477e-10	-5.39047e-06	0.246808	11299.5	0.858414	11300.4
316.316	5.15569	4.01098	6.53216	-37.8819	8.30509	0.246785	-0.0230924	125.444	47.2972	1	10	0.00456944	0.000699529	0	-3.95448e-05	3.85242e-05	1.2234e-05	-95.5852	0.017489	-0.00170213	0.0174059	-38.0114	6.54153	5.15399	4.02839	0.120829	0.0940019	0.153089	37.8819	47297.2	60795.6	77026.8	-52.1181	0.0000000E+000	0.0000000E+000	0.0000000E+000	52.1181	0.0000000E+000	0.0000000E+000	0.0000000E+000	-52.1181	0.0000000E+000	0.0000000E+000	0.0000000E+000	-37.8819	0.0000000E+000	0.0000000E+000	0.0000000E+000	37.8819	1.28539	52.1181	-2.18395e-06	-5.69885e-06	-8.89615e-10	-5.69796e-06	0.246746	10686.8	1.66826	10685.2
100.032	9.4359	7.36451	11.9696	-37.9712	9.65279	0.246795	-0.0212633	216.042	81.783	1	10	0.00455595	0.000380625	0	-4.70824e-05	-5.69301e-05	1.11705e-05	-88.9117	0.0293478	0.000557397	0.0293426	-38.0802	11.9882	9.43646	7.39385	0.0658599	0.0514022	0.0835447	37.9712	81782.9	104786	132923	-52.0288	0.0000000E+000	0.0000000E+000	0.0000000E+000	52.0288	0.0000000E+000	0.0000000E+000	0.0000000E+000	-52.0288	0.0000000E+000	0.0000000E+000	0.0000000E+000	-37.9712	0.0000000E+000	0.0000000E+000	0.0000000E+000	37.9712	1.28127	52.0288	-2.4606e-06	-5.24768e-06	1.21052e-09	-5.24889e-06	0.246852	11606.6	2.67738	11609.3
31.6296	17.0756	7.97695	18.8469	-25.0399	11.2156	0.246833	-0.00903119	630.798	113.001	1	11	0.00454889	0.00024136	0	-5.49254e-05	-7.60209e-05	8.29541e-06	87.3357	0.0343695	0.00159764	-0.0343323	-24.9432	18.8339	17.0772	7.94262	0.0480722	0.0224572	0.053059	25.0399	113001	241892	266985	-64.9601	0.0000000E+000	0.0000000E+000	0.0000000E+000	64.9601	0.0000000E+000	0.0000000E+000	0.0000000E+000	-64.9601	0.0000000E+000	0.0000000E+000	0.0000000E+000	-25.0399	0.0000000E+000	0.0000000E+000	0.0000000E+000	25.0399	2.14061	64.9601	-2.61671e-06	-2.2292e-06	6.86559e-10	-2.22988e-06	0.246909	27331.2	8.4176	27339.6
10.0032	22.3719	5.59189	23.0601	-14.0336	12.5478	0.246828	-0.00884402	2845.26	167.308	1	11	0.00453128	0.000196498	0	-5.69006e-05	-1.87484e-05	7.76672e-06	85.9389	0.0395256	0.00279919	-0.0394264	-13.9369	23.0533	22.3747	5.55246	0.0420706	0.0105156	0.0433649	14.0336	167308	669360	689953	-75.9664	0.0000000E+000	0.0000000E+000	0.0000000E+000	75.9664	0.0000000E+000	0.0000000E+000	0.0000000E+000	-75.9664	0.0000000E+000	0.0000000E+000	0.0000000E+000	-14.0336	0.0000000E+000	0.0000000E+000	0.0000000E+000	14.0336	4.00077	75.9664	4.1008e-07	-2.18295e-06	1.65811e-10	-2.18312e-06	0.246847	27909.1	2.11989	27911.2
3.1604	25.4021	4.0125	25.7171	-8.97621	14.0644	0.246833	-0.00810185	12550.6	305.527	1	11	0.00454189	0.00017661	0	-6.06857e-05	0.000114888	2.78906e-06	69.0404	0.0157922	0.00564904	-0.0147473	-8.9418	25.7204	25.4078	3.99775	0.0384084	0.00606695	0.0388846	8.97621	305527	1.93422e+06	1.9582e+06	-81.0238	0.0000000E+000	0.0000000E+000	0.0000000E+000	81.0238	0.0000000E+000	0.0000000E+000	0.0000000E+000	-81.0238	0.0000000E+000	0.0000000E+000	0.0000000E+000	-8.97621	0.0000000E+000	0.0000000E+000	0.0000000E+000	8.97621	6.33076	81.0238	2.81328e-07	-1.99981e-06	-9.30802e-10	-1.99888e-06	0.246718	30466.3	14.1804	30452.1
1.00006	27.7448	3.39293	27.9515	-6.97213	19.7037	0.246832	-0.0067385	46904.8	691.126	1	12	0.00454763	0.000162697	0	-7.17999e-05	-3.78392e-05	2.31975e-06	-7.63537	0.0142581	0.0141317	0.00189444	-6.97246	27.9658	27.7589	3.39483	0.0355117	0.00434275	0.0357763	6.97213	691126	5.6515e+06	5.6936e+06	-83.0279	0.0000000E+000	0.0000000E+000	0.0000000E+000	83.0279	0.0000000E+000	0.0000000E+000	0.0000000E+000	-83.0279	0.0000000E+000	0.0000000E+000	0.0000000E+000	-6.97213	0.0000000E+000	0.0000000E+000	0.0000000E+000	6.97213	8.17723	83.0279	-9.76796e-06	-1.66328e-06	2.5498e-10	-1.66354e-06	0.24687	36630.2	5.61537	36635.8
0.316193	29.8143	3.39758	30.0073	-6.50127	34.047	0.246837	-0.00769607	148149	1899.26	1	12	0.00454663	0.000151518	0	-0.000112475	0.000382159	1.83105e-06	-67.7449	0.0120847	0.00457686	0.0111845	-6.5215	30.0131	29.8189	3.40877	0.033111	0.00377326	0.0333253	6.50127	1.89926e+06	1.66663e+07	1.67742e+07	-83.4987	0.0000000E+000	0.0000000E+000	0.0000000E+000	83.4987	0.0000000E+000	0.0000000E+000	0.0000000E+000	-83.4987	0.0000000E+000	0.0000000E+000	0.0000000E+000	-6.50127	0.0000000E+000	0.0000000E+000	0.0000000E+000	6.50127	8.77515	83.4987	-1.28669e-05	-1.89967e-06	-2.94113e-09	-1.89673e-06	0.246455	32073.1	49.6564	32023.5
0.0999041	31.9622	4.64397	32.2979	-8.26696	79.2561	0.246834	-0.00763974	343042	7092.16	1	12	0.0045465	0.000140768	0	-0.000134665	-0.000133293	1.55411e-06	-84.084	0.0110402	0.00113791	0.0109814	-8.28595	32.3006	31.9634	4.65495	0.0306401	0.00445186	0.0309618	8.26696	7.09216e+06	4.8812e+07	4.93245e+07	-81.733	0.0000000E+000	0.0000000E+000	0.0000000E+000	81.733	0.0000000E+000	0.0000000E+000	0.0000000E+000	-81.733	0.0000000E+000	0.0000000E+000	0.0000000E+000	-8.26696	0.0000000E+000	0.0000000E+000	0.0000000E+000	8.26696	6.88253	81.733	-1.12356e-05	-1.88574e-06	1.01833e-09	-1.88676e-06	0.246967	32309.2	17.4474	32326.6
0.0315922	35.2369	8.05415	36.1456	-12.875	222.141	0.246829	-0.00841589	625490	31056.2	1	12	0.00454688	0.000125793	0	-0.000543092	7.67059e-05	1.37046e-06	-34.5307	0.0108945	0.00897517	0.00617555	-12.8814	36.1557	35.2458	8.06033	0.0269703	0.00616465	0.0276659	12.875	3.10562e+07	1.35871e+08	1.39375e+08	-77.125	0.0000000E+000	0.0000000E+000	0.0000000E+000	77.125	0.0000000E+000	0.0000000E+000	0.0000000E+000	-77.125	0.0000000E+000	0.0000000E+000	0.0000000E+000	-12.875	0.0000000E+000	0.0000000E+000	0.0000000E+000	12.875	4.37499	77.125	-0.000246749	-2.07729e-06	-6.45548e-10	-2.07664e-06	0.246752	29329	9.11441	29319.8
0.0100092	41.356	15.2415	44.0752	-20.231	673.362	0.246814	-0.0121717	1.04326e+06	124756	1	12	0.00454625	0.000103148	0	-0.00225813	0.000420341	1.68085e-06	-0.89081	0.0162956	0.0162936	0.000253346	-20.224	44.0906	41.3723	15.2418	0.0212888	0.00784584	0.0226885	20.231	1.24756e+08	3.38511e+08	3.60768e+08	-69.769	0.0000000E+000	0.0000000E+000	0.0000000E+000	69.769	0.0000000E+000	0.0000000E+000	0.0000000E+000	-69.769	0.0000000E+000	0.0000000E+000	0.0000000E+000	-20.231	0.0000000E+000	0.0000000E+000	0.0000000E+000	20.231	2.71338	69.769	-0.000719537	-3.00414e-06	-5.11625e-09	-2.99902e-06	0.246394	20277.7	34.5344	20243.2