File: txt/18346_R257_UA646_SOC00_C01.mpt
EC-Lab ASCII FILE
Nb header lines : 65

Potentio Electrochemical Impedance Spectroscopy

Run on channel : 1 (SN 66354)
User :
CE vs. WE compliance from -10 V to 10 V
Electrode connection : standard
Potential control : Ewe
Ewe ctrl range : min = -10.00 V, max = 10.00 V
Safety Limits :
	Do not start on E overload
Acquisition started on : 10/13/2025 14:39:24.925
Technique started on : 10/13/2025 14:39:26.837
Loaded Setting File :  C:\Users\Celltest\OneDrive - store-dot.com\Documents\EC-Lab\Data\@Biologic Test Protocols\anode half cell EIS SOC00.mps
Saved on :
	File : 18346_R257_UA646_SOC00_C01.mpr
	Directory : C:\Users\Celltest\OneDrive - store-dot.com\Documents\EC-Lab\Data\John\
	Host : 169.254.61.224
Device : VMP-3e (SN .003165)
Address : USB
EC-LAB for windows v11.62 (software)
Internet server v27.00 (firmware)
Command interpretor v12.03 (firmware)
Electrode material :
Initial state :
Electrolyte :
Comments :
Electrode surface area : 0.001 cm²
Characteristic mass : 0.001 g
Equivalent Weight : 0.000 g/eq.
Density : 0.000 g/cm3
Volume (V) : 0.001 cm³
Record Ece
Cycle Definition : Charge/Discharge alternance
Mode                Single sine
E (V)               0.0000
vs.                 Eoc
tE (h:m:s)          0:00:0.0000
record              0
dI                  0.000
unit dI             mA
dt (s)              0.000
fi                  100.000
unit fi             kHz
ff                  10.000
unit ff             mHz
Nd                  6
Points              per decade
spacing             Logarithmic
Va (mV)             5.0
pw                  0.10
Na                  2
corr                0
E range min (V)     -10.000
E range max (V)     10.000
I Range             Auto
Bandwidth           5
nc cycles           0
goto Ns'            0
nr cycles           0
inc. cycle          0

freq/Hz	Re(Z)/Ohm	-Im(Z)/Ohm	|Z|/Ohm	Phase(Z)/deg	time/s	<Ewe>/V	<I>/mA	Cs/µF	Cp/µF	cycle number	I Range	|Ewe|/V	|I|/A	Ns	(Q-Qo)/mA.h	<Ece>/V	|Ece|/V	Phase(Zce)/deg	|Zce|/Ohm	Re(Zce)/Ohm	-Im(Zce)/Ohm	Phase(Zwe-ce)/deg	|Zwe-ce|/Ohm	Re(Zwe-ce)/Ohm	-Im(Zwe-ce)/Ohm	Re(Y)/Ohm-1	Im(Y)/Ohm-1	|Y|/Ohm-1	Phase(Y)/deg	Re(C)/nF	Im(C)/nF	|C|/nF	Phase(C)/deg	Re(M)	Im(M)	|M|	Phase(M)/deg	Re(Permittivity)	Im(Permittivity)	|Permittivity|	Phase(Permittivity)/deg	Re(Resistivity)/Ohm.cm	Im(Resistivity)/Ohm.cm	|Resistivity|/Ohm.cm	Phase(Resistivity)/deg	Re(Conductivity)/mS/cm	Im(Conductivity)/mS/cm	|Conductivity|/mS/cm	Phase(Conductivity)/deg	Tan(Delta)	Loss Angle(Delta)/deg	dq/mA.h	Pwe/W	Pce/W	Pwe-ce/W	<Ewe-Ece>/V	Rwe/Ohm	Rce/Ohm	Rwe-ce/Ohm		Ewe-Ece/V
100004	1.16237	0.459573	1.24993	-21.5726	1.91153	0.251248	0.0891451	3.46298	0.468155	1	9	0.00468243	0.00374617	0	1.14161e-05	0.000174035	4.79645e-05	86.928	0.0128036	0.000686159	-0.0127852	-21.0142	1.24592	1.16306	0.446788	0.744006	0.294161	0.800047	21.5726	468.155	1184.08	1273.27	-68.4274	0.0000000E+000	0.0000000E+000	0.0000000E+000	68.4274	0.0000000E+000	0.0000000E+000	0.0000000E+000	-68.4274	0.0000000E+000	0.0000000E+000	0.0000000E+000	-21.5726	0.0000000E+000	0.0000000E+000	0.0000000E+000	21.5726	2.52924	68.4274	1.14161e-05	2.23975e-05	1.55144e-08	2.2382e-05	0.251074	2818.42	1.95227	2816.47
31621.1	1.57248	0.671717	1.70994	-23.1307	3.31056	0.251241	0.0983096	7.49301	1.15629	1	9	0.00547073	0.00319936	0	3.44323e-05	0.000174035	1.98137e-05	50.1616	0.00619301	0.00396739	-0.00475533	-22.9322	1.71173	1.57645	0.666962	0.537802	0.229733	0.584815	23.1307	1156.29	2706.86	2943.48	-66.8693	0.0000000E+000	0.0000000E+000	0.0000000E+000	66.8693	0.0000000E+000	0.0000000E+000	0.0000000E+000	-66.8693	0.0000000E+000	0.0000000E+000	0.0000000E+000	-23.1307	0.0000000E+000	0.0000000E+000	0.0000000E+000	23.1307	2.34099	66.8693	7.42931e-06	2.46994e-05	1.71094e-08	2.46823e-05	0.251067	2555.61	1.77028	2553.84
10002.2	2.09515	0.914831	2.28617	-23.5881	4.33753	0.251239	0.0903745	17.3933	2.78513	1	9	0.00532359	0.0023286	0	4.73825e-05	0.000135881	5.50632e-06	61.6791	0.00236464	0.00112181	-0.0020816	-23.529	2.28637	2.09628	0.91275	0.400865	0.175034	0.437412	23.5881	2785.13	6378.54	6960.08	-66.4119	0.0000000E+000	0.0000000E+000	0.0000000E+000	66.4119	0.0000000E+000	0.0000000E+000	0.0000000E+000	-66.4119	0.0000000E+000	0.0000000E+000	0.0000000E+000	-23.5881	0.0000000E+000	0.0000000E+000	0.0000000E+000	23.5881	2.29021	66.4119	6.12132e-06	2.27056e-05	1.22802e-08	2.26933e-05	0.251103	2779.98	1.50353	2778.48
3163.08	2.77775	1.32699	3.07844	-25.5347	5.23562	0.251083	0.0419438	37.9178	7.04556	1	9	0.00500553	0.001626	0	6.2477e-05	0.00021219	1.39904e-05	-23.6624	0.00860423	0.00788084	0.00345328	-25.5295	3.08704	2.78563	1.33044	0.293111	0.140025	0.32484	25.5347	7045.56	14748.3	16344.8	-64.4653	0.0000000E+000	0.0000000E+000	0.0000000E+000	64.4653	0.0000000E+000	0.0000000E+000	0.0000000E+000	-64.4653	0.0000000E+000	0.0000000E+000	0.0000000E+000	-25.5347	0.0000000E+000	0.0000000E+000	0.0000000E+000	25.5347	2.09328	64.4653	3.79284e-06	1.05314e-05	8.90005e-09	1.05225e-05	0.250871	5986.17	5.05891	5981.12
1000.32	3.70013	2.17591	4.2925	-30.4583	6.83577	0.251151	-0.00945195	73.1205	18.7889	1	10	0.00495596	0.00115456	0	7.67539e-05	0.00021219	1.24673e-05	-89.824	0.0107983	3.31773e-05	0.0107982	-30.5821	4.29802	3.70017	2.18671	0.200815	0.118092	0.232964	30.4583	18788.9	31950.5	37065.6	-59.5417	0.0000000E+000	0.0000000E+000	0.0000000E+000	59.5417	0.0000000E+000	0.0000000E+000	0.0000000E+000	-59.5417	0.0000000E+000	0.0000000E+000	0.0000000E+000	-30.4583	0.0000000E+000	0.0000000E+000	0.0000000E+000	30.4583	1.7005	59.5417	-5.66987e-08	-2.37387e-06	-2.00561e-09	-2.37187e-06	0.250939	26571.4	22.4493	26548.9
316.316	5.27703	4.25367	6.77796	-38.8713	8.18509	0.251146	-0.00950787	118.287	46.587	1	10	0.00484449	0.000714742	0	7.30085e-05	0.000307577	5.56582e-06	37.806	0.00778718	0.00615258	-0.00477346	-38.8073	6.77976	5.28319	4.2489	0.114866	0.0925903	0.147537	38.8713	46587	57795	74233.5	-51.1287	0.0000000E+000	0.0000000E+000	0.0000000E+000	51.1287	0.0000000E+000	0.0000000E+000	0.0000000E+000	-51.1287	0.0000000E+000	0.0000000E+000	0.0000000E+000	-38.8713	0.0000000E+000	0.0000000E+000	0.0000000E+000	38.8713	1.24058	51.1287	-5.52476e-07	-2.38786e-06	-2.9244e-09	-2.38494e-06	0.250838	26414.5	32.3497	26382.2
100.032	9.78433	7.7274	12.4678	-38.3008	9.53286	0.251155	-0.0103502	205.896	79.0926	1	10	0.00480643	0.000385508	0	6.96903e-05	0.000269422	4.0671e-06	-29.6641	0.01055	0.00916731	0.00522133	-38.2935	12.4782	9.7935	7.73263	0.0629436	0.0497112	0.0802067	38.3008	79092.6	100146	127612	-51.6992	0.0000000E+000	0.0000000E+000	0.0000000E+000	51.6992	0.0000000E+000	0.0000000E+000	0.0000000E+000	-51.6992	0.0000000E+000	0.0000000E+000	0.0000000E+000	-38.3008	0.0000000E+000	0.0000000E+000	0.0000000E+000	38.3008	1.26619	51.6992	-9.48966e-07	-2.5995e-06	-2.78856e-09	-2.59671e-06	0.250886	24265.8	26.0307	24239.8
31.6296	17.853	8.28448	19.6815	-24.8931	11.0966	0.251179	-0.00192977	607.381	107.616	1	11	0.00481633	0.000244713	0	6.63127e-05	0.000326654	7.31945e-06	65.8839	0.0299103	0.012221	-0.0272997	-24.8061	19.6811	17.8652	8.25718	0.0460886	0.0213869	0.0508091	24.8931	107616	231911	255663	-65.1069	0.0000000E+000	0.0000000E+000	0.0000000E+000	65.1069	0.0000000E+000	0.0000000E+000	0.0000000E+000	-65.1069	0.0000000E+000	0.0000000E+000	0.0000000E+000	-24.8931	0.0000000E+000	0.0000000E+000	0.0000000E+000	24.8931	2.15499	65.1069	-1.02832e-06	-4.84718e-07	-6.30368e-10	-4.84087e-07	0.250852	130160	169.271	129990
10.0032	23.3453	5.68771	24.0282	-13.6925	12.4288	0.251173	-0.00245335	2797.33	156.739	1	11	0.0048023	0.000199861	0	6.66685e-05	0.000116803	2.34473e-06	6.32081	0.0117318	0.0116604	-0.00129161	-13.6829	24.0392	23.357	5.68642	0.040435	0.00985136	0.0416178	13.6925	156739	643338	662156	-76.3075	0.0000000E+000	0.0000000E+000	0.0000000E+000	76.3075	0.0000000E+000	0.0000000E+000	0.0000000E+000	-76.3075	0.0000000E+000	0.0000000E+000	0.0000000E+000	-13.6925	0.0000000E+000	0.0000000E+000	0.0000000E+000	13.6925	4.10451	76.3075	1.32985e-06	-6.16216e-07	-2.8656e-10	-6.15929e-07	0.251056	102379	47.6097	102332
3.1604	26.2929	3.85757	26.5744	-8.3466	13.9454	0.251187	-0.00103082	13054.6	275.084	1	11	0.0048056	0.000180836	0	6.61916e-05	0.00021219	7.07022e-06	-0.991136	0.0390975	0.0390917	0.000676298	-8.33582	26.6132	26.332	3.85824	0.0372316	0.00546243	0.0376302	8.3466	275084	1.87495e+06	1.89502e+06	-81.6534	0.0000000E+000	0.0000000E+000	0.0000000E+000	81.6534	0.0000000E+000	0.0000000E+000	0.0000000E+000	-81.6534	0.0000000E+000	0.0000000E+000	0.0000000E+000	-8.3466	0.0000000E+000	0.0000000E+000	0.0000000E+000	8.3466	6.81594	81.6534	1.99689e-06	-2.58928e-07	-2.1873e-10	-2.58709e-07	0.250974	243676	205.846	243471
1.00006	28.3477	3.17151	28.5246	-6.38363	19.5846	0.251189	-0.00090103	50179.6	620.324	1	12	0.00480936	0.000168604	0	6.31317e-05	0.000250345	3.78846e-06	10.2209	0.0224696	0.022113	-0.00398709	-6.37074	28.5461	28.3699	3.16752	0.0348401	0.00389786	0.0350575	6.38363	620324	5.54462e+06	5.57921e+06	-83.6164	0.0000000E+000	0.0000000E+000	0.0000000E+000	83.6164	0.0000000E+000	0.0000000E+000	0.0000000E+000	-83.6164	0.0000000E+000	0.0000000E+000	0.0000000E+000	-6.38363	0.0000000E+000	0.0000000E+000	0.0000000E+000	6.38363	8.93826	83.6164	-5.3539e-06	-2.26329e-07	-2.25568e-10	-2.26103e-07	0.250939	278780	277.843	278502
0.316193	30.2678	3.4604	30.465	-6.52209	33.9259	0.251196	-0.00289049	145459	1876.69	1	12	0.00481041	0.0001579	0	4.79822e-05	0.00021219	1.67429e-06	4.48722	0.0106035	0.010571	-0.000829582	-6.51828	30.4754	30.2784	3.45957	0.0326122	0.00372842	0.0328246	6.52209	1.87669e+06	1.64152e+07	1.65222e+07	-83.4779	0.0000000E+000	0.0000000E+000	0.0000000E+000	83.4779	0.0000000E+000	0.0000000E+000	0.0000000E+000	-83.4779	0.0000000E+000	0.0000000E+000	0.0000000E+000	-6.52209	0.0000000E+000	0.0000000E+000	0.0000000E+000	6.52209	8.74691	83.4779	-6.73783e-07	-7.2608e-07	-6.13333e-10	-7.25467e-07	0.250984	86904.3	73.4097	86830.9
0.0999041	32.7563	5.03352	33.1408	-8.73606	79.1339	0.251194	-0.00406152	316494	7301.02	1	12	0.00481043	0.000145151	0	7.62666e-05	-1.67377e-05	2.99355e-06	-26.3359	0.0206237	0.0184831	0.00914933	-8.74684	33.1604	32.7748	5.04266	0.0298243	0.00458297	0.0301743	8.73606	7.30102e+06	4.75124e+07	4.807e+07	-81.2639	0.0000000E+000	0.0000000E+000	0.0000000E+000	81.2639	0.0000000E+000	0.0000000E+000	0.0000000E+000	-81.2639	0.0000000E+000	0.0000000E+000	0.0000000E+000	-8.73606	0.0000000E+000	0.0000000E+000	0.0000000E+000	8.73606	6.50763	81.2639	5.66664e-06	-1.02023e-06	6.79803e-11	-1.0203e-06	0.251211	61847.3	4.12104	61851.4
0.0315922	36.4174	8.55158	37.408	-13.2149	222.017	0.251187	-0.00680745	589106	30786.4	1	12	0.00481035	0.000128592	0	-0.000285229	7.86489e-05	2.1045e-06	-20.8593	0.0163657	0.0152931	0.00582743	-13.2182	37.4242	36.4327	8.55741	0.0260244	0.00611109	0.0267323	13.2149	3.07864e+07	1.31106e+08	1.34672e+08	-76.7851	0.0000000E+000	0.0000000E+000	0.0000000E+000	76.7851	0.0000000E+000	0.0000000E+000	0.0000000E+000	-76.7851	0.0000000E+000	0.0000000E+000	0.0000000E+000	-13.2149	0.0000000E+000	0.0000000E+000	0.0000000E+000	13.2149	4.25855	76.7851	-0.000228555	-1.70994e-06	-5.35398e-10	-1.70941e-06	0.251109	36898.9	11.5534	36887.3
0.0100092	42.8902	16.1437	45.8278	-20.6261	673.238	0.25119	-0.0111226	984962	122227	1	12	0.00480804	0.000104915	0	-0.00175391	2.33964e-06	1.03875e-06	45.9182	0.00990082	0.00688784	-0.00711223	-20.6148	45.8318	42.8971	16.1366	0.0204221	0.00768677	0.0218208	20.6261	1.22227e+08	3.2473e+08	3.46971e+08	-69.3739	0.0000000E+000	0.0000000E+000	0.0000000E+000	69.3739	0.0000000E+000	0.0000000E+000	0.0000000E+000	-69.3739	0.0000000E+000	0.0000000E+000	0.0000000E+000	-20.6261	0.0000000E+000	0.0000000E+000	0.0000000E+000	20.6261	2.65678	69.3739	-0.000591307	-2.79387e-06	-2.60228e-11	-2.79384e-06	0.251187	22583.8	0.210351	22583.6