File: txt/18348_R257_UA646_SOC00_C03.mpt
EC-Lab ASCII FILE
Nb header lines : 65

Potentio Electrochemical Impedance Spectroscopy

Run on channel : 3 (SN 65921)
User :
CE vs. WE compliance from -10 V to 10 V
Electrode connection : standard
Potential control : Ewe
Ewe ctrl range : min = -10.00 V, max = 10.00 V
Safety Limits :
	Do not start on E overload
Acquisition started on : 10/13/2025 14:39:47.632
Technique started on : 10/13/2025 14:39:49.359
Loaded Setting File :  C:\Users\Celltest\OneDrive - store-dot.com\Documents\EC-Lab\Data\@Biologic Test Protocols\anode half cell EIS SOC00.mps
Saved on :
	File : 18348_R257_UA646_SOC00_C03.mpr
	Directory : C:\Users\Celltest\OneDrive - store-dot.com\Documents\EC-Lab\Data\John\
	Host : 169.254.61.224
Device : VMP-3e (SN .003165)
Address : USB
EC-LAB for windows v11.62 (software)
Internet server v27.00 (firmware)
Command interpretor v12.03 (firmware)
Electrode material :
Initial state :
Electrolyte :
Comments :
Electrode surface area : 0.001 cm²
Characteristic mass : 0.001 g
Equivalent Weight : 0.000 g/eq.
Density : 0.000 g/cm3
Volume (V) : 0.001 cm³
Record Ece
Cycle Definition : Charge/Discharge alternance
Mode                Single sine
E (V)               0.0000
vs.                 Eoc
tE (h:m:s)          0:00:0.0000
record              0
dI                  0.000
unit dI             mA
dt (s)              0.000
fi                  100.000
unit fi             kHz
ff                  10.000
unit ff             mHz
Nd                  6
Points              per decade
spacing             Logarithmic
Va (mV)             5.0
pw                  0.10
Na                  2
corr                0
E range min (V)     -10.000
E range max (V)     10.000
I Range             Auto
Bandwidth           5
nc cycles           0
goto Ns'            0
nr cycles           0
inc. cycle          0

freq/Hz	Re(Z)/Ohm	-Im(Z)/Ohm	|Z|/Ohm	Phase(Z)/deg	time/s	<Ewe>/V	<I>/mA	Cs/µF	Cp/µF	cycle number	I Range	|Ewe|/V	|I|/A	Ns	(Q-Qo)/mA.h	<Ece>/V	|Ece|/V	Phase(Zce)/deg	|Zce|/Ohm	Re(Zce)/Ohm	-Im(Zce)/Ohm	Phase(Zwe-ce)/deg	|Zwe-ce|/Ohm	Re(Zwe-ce)/Ohm	-Im(Zwe-ce)/Ohm	Re(Y)/Ohm-1	Im(Y)/Ohm-1	|Y|/Ohm-1	Phase(Y)/deg	Re(C)/nF	Im(C)/nF	|C|/nF	Phase(C)/deg	Re(M)	Im(M)	|M|	Phase(M)/deg	Re(Permittivity)	Im(Permittivity)	|Permittivity|	Phase(Permittivity)/deg	Re(Resistivity)/Ohm.cm	Im(Resistivity)/Ohm.cm	|Resistivity|/Ohm.cm	Phase(Resistivity)/deg	Re(Conductivity)/mS/cm	Im(Conductivity)/mS/cm	|Conductivity|/mS/cm	Phase(Conductivity)/deg	Tan(Delta)	Loss Angle(Delta)/deg	dq/mA.h	Pwe/W	Pce/W	Pwe-ce/W	<Ewe-Ece>/V	Rwe/Ohm	Rce/Ohm	Rwe-ce/Ohm		Ewe-Ece/V
100004	1.34407	0.513532	1.43883	-20.9105	1.72655	0.251289	0.0106223	3.09911	0.394777	1	9	0.00472939	0.00328696	0	-3.70046e-06	-0.000137797	3.29042e-05	98.5827	0.0100105	-0.00149394	-0.00989841	-20.5623	1.43393	1.34257	0.503633	0.649235	0.248055	0.695009	20.9105	394.777	1033.25	1106.1	-69.0895	0.0000000E+000	0.0000000E+000	0.0000000E+000	69.0895	0.0000000E+000	0.0000000E+000	0.0000000E+000	-69.0895	0.0000000E+000	0.0000000E+000	0.0000000E+000	-20.9105	0.0000000E+000	0.0000000E+000	0.0000000E+000	20.9105	2.6173	69.0895	-3.70046e-06	2.66926e-06	-1.46372e-09	2.67073e-06	0.251427	23656.8	12.9725	23669.7
31621.1	1.8086	0.755777	1.96016	-22.6791	3.24953	0.251283	0.00957805	6.65961	0.990042	1	9	0.00508879	0.00259611	0	3.86161e-05	-9.96091e-05	1.37554e-05	-0.535354	0.00529846	0.00529823	4.95065e-05	-22.6209	1.96507	1.8139	0.755827	0.470716	0.196703	0.510163	22.6791	990.042	2369.2	2567.74	-67.3209	0.0000000E+000	0.0000000E+000	0.0000000E+000	67.3209	0.0000000E+000	0.0000000E+000	0.0000000E+000	-67.3209	0.0000000E+000	0.0000000E+000	0.0000000E+000	-22.6791	0.0000000E+000	0.0000000E+000	0.0000000E+000	22.6791	2.39303	67.3209	1.72646e-05	2.4068e-06	-9.54061e-10	2.40776e-06	0.251383	26235.3	10.3997	26245.7
10002.2	2.4237	1.02657	2.63215	-22.9553	4.27652	0.251277	0.0045061	15.5001	2.35772	1	9	0.00494966	0.00188047	0	3.72803e-05	0.000301366	5.24789e-06	10.2222	0.00279074	0.00274644	-0.000495264	-22.9221	2.63448	2.42645	1.02607	0.349832	0.148173	0.379918	22.9553	2357.72	5566.52	6045.24	-67.0447	0.0000000E+000	0.0000000E+000	0.0000000E+000	67.0447	0.0000000E+000	0.0000000E+000	0.0000000E+000	-67.0447	0.0000000E+000	0.0000000E+000	0.0000000E+000	-22.9553	0.0000000E+000	0.0000000E+000	0.0000000E+000	22.9553	2.36097	67.0447	9.27828e-07	1.13228e-06	1.35799e-09	1.13092e-06	0.250975	55763.7	66.8797	55696.9
3163.08	3.20554	1.4847	3.53268	-24.852	5.17362	0.251047	-0.0307736	33.89	5.98604	1	9	0.00453943	0.00128498	0	3.39734e-05	1.49552e-05	7.13692e-06	-22.5967	0.00555409	0.00512772	0.00213411	-24.8484	3.53823	3.21067	1.48683	0.256858	0.118968	0.283071	24.852	5986.04	12924.2	14243.1	-65.148	0.0000000E+000	0.0000000E+000	0.0000000E+000	65.148	0.0000000E+000	0.0000000E+000	0.0000000E+000	-65.148	0.0000000E+000	0.0000000E+000	0.0000000E+000	-24.852	0.0000000E+000	0.0000000E+000	0.0000000E+000	24.852	2.15905	65.148	-2.48976e-06	-7.72562e-06	-4.60228e-10	-7.72516e-06	0.251032	8157.84	0.485976	8157.36
1000.32	4.18659	2.35018	4.80114	-29.3081	6.77283	0.251221	-0.015606	67.6985	16.2216	1	10	0.00457724	0.000953367	0	3.45735e-05	0.00012952	2.269e-05	49.918	0.0237998	0.0153243	-0.0182098	-29.0293	4.80564	4.20191	2.33197	0.181624	0.101956	0.208284	29.3081	16221.6	28897.1	33138.8	-60.6919	0.0000000E+000	0.0000000E+000	0.0000000E+000	60.6919	0.0000000E+000	0.0000000E+000	0.0000000E+000	-60.6919	0.0000000E+000	0.0000000E+000	0.0000000E+000	-29.3081	0.0000000E+000	0.0000000E+000	0.0000000E+000	29.3081	1.78139	60.6919	-2.54178e-06	-3.92055e-06	-2.02128e-09	-3.91853e-06	0.251091	16097.7	8.29935	16089.4
316.316	5.82243	4.53288	7.37887	-37.9015	8.33804	0.251227	-0.016527	111	41.8884	1	10	0.0048697	0.000659952	0	2.86469e-05	9.13315e-05	1.13989e-05	-32.7124	0.0172724	0.0145329	0.00933437	-37.8894	7.39607	5.83697	4.54221	0.106936	0.083252	0.135522	37.9015	41888.4	53805.2	68188.2	-52.0985	0.0000000E+000	0.0000000E+000	0.0000000E+000	52.0985	0.0000000E+000	0.0000000E+000	0.0000000E+000	-52.0985	0.0000000E+000	0.0000000E+000	0.0000000E+000	-37.9015	0.0000000E+000	0.0000000E+000	0.0000000E+000	37.9015	1.28449	52.0985	-1.36958e-06	-4.15204e-06	-1.50944e-09	-4.15054e-06	0.251136	15201	5.52619	15195.5
100.032	10.5061	8.50054	13.5143	-38.9766	9.68581	0.251205	-0.0165121	187.169	74.0524	1	10	0.00485583	0.00035931	0	2.24622e-05	-4.13882e-06	1.30306e-05	80.8483	0.0362657	0.00576802	-0.0358041	-38.843	13.4963	10.5118	8.46473	0.0575244	0.0465434	0.0739956	38.9766	74052.4	91523.7	117730	-51.0234	0.0000000E+000	0.0000000E+000	0.0000000E+000	51.0234	0.0000000E+000	0.0000000E+000	0.0000000E+000	-51.0234	0.0000000E+000	0.0000000E+000	0.0000000E+000	-38.9766	0.0000000E+000	0.0000000E+000	0.0000000E+000	38.9766	1.23593	51.0234	-1.65073e-06	-4.14793e-06	6.83407e-11	-4.148e-06	0.251209	15213.4	0.250653	15213.6
31.6296	19.5632	9.97726	21.9606	-27.0216	11.2545	0.251245	-0.0102366	504.331	104.1	1	11	0.00485882	0.000221252	0	1.73087e-05	-8.05151e-05	1.19185e-05	31.2153	0.0538684	0.0460696	-0.0279176	-26.9023	21.989	19.6093	9.94935	0.0405652	0.0206883	0.0455362	27.0216	104100	204118	229131	-62.9784	0.0000000E+000	0.0000000E+000	0.0000000E+000	62.9784	0.0000000E+000	0.0000000E+000	0.0000000E+000	-62.9784	0.0000000E+000	0.0000000E+000	0.0000000E+000	-27.0216	0.0000000E+000	0.0000000E+000	0.0000000E+000	27.0216	1.96078	62.9784	-1.22787e-06	-2.57189e-06	8.242e-10	-2.57271e-06	0.251325	24543.8	7.86542	24551.7
10.0032	26.7466	7.32711	27.7321	-15.3201	12.5868	0.251254	-0.00983945	2171.44	151.583	1	11	0.00484864	0.000174839	0	1.46814e-05	-0.000156891	6.26322e-06	113.674	0.0358229	-0.0143839	-0.0328082	-15.2625	27.7095	26.7322	7.2943	0.034778	0.00952727	0.0360593	15.3201	151583	553332	573719	-74.6799	0.0000000E+000	0.0000000E+000	0.0000000E+000	74.6799	0.0000000E+000	0.0000000E+000	0.0000000E+000	-74.6799	0.0000000E+000	0.0000000E+000	0.0000000E+000	-15.3201	0.0000000E+000	0.0000000E+000	0.0000000E+000	15.3201	3.65036	74.6799	-1.0776e-06	-2.47221e-06	1.54372e-09	-2.47375e-06	0.251411	25535.4	15.9451	25551.3
3.1604	30.7596	4.97494	31.1593	-9.18724	14.1035	0.251244	-0.00936139	10122.6	258.042	1	11	0.00484976	0.000155644	0	9.01349e-06	3.40493e-05	4.39783e-06	20.9679	0.0282557	0.0263847	-0.0101112	-9.16116	31.1837	30.786	4.96483	0.0316815	0.00512404	0.0320932	9.18724	258042	1.59545e+06	1.61618e+06	-80.8128	0.0000000E+000	0.0000000E+000	0.0000000E+000	80.8128	0.0000000E+000	0.0000000E+000	0.0000000E+000	-80.8128	0.0000000E+000	0.0000000E+000	0.0000000E+000	-9.18724	0.0000000E+000	0.0000000E+000	0.0000000E+000	9.18724	6.18291	80.8128	-2.389e-06	-2.35199e-06	-3.18749e-10	-2.35167e-06	0.25121	26838.3	3.63721	26834.7
1.00006	33.3953	4.0003	33.634	-6.8307	19.7426	0.251251	-0.00827404	39783.2	562.765	1	12	0.00484744	0.000144123	0	3.13941e-06	-6.1421e-05	4.10629e-06	6.81798	0.0284915	0.0282901	-0.00338239	-6.81926	33.6617	33.4236	3.99691	0.0295208	0.00353618	0.0297318	6.8307	562765	4.69807e+06	4.73166e+06	-83.1693	0.0000000E+000	0.0000000E+000	0.0000000E+000	83.1693	0.0000000E+000	0.0000000E+000	0.0000000E+000	-83.1693	0.0000000E+000	0.0000000E+000	0.0000000E+000	-6.8307	0.0000000E+000	0.0000000E+000	0.0000000E+000	6.8307	8.3482	83.1693	-5.46228e-06	-2.07886e-06	5.082e-10	-2.07937e-06	0.251312	30366.2	7.42334	30373.6
0.316193	35.7438	4.03363	35.9707	-6.43849	34.0831	0.251252	-0.007957	124788	1569.15	1	12	0.00484896	0.000134803	0	-5.10678e-05	0.000110426	9.54677e-07	40.8	0.00708201	0.00536105	-0.00462753	-6.43021	35.9755	35.7492	4.029	0.027625	0.00311744	0.0278004	6.43849	1.56915e+06	1.3905e+07	1.39933e+07	-83.5615	0.0000000E+000	0.0000000E+000	0.0000000E+000	83.5615	0.0000000E+000	0.0000000E+000	0.0000000E+000	-83.5615	0.0000000E+000	0.0000000E+000	0.0000000E+000	-6.43849	0.0000000E+000	0.0000000E+000	0.0000000E+000	6.43849	8.86145	83.5615	-2.55369e-05	-1.99921e-06	-8.78657e-10	-1.99834e-06	0.251142	31576.2	13.8778	31562.4
0.0999041	38.4188	5.77258	38.85	-8.54501	79.292	0.251252	-0.00892974	275973	6092.91	1	12	0.00484854	0.000124801	0	-0.000127698	0.00012952	3.62608e-06	13.746	0.0290548	0.0282226	-0.00690393	-8.52877	38.8769	38.447	5.76567	0.0254543	0.00382461	0.02574	8.54501	6.0929e+06	4.05507e+07	4.10058e+07	-81.455	0.0000000E+000	0.0000000E+000	0.0000000E+000	81.455	0.0000000E+000	0.0000000E+000	0.0000000E+000	-81.455	0.0000000E+000	0.0000000E+000	0.0000000E+000	-8.54501	0.0000000E+000	0.0000000E+000	0.0000000E+000	8.54501	6.65539	81.455	-2.12884e-05	-2.24361e-06	-1.15658e-09	-2.24246e-06	0.251122	28136.5	14.5043	28122
0.0315922	42.94	9.31281	43.9383	-12.2368	222.176	0.251251	-0.00890787	540953	24301.6	1	12	0.00484864	0.000110351	0	-0.000362949	-9.96091e-05	2.81466e-06	-4.77735	0.0255064	0.0254177	0.00212427	-12.2325	43.9636	42.9654	9.31493	0.0222421	0.00482386	0.0227592	12.2368	2.43016e+07	1.12051e+08	1.14656e+08	-77.7632	0.0000000E+000	0.0000000E+000	0.0000000E+000	77.7632	0.0000000E+000	0.0000000E+000	0.0000000E+000	-77.7632	0.0000000E+000	0.0000000E+000	0.0000000E+000	-12.2368	0.0000000E+000	0.0000000E+000	0.0000000E+000	12.2368	4.61086	77.7632	-0.000149438	-2.23811e-06	8.87305e-10	-2.239e-06	0.251351	28205.5	11.1822	28216.7
0.0100092	49.6859	16.4708	52.3448	-18.3403	673.396	0.25125	-0.011584	965399	95585	1	12	0.00484617	9.25815e-05	0	-0.00218696	0.00022499	2.67796e-06	92.6793	0.0289254	-0.00135214	-0.0288938	-18.3107	52.3345	49.6846	16.4419	0.0181337	0.00601129	0.0191041	18.3403	9.5585e+07	2.88342e+08	3.03772e+08	-71.6597	0.0000000E+000	0.0000000E+000	0.0000000E+000	71.6597	0.0000000E+000	0.0000000E+000	0.0000000E+000	-71.6597	0.0000000E+000	0.0000000E+000	0.0000000E+000	-18.3403	0.0000000E+000	0.0000000E+000	0.0000000E+000	18.3403	3.01661	71.6597	-0.000914973	-2.91047e-06	-2.60627e-09	-2.90786e-06	0.251025	21689.5	19.4226	21670.1