File: txt/18349_R257_UA646_SOC00_C04.mpt
EC-Lab ASCII FILE
Nb header lines : 65

Potentio Electrochemical Impedance Spectroscopy

Run on channel : 4 (SN 66756)
User :
CE vs. WE compliance from -10 V to 10 V
Electrode connection : standard
Potential control : Ewe
Ewe ctrl range : min = -10.00 V, max = 10.00 V
Safety Limits :
	Do not start on E overload
Acquisition started on : 10/13/2025 14:39:56.984
Technique started on : 10/13/2025 14:39:58.896
Loaded Setting File :  C:\Users\Celltest\OneDrive - store-dot.com\Documents\EC-Lab\Data\@Biologic Test Protocols\anode half cell EIS SOC00.mps
Saved on :
	File : 18349_R257_UA646_SOC00_C04.mpr
	Directory : C:\Users\Celltest\OneDrive - store-dot.com\Documents\EC-Lab\Data\John\
	Host : 169.254.61.224
Device : VMP-3e (SN .003165)
Address : USB
EC-LAB for windows v11.62 (software)
Internet server v27.00 (firmware)
Command interpretor v12.03 (firmware)
Electrode material :
Initial state :
Electrolyte :
Comments :
Electrode surface area : 0.001 cm²
Characteristic mass : 0.001 g
Equivalent Weight : 0.000 g/eq.
Density : 0.000 g/cm3
Volume (V) : 0.001 cm³
Record Ece
Cycle Definition : Charge/Discharge alternance
Mode                Single sine
E (V)               0.0000
vs.                 Eoc
tE (h:m:s)          0:00:0.0000
record              0
dI                  0.000
unit dI             mA
dt (s)              0.000
fi                  100.000
unit fi             kHz
ff                  10.000
unit ff             mHz
Nd                  6
Points              per decade
spacing             Logarithmic
Va (mV)             5.0
pw                  0.10
Na                  2
corr                0
E range min (V)     -10.000
E range max (V)     10.000
I Range             Auto
Bandwidth           5
nc cycles           0
goto Ns'            0
nr cycles           0
inc. cycle          0

freq/Hz	Re(Z)/Ohm	-Im(Z)/Ohm	|Z|/Ohm	Phase(Z)/deg	time/s	<Ewe>/V	<I>/mA	Cs/µF	Cp/µF	cycle number	I Range	|Ewe|/V	|I|/A	Ns	(Q-Qo)/mA.h	<Ece>/V	|Ece|/V	Phase(Zce)/deg	|Zce|/Ohm	Re(Zce)/Ohm	-Im(Zce)/Ohm	Phase(Zwe-ce)/deg	|Zwe-ce|/Ohm	Re(Zwe-ce)/Ohm	-Im(Zwe-ce)/Ohm	Re(Y)/Ohm-1	Im(Y)/Ohm-1	|Y|/Ohm-1	Phase(Y)/deg	Re(C)/nF	Im(C)/nF	|C|/nF	Phase(C)/deg	Re(M)	Im(M)	|M|	Phase(M)/deg	Re(Permittivity)	Im(Permittivity)	|Permittivity|	Phase(Permittivity)/deg	Re(Resistivity)/Ohm.cm	Im(Resistivity)/Ohm.cm	|Resistivity|/Ohm.cm	Phase(Resistivity)/deg	Re(Conductivity)/mS/cm	Im(Conductivity)/mS/cm	|Conductivity|/mS/cm	Phase(Conductivity)/deg	Tan(Delta)	Loss Angle(Delta)/deg	dq/mA.h	Pwe/W	Pce/W	Pwe-ce/W	<Ewe-Ece>/V	Rwe/Ohm	Rce/Ohm	Rwe-ce/Ohm		Ewe-Ece/V
100004	1.26907	0.473737	1.35461	-20.4704	1.91155	0.250386	-0.0257204	3.35944	0.410881	1	9	0.00459558	0.00339256	0	-7.66578e-06	-0.000263931	4.15955e-05	82.4847	0.0122608	0.0016036	-0.0121555	-19.964	1.35191	1.27067	0.461582	0.691606	0.258174	0.738223	20.4704	410.881	1100.68	1174.87	-69.5296	0.0000000E+000	0.0000000E+000	0.0000000E+000	69.5296	0.0000000E+000	0.0000000E+000	0.0000000E+000	-69.5296	0.0000000E+000	0.0000000E+000	0.0000000E+000	-20.4704	0.0000000E+000	0.0000000E+000	0.0000000E+000	20.4704	2.67884	69.5296	-7.66578e-06	-6.44003e-06	6.78842e-09	-6.44682e-06	0.25065	9734.91	10.2615	9745.17
31621.1	1.70096	0.679253	1.83157	-21.7685	3.18452	0.250382	-0.0233334	7.40987	1.01912	1	9	0.00539772	0.00294704	0	-6.07347e-06	-5.37216e-05	2.0412e-05	22.4359	0.00692626	0.00640199	-0.0026434	-21.6179	1.83655	1.70737	0.67661	0.507044	0.20248	0.545978	21.7685	1019.12	2552.05	2748.01	-68.2315	0.0000000E+000	0.0000000E+000	0.0000000E+000	68.2315	0.0000000E+000	0.0000000E+000	0.0000000E+000	-68.2315	0.0000000E+000	0.0000000E+000	0.0000000E+000	-21.7685	0.0000000E+000	0.0000000E+000	0.0000000E+000	21.7685	2.50417	68.2315	3.39548e-06	-5.84227e-06	1.25351e-09	-5.84352e-06	0.250436	10730.6	2.30235	10732.9
10002.2	2.22896	0.926204	2.41374	-22.5644	4.33356	0.250379	-0.0291145	17.1797	2.52959	1	9	0.00504361	0.00208954	0	-4.62621e-06	-0.000263931	7.62536e-06	-124.057	0.00364929	-0.00204364	0.00302339	-22.6494	2.41301	2.22692	0.929228	0.382581	0.158974	0.414295	22.5644	2529.59	6087.6	6592.25	-67.4356	0.0000000E+000	0.0000000E+000	0.0000000E+000	67.4356	0.0000000E+000	0.0000000E+000	0.0000000E+000	-67.4356	0.0000000E+000	0.0000000E+000	0.0000000E+000	-22.5644	0.0000000E+000	0.0000000E+000	0.0000000E+000	22.5644	2.40655	67.4356	-5.42308e-06	-7.28967e-06	7.68422e-09	-7.29735e-06	0.250643	8599.81	9.06528	8608.87
3163.08	2.90379	1.31973	3.18962	-24.4412	5.23467	0.250271	-0.0547005	38.1262	6.52708	1	9	0.00510801	0.00160145	0	-1.41399e-05	9.9158e-05	5.16688e-06	41.4011	0.00322638	0.0024201	-0.00213369	-24.3883	3.19094	2.90621	1.3176	0.285422	0.129721	0.313517	24.4412	6527.08	14361.4	15775.1	-65.5588	0.0000000E+000	0.0000000E+000	0.0000000E+000	65.5588	0.0000000E+000	0.0000000E+000	0.0000000E+000	-65.5588	0.0000000E+000	0.0000000E+000	0.0000000E+000	-24.4412	0.0000000E+000	0.0000000E+000	0.0000000E+000	24.4412	2.20028	65.5588	-6.80733e-06	-1.369e-05	-5.42399e-09	-1.36845e-05	0.250172	4575.31	1.81275	4573.49
1000.32	3.82458	2.11777	4.37177	-28.9744	6.83478	0.25032	-0.0211971	75.1282	17.6297	1	10	0.00501742	0.00114769	0	-2.66696e-05	8.00481e-05	8.85719e-06	-118.845	0.00771744	-0.00372317	0.00675994	-29.0755	4.37179	3.82086	2.12453	0.20011	0.110806	0.22874	28.9744	17629.7	31838.3	36393.5	-61.0256	0.0000000E+000	0.0000000E+000	0.0000000E+000	61.0256	0.0000000E+000	0.0000000E+000	0.0000000E+000	-61.0256	0.0000000E+000	0.0000000E+000	0.0000000E+000	-28.9744	0.0000000E+000	0.0000000E+000	0.0000000E+000	28.9744	1.80595	61.0256	-1.86483e-06	-5.30605e-06	-1.69679e-09	-5.30435e-06	0.25024	11809.2	3.77637	11805.4
316.316	5.35472	4.08294	6.73375	-37.3253	8.18506	0.250325	-0.021365	123.233	45.3063	1	10	0.00490207	0.000727986	0	-3.39039e-05	-0.000359481	1.11592e-05	-16.8871	0.0153289	0.0146679	0.00445283	-37.2799	6.74811	5.36938	4.08739	0.118093	0.0900449	0.148506	37.3253	45306.3	59418.5	74720.9	-52.6747	0.0000000E+000	0.0000000E+000	0.0000000E+000	52.6747	0.0000000E+000	0.0000000E+000	0.0000000E+000	-52.6747	0.0000000E+000	0.0000000E+000	0.0000000E+000	-37.3253	0.0000000E+000	0.0000000E+000	0.0000000E+000	37.3253	1.31149	52.6747	-2.23792e-06	-5.34819e-06	7.6803e-09	-5.35587e-06	0.250685	11716.6	16.8257	11733.4
100.032	9.66549	7.38617	12.1646	-37.3863	9.53285	0.250308	-0.0214657	215.408	79.4155	1	10	0.00487233	0.000400534	0	-4.09905e-05	-0.000149271	1.04356e-05	12.1631	0.0260543	0.0254694	-0.00548953	-37.2931	12.1815	9.69096	7.38069	0.0653174	0.0499142	0.0822058	37.3863	79415.5	103923	130793	-52.6137	0.0000000E+000	0.0000000E+000	0.0000000E+000	52.6137	0.0000000E+000	0.0000000E+000	0.0000000E+000	-52.6137	0.0000000E+000	0.0000000E+000	0.0000000E+000	-37.3863	0.0000000E+000	0.0000000E+000	0.0000000E+000	37.3863	1.30859	52.6137	-2.7121e-06	-5.37303e-06	3.20421e-09	-5.37623e-06	0.250457	11660.8	6.95395	11667.8
31.6296	17.3354	8.01498	19.0986	-24.8134	11.0966	0.250329	-0.00934471	627.805	110.568	1	11	0.00486582	0.000254774	0	-4.8603e-05	-0.000149271	1.13827e-05	41.0117	0.0446774	0.0337125	-0.0293179	-24.6912	19.1169	17.3691	7.98566	0.0475261	0.0219736	0.05236	24.8134	110568	239144	263467	-65.1866	0.0000000E+000	0.0000000E+000	0.0000000E+000	65.1866	0.0000000E+000	0.0000000E+000	0.0000000E+000	-65.1866	0.0000000E+000	0.0000000E+000	0.0000000E+000	-24.8134	0.0000000E+000	0.0000000E+000	0.0000000E+000	24.8134	2.16287	65.1866	-2.39236e-06	-2.33925e-06	1.3949e-09	-2.34065e-06	0.250478	26788.3	15.9739	26804.3
10.0032	22.7781	5.55074	23.4446	-13.6954	12.4278	0.250335	-0.00918541	2866.36	160.674	1	11	0.00486258	0.000207407	0	-5.05585e-05	-3.46116e-05	5.62289e-06	37.3983	0.0271104	0.0215374	-0.0164656	-13.6438	23.4617	22.7996	5.53427	0.0414409	0.0100987	0.0426537	13.6954	160674	659342	678637	-76.3046	0.0000000E+000	0.0000000E+000	0.0000000E+000	76.3046	0.0000000E+000	0.0000000E+000	0.0000000E+000	-76.3046	0.0000000E+000	0.0000000E+000	0.0000000E+000	-13.6954	0.0000000E+000	0.0000000E+000	0.0000000E+000	13.6954	4.10361	76.3046	-1.21216e-07	-2.29943e-06	3.17922e-10	-2.29975e-06	0.25037	27253.6	3.76811	27257.3
3.1604	25.7241	3.74298	25.995	-8.2787	13.9444	0.250346	-0.0083859	13454.3	278.943	1	11	0.00486453	0.000187133	0	-5.55118e-05	8.00481e-05	7.49124e-06	3.26024	0.0400316	0.0399668	-0.00227665	-8.26107	26.0342	25.7641	3.7407	0.038068	0.00553907	0.0384689	8.2787	278943	1.91708e+06	1.93726e+06	-81.7213	0.0000000E+000	0.0000000E+000	0.0000000E+000	81.7213	0.0000000E+000	0.0000000E+000	0.0000000E+000	-81.7213	0.0000000E+000	0.0000000E+000	0.0000000E+000	-8.2787	0.0000000E+000	0.0000000E+000	0.0000000E+000	8.2787	6.87264	81.7213	-9.13317e-07	-2.09938e-06	-6.71275e-10	-2.0987e-06	0.250266	29853.2	9.54556	29843.7
1.00006	27.6298	2.98631	27.7908	-6.16875	19.584	0.250346	-0.00668524	53291.4	615.357	1	12	0.00486268	0.000174975	0	-6.18918e-05	-0.000149271	1.91623e-06	72.3283	0.0109515	0.00332447	-0.0104347	-6.14662	27.7929	27.6332	2.97588	0.0357748	0.00386665	0.0359832	6.16875	615357	5.69338e+06	5.72654e+06	-83.8313	0.0000000E+000	0.0000000E+000	0.0000000E+000	83.8313	0.0000000E+000	0.0000000E+000	0.0000000E+000	-83.8313	0.0000000E+000	0.0000000E+000	0.0000000E+000	-6.16875	0.0000000E+000	0.0000000E+000	0.0000000E+000	6.16875	9.25216	83.8313	-7.24907e-06	-1.67362e-06	9.97915e-10	-1.67462e-06	0.250495	37447.5	22.3285	37469.8
0.316193	29.3883	3.24464	29.5669	-6.30028	33.926	0.250359	-0.00699152	155132	1868.2	1	12	0.00486473	0.000164533	0	-0.000112763	2.27182e-05	4.27388e-06	-27.842	0.0259758	0.0229688	0.0121316	-6.31874	29.591	29.4113	3.25677	0.0336174	0.00371156	0.0338216	6.30028	1.8682e+06	1.69212e+07	1.7024e+07	-83.6997	0.0000000E+000	0.0000000E+000	0.0000000E+000	83.6997	0.0000000E+000	0.0000000E+000	0.0000000E+000	-83.6997	0.0000000E+000	0.0000000E+000	0.0000000E+000	-6.30028	0.0000000E+000	0.0000000E+000	0.0000000E+000	6.30028	9.05749	83.6997	-2.00906e-05	-1.75039e-06	-1.58835e-10	-1.75023e-06	0.250337	35809	3.2494	35805.7
0.0999041	31.5694	4.91279	31.9494	-8.84534	79.135	0.250343	-0.00809434	324271	7667.25	1	12	0.00486773	0.000152357	0	-0.000138909	-3.46116e-05	1.31953e-06	-1.95982	0.00866075	0.00865568	0.000296186	-8.84348	31.958	31.5781	4.91309	0.0309272	0.00481285	0.0312995	8.84534	7.66725e+06	4.92695e+07	4.98625e+07	-81.1547	0.0000000E+000	0.0000000E+000	0.0000000E+000	81.1547	0.0000000E+000	0.0000000E+000	0.0000000E+000	-81.1547	0.0000000E+000	0.0000000E+000	0.0000000E+000	-8.84534	0.0000000E+000	0.0000000E+000	0.0000000E+000	8.84534	6.42597	81.1547	-3.2531e-06	-2.02636e-06	2.80158e-10	-2.02664e-06	0.250377	30928.1	4.27603	30932.4
0.0315922	35.2767	8.44783	36.2741	-13.4672	222.019	0.250346	-0.00804989	596342	32343.8	1	12	0.00486668	0.000134164	0	-0.000433477	3.60827e-06	3.29427e-06	34.2817	0.0245541	0.0202885	-0.0138304	-13.4385	36.2907	35.297	8.434	0.0268098	0.00642023	0.0275678	13.4672	3.23438e+07	1.35062e+08	1.38881e+08	-76.5328	0.0000000E+000	0.0000000E+000	0.0000000E+000	76.5328	0.0000000E+000	0.0000000E+000	0.0000000E+000	-76.5328	0.0000000E+000	0.0000000E+000	0.0000000E+000	-13.4672	0.0000000E+000	0.0000000E+000	0.0000000E+000	13.4672	4.17583	76.5328	-0.000199414	-2.01526e-06	-2.90462e-11	-2.01523e-06	0.250342	31099.3	0.448239	31098.8
0.0100092	41.4129	15.6686	44.2779	-20.7242	673.241	0.250338	-0.0118154	1.01482e+06	127080	1	12	0.00486534	0.000109882	0	-0.0023202	3.60827e-06	1.36097e-06	-47.4337	0.0123858	0.00837826	0.00912207	-20.7314	44.289	41.4213	15.6778	0.0211233	0.00799201	0.0225846	20.7242	1.2708e+08	3.35879e+08	3.59116e+08	-69.2758	0.0000000E+000	0.0000000E+000	0.0000000E+000	69.2758	0.0000000E+000	0.0000000E+000	0.0000000E+000	-69.2758	0.0000000E+000	0.0000000E+000	0.0000000E+000	-20.7242	0.0000000E+000	0.0000000E+000	0.0000000E+000	20.7242	2.64305	69.2758	-0.000858208	-2.95784e-06	-4.2633e-11	-2.9578e-06	0.250335	21187.5	0.305388	21187.2