File: txt/18351_R257_UA646_SOC00_C06.mpt
EC-Lab ASCII FILE
Nb header lines : 65

Potentio Electrochemical Impedance Spectroscopy

Run on channel : 6 (SN 65795)
User :
CE vs. WE compliance from -10 V to 10 V
Electrode connection : standard
Potential control : Ewe
Ewe ctrl range : min = -10.00 V, max = 10.00 V
Safety Limits :
	Do not start on E overload
Acquisition started on : 10/13/2025 14:40:26.156
Technique started on : 10/13/2025 14:40:28.068
Loaded Setting File :  C:\Users\Celltest\OneDrive - store-dot.com\Documents\EC-Lab\Data\@Biologic Test Protocols\anode half cell EIS SOC00.mps
Saved on :
	File : 18351_R257_UA646_SOC00_C06.mpr
	Directory : C:\Users\Celltest\OneDrive - store-dot.com\Documents\EC-Lab\Data\John\
	Host : 169.254.61.224
Device : VMP-3e (SN .003165)
Address : USB
EC-LAB for windows v11.62 (software)
Internet server v27.00 (firmware)
Command interpretor v12.03 (firmware)
Electrode material :
Initial state :
Electrolyte :
Comments :
Electrode surface area : 0.001 cm²
Characteristic mass : 0.001 g
Equivalent Weight : 0.000 g/eq.
Density : 0.000 g/cm3
Volume (V) : 0.001 cm³
Record Ece
Cycle Definition : Charge/Discharge alternance
Mode                Single sine
E (V)               0.0000
vs.                 Eoc
tE (h:m:s)          0:00:0.0000
record              0
dI                  0.000
unit dI             mA
dt (s)              0.000
fi                  100.000
unit fi             kHz
ff                  10.000
unit ff             mHz
Nd                  6
Points              per decade
spacing             Logarithmic
Va (mV)             5.0
pw                  0.10
Na                  2
corr                0
E range min (V)     -10.000
E range max (V)     10.000
I Range             Auto
Bandwidth           5
nc cycles           0
goto Ns'            0
nr cycles           0
inc. cycle          0

freq/Hz	Re(Z)/Ohm	-Im(Z)/Ohm	|Z|/Ohm	Phase(Z)/deg	time/s	<Ewe>/V	<I>/mA	Cs/µF	Cp/µF	cycle number	I Range	|Ewe|/V	|I|/A	Ns	(Q-Qo)/mA.h	<Ece>/V	|Ece|/V	Phase(Zce)/deg	|Zce|/Ohm	Re(Zce)/Ohm	-Im(Zce)/Ohm	Phase(Zwe-ce)/deg	|Zwe-ce|/Ohm	Re(Zwe-ce)/Ohm	-Im(Zwe-ce)/Ohm	Re(Y)/Ohm-1	Im(Y)/Ohm-1	|Y|/Ohm-1	Phase(Y)/deg	Re(C)/nF	Im(C)/nF	|C|/nF	Phase(C)/deg	Re(M)	Im(M)	|M|	Phase(M)/deg	Re(Permittivity)	Im(Permittivity)	|Permittivity|	Phase(Permittivity)/deg	Re(Resistivity)/Ohm.cm	Im(Resistivity)/Ohm.cm	|Resistivity|/Ohm.cm	Phase(Resistivity)/deg	Re(Conductivity)/mS/cm	Im(Conductivity)/mS/cm	|Conductivity|/mS/cm	Phase(Conductivity)/deg	Tan(Delta)	Loss Angle(Delta)/deg	dq/mA.h	Pwe/W	Pce/W	Pwe-ce/W	<Ewe-Ece>/V	Rwe/Ohm	Rce/Ohm	Rwe-ce/Ohm		Ewe-Ece/V
100004	1.30271	0.491086	1.3922	-20.6551	1.91153	0.253806	0.0298304	3.24076	0.403237	1	9	0.00481349	0.00345748	0	1.29904e-06	0.00017267	4.19192e-05	90.4044	0.0121242	-8.558e-05	-0.0121239	-20.188	1.38789	1.30262	0.478962	0.672118	0.253371	0.718289	20.6551	403.237	1069.67	1143.15	-69.3449	0.0000000E+000	0.0000000E+000	0.0000000E+000	69.3449	0.0000000E+000	0.0000000E+000	0.0000000E+000	-69.3449	0.0000000E+000	0.0000000E+000	0.0000000E+000	-20.6551	0.0000000E+000	0.0000000E+000	0.0000000E+000	20.6551	2.65271	69.3449	1.29904e-06	7.57113e-06	5.1508e-09	7.56598e-06	0.253633	8508.3	5.78837	8502.51
31621.1	1.73972	0.725752	1.88503	-22.6442	3.43256	0.253774	0.0270739	6.93512	1.028	1	9	0.00498596	0.00264503	0	4.97318e-05	7.71793e-05	1.92543e-05	66.6925	0.00727942	0.00288022	-0.00668538	-22.423	1.88513	1.7426	0.719067	0.489601	0.204245	0.530495	22.6442	1028	2464.25	2670.08	-67.3558	0.0000000E+000	0.0000000E+000	0.0000000E+000	67.3558	0.0000000E+000	0.0000000E+000	0.0000000E+000	-67.3558	0.0000000E+000	0.0000000E+000	0.0000000E+000	-22.6442	0.0000000E+000	0.0000000E+000	0.0000000E+000	22.6442	2.39713	67.3558	7.83272e-06	6.87066e-06	2.08954e-09	6.86857e-06	0.253697	9373.4	2.85069	9370.55
10002.2	2.32059	0.991188	2.52341	-23.1286	4.45752	0.253771	0.0253604	16.0534	2.47687	1	9	0.00480955	0.00190597	0	6.22523e-05	0.000134473	2.47638e-06	132.143	0.00129928	-0.000871799	-0.000963375	-23.1163	2.52223	2.31972	0.990225	0.364437	0.155661	0.396289	23.1286	2476.87	5798.91	6305.73	-66.8714	0.0000000E+000	0.0000000E+000	0.0000000E+000	66.8714	0.0000000E+000	0.0000000E+000	0.0000000E+000	-66.8714	0.0000000E+000	0.0000000E+000	0.0000000E+000	-23.1286	0.0000000E+000	0.0000000E+000	0.0000000E+000	23.1286	2.34122	66.8714	9.34315e-07	6.43573e-06	3.4103e-09	6.43232e-06	0.253637	10006.6	5.3025	10001.3
3163.08	3.09046	1.44891	3.41325	-25.1187	5.48268	0.253544	-0.0261563	34.7271	6.2577	1	9	0.00491905	0.00144116	0	6.21319e-05	0.000134473	8.75441e-06	0.0341236	0.00607455	0.00607455	-3.61782e-06	-25.0755	3.41875	3.09654	1.44891	0.265269	0.124367	0.292976	25.1187	6257.7	13347.4	14741.5	-64.8813	0.0000000E+000	0.0000000E+000	0.0000000E+000	64.8813	0.0000000E+000	0.0000000E+000	0.0000000E+000	-64.8813	0.0000000E+000	0.0000000E+000	0.0000000E+000	-25.1187	0.0000000E+000	0.0000000E+000	0.0000000E+000	25.1187	2.13295	64.8813	-3.31281e-06	-6.63178e-06	-3.51733e-09	-6.62826e-06	0.25341	9693.41	5.14114	9688.27
1000.32	4.10039	2.25279	4.67849	-28.7848	7.08078	0.253719	-0.0125033	70.6254	16.3754	1	10	0.0049046	0.00104833	0	6.34436e-05	0.000287258	3.30461e-05	-83.1995	0.0315226	0.00373268	0.0313008	-29.0975	4.6969	4.10412	2.28409	0.187333	0.102922	0.213744	28.7848	16375.4	29805.4	34007.6	-61.2152	0.0000000E+000	0.0000000E+000	0.0000000E+000	61.2152	0.0000000E+000	0.0000000E+000	0.0000000E+000	-61.2152	0.0000000E+000	0.0000000E+000	0.0000000E+000	-28.7848	0.0000000E+000	0.0000000E+000	0.0000000E+000	28.7848	1.82014	61.2152	-9.0562e-07	-3.17231e-06	-3.59166e-09	-3.16872e-06	0.253431	20292.2	22.9746	20269.2
316.316	5.73821	4.27088	7.15314	-36.6598	8.431	0.253708	-0.0133902	117.81	41.9974	1	10	0.00484878	0.000677852	0	5.8163e-05	-9.4703e-05	1.83914e-05	92.8766	0.0271319	-0.00136162	-0.0270977	-36.4918	7.1359	5.73685	4.24378	0.112146	0.0834686	0.139799	36.6598	41997.4	56426.3	70340	-53.3402	0.0000000E+000	0.0000000E+000	0.0000000E+000	53.3402	0.0000000E+000	0.0000000E+000	0.0000000E+000	-53.3402	0.0000000E+000	0.0000000E+000	0.0000000E+000	-36.6598	0.0000000E+000	0.0000000E+000	0.0000000E+000	36.6598	1.34357	53.3401	-2.10719e-06	-3.39719e-06	1.26809e-09	-3.39846e-06	0.253802	18947.3	7.07256	18954.3
100.032	10.1398	7.74387	12.7587	-37.3693	9.77878	0.25369	-0.0142212	205.458	75.6884	1	10	0.00481383	0.000377299	0	5.33933e-05	5.80813e-05	4.81152e-06	11.7239	0.0127525	0.0124865	-0.00259125	-37.3261	12.767	10.1523	7.74128	0.0622902	0.0475717	0.0783782	37.3693	75688.4	99106.3	124703	-52.6307	0.0000000E+000	0.0000000E+000	0.0000000E+000	52.6307	0.0000000E+000	0.0000000E+000	0.0000000E+000	-52.6307	0.0000000E+000	0.0000000E+000	0.0000000E+000	-37.3693	0.0000000E+000	0.0000000E+000	0.0000000E+000	37.3693	1.3094	52.6307	-2.02737e-06	-3.60778e-06	-8.25987e-10	-3.60695e-06	0.253632	17838.8	4.08413	17834.7
31.6296	18.3012	8.6342	20.2357	-25.2571	11.3426	0.253747	-0.00585973	582.781	106.099	1	11	0.00481601	0.000237996	0	4.83016e-05	-0.000362076	6.04321e-06	47.9888	0.0253921	0.0169943	-0.0188667	-25.1883	20.2431	18.3182	8.61533	0.0446934	0.0210855	0.0494176	25.2571	106099	224890	248661	-64.7429	0.0000000E+000	0.0000000E+000	0.0000000E+000	64.7429	0.0000000E+000	0.0000000E+000	0.0000000E+000	-64.7429	0.0000000E+000	0.0000000E+000	0.0000000E+000	-25.2571	0.0000000E+000	0.0000000E+000	0.0000000E+000	25.2571	2.11962	64.7429	-1.64789e-06	-1.48689e-06	2.12166e-09	-1.48901e-06	0.254109	43303.5	61.7905	43365.3
10.0032	24.2606	6.12534	25.022	-14.1699	12.6748	0.25375	-0.00540982	2597.47	155.657	1	11	0.00481235	0.000192325	0	4.56643e-05	0.000229964	1.28935e-05	-24.2708	0.0670402	0.0611147	0.0275569	-14.1968	25.088	24.3218	6.1529	0.0387489	0.00978335	0.0399649	14.1699	155657	616511	635857	-75.8301	0.0000000E+000	0.0000000E+000	0.0000000E+000	75.8301	0.0000000E+000	0.0000000E+000	0.0000000E+000	-75.8301	0.0000000E+000	0.0000000E+000	0.0000000E+000	-14.1699	0.0000000E+000	0.0000000E+000	0.0000000E+000	14.1699	3.9607	75.8301	-2.17023e-06	-1.37274e-06	-1.24406e-09	-1.3715e-06	0.25352	46905.4	42.5086	46862.9
3.1604	27.4936	4.09318	27.7967	-8.46785	14.1915	0.253737	-0.00501381	12303.2	266.781	1	11	0.00481491	0.000173219	0	4.26238e-05	0.00017267	3.77349e-06	13.0498	0.0217845	0.0212219	-0.00491889	-8.45139	27.8169	27.5149	4.08826	0.0355834	0.00529756	0.0359755	8.46785	266781	1.79195e+06	1.8117e+06	-81.5322	0.0000000E+000	0.0000000E+000	0.0000000E+000	81.5322	0.0000000E+000	0.0000000E+000	0.0000000E+000	-81.5322	0.0000000E+000	0.0000000E+000	0.0000000E+000	-8.46785	0.0000000E+000	0.0000000E+000	0.0000000E+000	8.46785	6.71694	81.5322	-3.35531e-06	-1.27219e-06	-8.65733e-10	-1.27133e-06	0.253565	50607.7	34.4388	50573.2
1.00006	29.6598	3.26707	29.8392	-6.28588	19.83	0.253745	-0.00494918	48711.8	583.952	1	12	0.00481766	0.000161454	0	4.1227e-05	0.000249062	3.94148e-06	30.5689	0.0244124	0.0210195	-0.0124155	-6.25778	29.8587	29.6808	3.25465	0.0333115	0.00366931	0.033513	6.28588	583952	5.30135e+06	5.33342e+06	-83.7141	0.0000000E+000	0.0000000E+000	0.0000000E+000	83.7141	0.0000000E+000	0.0000000E+000	0.0000000E+000	-83.7141	0.0000000E+000	0.0000000E+000	0.0000000E+000	-6.28588	0.0000000E+000	0.0000000E+000	0.0000000E+000	6.28588	9.07841	83.7141	1.25538e-06	-1.25583e-06	-1.23265e-09	-1.2546e-06	0.253496	51270.1	50.3238	51219.8
0.316193	31.4999	3.50573	31.6944	-6.3505	34.1749	0.253741	-0.0041997	143579	1756.63	1	12	0.00481743	0.000151996	0	1.98126e-05	-7.5605e-05	2.17904e-06	62.0335	0.0143361	0.00672302	-0.012662	-6.32641	31.6997	31.5067	3.49307	0.0313577	0.0034899	0.0315513	6.3505	1.75663e+06	1.57838e+07	1.58813e+07	-83.6495	0.0000000E+000	0.0000000E+000	0.0000000E+000	83.6495	0.0000000E+000	0.0000000E+000	0.0000000E+000	-83.6495	0.0000000E+000	0.0000000E+000	0.0000000E+000	-6.3505	0.0000000E+000	0.0000000E+000	0.0000000E+000	6.3505	8.98528	83.6495	-1.7077e-05	-1.06564e-06	3.17518e-10	-1.06595e-06	0.253817	60418.9	18.0025	60436.9
0.0999041	33.8773	5.11464	34.2612	-8.58542	79.3829	0.253737	-0.00672808	311474	6941.4	1	12	0.00481075	0.000140414	0	-0.000107999	5.80813e-05	1.78117e-06	-39.9845	0.0126851	0.00971956	0.00815119	-8.59647	34.272	33.887	5.12279	0.0288605	0.00435722	0.0291875	8.58542	6.9414e+06	4.5977e+07	4.6498e+07	-81.4146	0.0000000E+000	0.0000000E+000	0.0000000E+000	81.4146	0.0000000E+000	0.0000000E+000	0.0000000E+000	-81.4146	0.0000000E+000	0.0000000E+000	0.0000000E+000	-8.58542	0.0000000E+000	0.0000000E+000	0.0000000E+000	8.58542	6.62359	81.4146	-5.05959e-05	-1.70717e-06	-3.90776e-10	-1.70678e-06	0.253679	37713.2	8.63266	37704.5
0.0315922	37.5421	8.59504	38.5134	-12.8953	222.267	0.253728	-0.00889718	586128	29192	1	12	0.00481746	0.000125085	0	-0.000245499	0.000229964	2.63939e-06	25.5745	0.0211008	0.0190334	-0.00910887	-12.8758	38.5299	37.5611	8.58593	0.0253101	0.00579461	0.025965	12.8953	2.9192e+07	1.27507e+08	1.30806e+08	-77.1047	0.0000000E+000	0.0000000E+000	0.0000000E+000	77.1047	0.0000000E+000	0.0000000E+000	0.0000000E+000	-77.1047	0.0000000E+000	0.0000000E+000	0.0000000E+000	-12.8953	0.0000000E+000	0.0000000E+000	0.0000000E+000	12.8953	4.36788	77.1047	-4.88639e-05	-2.25746e-06	-2.04603e-09	-2.25542e-06	0.253498	28517.8	25.8468	28492
0.0100092	43.9459	16.9137	47.0884	-21.0505	673.489	0.253729	-0.0102788	940118	121292	1	12	0.0048129	0.00010221	0	-0.00148311	0.000191768	1.02367e-06	8.60022	0.0100154	0.00990276	-0.00149769	-21.0445	47.0971	43.9558	16.9122	0.0198194	0.00762801	0.0212366	21.0505	1.21292e+08	3.15146e+08	3.37682e+08	-68.9495	0.0000000E+000	0.0000000E+000	0.0000000E+000	68.9495	0.0000000E+000	0.0000000E+000	0.0000000E+000	-68.9495	0.0000000E+000	0.0000000E+000	0.0000000E+000	-21.0505	0.0000000E+000	0.0000000E+000	0.0000000E+000	21.0505	2.59824	68.9495	-0.000759801	-2.60802e-06	-1.97114e-09	-2.60605e-06	0.253537	24684.7	18.6566	24666