File: txt/18354_R257_UA646_SOC00_C08.mpt
EC-Lab ASCII FILE
Nb header lines : 65

Potentio Electrochemical Impedance Spectroscopy

Run on channel : 8 (SN 65398)
User :
CE vs. WE compliance from -10 V to 10 V
Electrode connection : standard
Potential control : Ewe
Ewe ctrl range : min = -10.00 V, max = 10.00 V
Safety Limits :
	Do not start on E overload
Acquisition started on : 10/13/2025 14:40:50.095
Technique started on : 10/13/2025 14:40:52.150
Loaded Setting File :  C:\Users\Celltest\OneDrive - store-dot.com\Documents\EC-Lab\Data\@Biologic Test Protocols\anode half cell EIS SOC00.mps
Saved on :
	File : 18354_R257_UA646_SOC00_C08.mpr
	Directory : C:\Users\Celltest\OneDrive - store-dot.com\Documents\EC-Lab\Data\John\
	Host : 169.254.61.224
Device : VMP-3e (SN .003165)
Address : USB
EC-LAB for windows v11.62 (software)
Internet server v27.00 (firmware)
Command interpretor v12.03 (firmware)
Electrode material :
Initial state :
Electrolyte :
Comments :
Electrode surface area : 0.001 cm²
Characteristic mass : 0.001 g
Equivalent Weight : 0.000 g/eq.
Density : 0.000 g/cm3
Volume (V) : 0.001 cm³
Record Ece
Cycle Definition : Charge/Discharge alternance
Mode                Single sine
E (V)               0.0000
vs.                 Eoc
tE (h:m:s)          0:00:0.0000
record              0
dI                  0.000
unit dI             mA
dt (s)              0.000
fi                  100.000
unit fi             kHz
ff                  10.000
unit ff             mHz
Nd                  6
Points              per decade
spacing             Logarithmic
Va (mV)             5.0
pw                  0.10
Na                  2
corr                0
E range min (V)     -10.000
E range max (V)     10.000
I Range             Auto
Bandwidth           5
nc cycles           0
goto Ns'            0
nr cycles           0
inc. cycle          0

freq/Hz	Re(Z)/Ohm	-Im(Z)/Ohm	|Z|/Ohm	Phase(Z)/deg	time/s	<Ewe>/V	<I>/mA	Cs/µF	Cp/µF	cycle number	I Range	|Ewe|/V	|I|/A	Ns	(Q-Qo)/mA.h	<Ece>/V	|Ece|/V	Phase(Zce)/deg	|Zce|/Ohm	Re(Zce)/Ohm	-Im(Zce)/Ohm	Phase(Zwe-ce)/deg	|Zwe-ce|/Ohm	Re(Zwe-ce)/Ohm	-Im(Zwe-ce)/Ohm	Re(Y)/Ohm-1	Im(Y)/Ohm-1	|Y|/Ohm-1	Phase(Y)/deg	Re(C)/nF	Im(C)/nF	|C|/nF	Phase(C)/deg	Re(M)	Im(M)	|M|	Phase(M)/deg	Re(Permittivity)	Im(Permittivity)	|Permittivity|	Phase(Permittivity)/deg	Re(Resistivity)/Ohm.cm	Im(Resistivity)/Ohm.cm	|Resistivity|/Ohm.cm	Phase(Resistivity)/deg	Re(Conductivity)/mS/cm	Im(Conductivity)/mS/cm	|Conductivity|/mS/cm	Phase(Conductivity)/deg	Tan(Delta)	Loss Angle(Delta)/deg	dq/mA.h	Pwe/W	Pce/W	Pwe-ce/W	<Ewe-Ece>/V	Rwe/Ohm	Rce/Ohm	Rwe-ce/Ohm		Ewe-Ece/V
100004	1.38236	0.473157	1.4611	-18.8951	2.05456	0.2539	0.0318847	3.36356	0.352738	1	9	0.00493876	0.00338018	0	1.9816e-06	0.000254454	4.63284e-05	62.6901	0.0137059	0.00628831	-0.0121782	-18.3642	1.46316	1.38865	0.460979	0.647536	0.22164	0.684418	18.8951	352.737	1030.55	1089.24	-71.1049	0.0000000E+000	0.0000000E+000	0.0000000E+000	71.1049	0.0000000E+000	0.0000000E+000	0.0000000E+000	-71.1049	0.0000000E+000	0.0000000E+000	0.0000000E+000	-18.8951	0.0000000E+000	0.0000000E+000	0.0000000E+000	18.8951	2.92157	71.1049	1.9816e-06	8.09554e-06	8.11319e-09	8.08742e-06	0.253646	7963.06	7.98043	7955.08
31621.1	1.82042	0.746814	1.96765	-22.3056	3.20354	0.253888	0.0344517	6.73954	0.970866	1	9	0.005398	0.00274338	0	1.58372e-05	6.35733e-05	2.04106e-05	38.0109	0.00743998	0.00586191	-0.00458162	-22.1177	1.97135	1.82628	0.742232	0.470192	0.192893	0.50822	22.3056	970.866	2366.56	2557.97	-67.6944	0.0000000E+000	0.0000000E+000	0.0000000E+000	67.6944	0.0000000E+000	0.0000000E+000	0.0000000E+000	-67.6944	0.0000000E+000	0.0000000E+000	0.0000000E+000	-22.3056	0.0000000E+000	0.0000000E+000	0.0000000E+000	22.3056	2.43758	67.6944	1.04903e-05	8.74688e-06	2.19021e-09	8.74469e-06	0.253825	7369.41	1.84529	7367.56
10002.2	2.41171	1.0414	2.62695	-23.3552	4.35452	0.253894	0.0315871	15.2794	2.40125	1	9	0.00523031	0.00199102	0	1.89981e-05	0.000159014	1.30583e-05	-25.6553	0.00655858	0.005912	0.00283957	-23.3609	2.6335	2.41762	1.04424	0.34948	0.150909	0.38067	23.3552	2401.26	5560.91	6057.21	-66.6448	0.0000000E+000	0.0000000E+000	0.0000000E+000	66.6448	0.0000000E+000	0.0000000E+000	0.0000000E+000	-66.6448	0.0000000E+000	0.0000000E+000	0.0000000E+000	-23.3552	0.0000000E+000	0.0000000E+000	0.0000000E+000	23.3552	2.31583	66.6448	1.46669e-07	8.01977e-06	5.02277e-09	8.01475e-06	0.253735	8037.9	5.03413	8032.87
3163.08	3.20451	1.51696	3.54543	-25.3321	5.50261	0.253836	0.00803806	33.1692	6.07222	1	9	0.00510029	0.00143855	0	2.11705e-05	-7.00431e-05	4.19872e-06	-123.567	0.00291871	-0.00161378	0.00243199	-25.3788	3.54501	3.2029	1.51939	0.254932	0.120681	0.282053	25.3321	6072.22	12827.3	14191.9	-64.6679	0.0000000E+000	0.0000000E+000	0.0000000E+000	64.6679	0.0000000E+000	0.0000000E+000	0.0000000E+000	-64.6679	0.0000000E+000	0.0000000E+000	0.0000000E+000	-25.3321	0.0000000E+000	0.0000000E+000	0.0000000E+000	25.3321	2.11245	64.6679	1.89212e-06	2.04035e-06	-5.63011e-10	2.04091e-06	0.253906	31579.3	8.71393	31588
1000.32	4.26997	2.36873	4.88299	-29.0189	7.10178	0.253859	-0.0079493	67.1685	15.8061	1	10	0.0049528	0.0010143	0	2.01648e-05	0.000368982	2.15816e-05	3.84905	0.0212774	0.0212294	-0.00142831	-28.8839	4.90087	4.2912	2.3673	0.179083	0.0993446	0.204793	29.0189	15806.1	28492.8	32583.3	-60.9811	0.0000000E+000	0.0000000E+000	0.0000000E+000	60.9811	0.0000000E+000	0.0000000E+000	0.0000000E+000	-60.9811	0.0000000E+000	0.0000000E+000	0.0000000E+000	-29.0189	0.0000000E+000	0.0000000E+000	0.0000000E+000	29.0189	1.80264	60.9811	-1.86719e-06	-2.018e-06	-2.93315e-09	-2.01507e-06	0.25349	31934.8	46.4169	31888.3
316.316	5.97154	4.47974	7.46507	-36.8766	8.451	0.253858	-0.00924758	112.317	40.4468	1	10	0.00480567	0.000643754	0	1.72527e-05	0.000216278	1.03284e-05	-70.3039	0.0160441	0.00540736	0.0151054	-36.9443	7.47847	5.97695	4.49485	0.107156	0.0803868	0.133957	36.8766	40446.8	53915.9	67400.8	-53.1234	0.0000000E+000	0.0000000E+000	0.0000000E+000	53.1234	0.0000000E+000	0.0000000E+000	0.0000000E+000	-53.1234	0.0000000E+000	0.0000000E+000	0.0000000E+000	-36.8766	0.0000000E+000	0.0000000E+000	0.0000000E+000	36.8766	1.33301	53.1234	-1.6345e-06	-2.34758e-06	-2.00005e-09	-2.34558e-06	0.253642	27451.3	23.3875	27427.9
100.032	10.5391	8.16324	13.3309	-37.7601	9.7988	0.253873	-0.00827668	194.903	73.0849	1	10	0.00474308	0.000355797	0	1.41263e-05	0.000273542	8.41338e-06	43.756	0.0236466	0.0170797	-0.0163537	-37.6596	13.3344	10.5562	8.14688	0.0593047	0.0459353	0.0750139	37.7601	73084.9	94356.1	119350	-52.2399	0.0000000E+000	0.0000000E+000	0.0000000E+000	52.2399	0.0000000E+000	0.0000000E+000	0.0000000E+000	-52.2399	0.0000000E+000	0.0000000E+000	0.0000000E+000	-37.7601	0.0000000E+000	0.0000000E+000	0.0000000E+000	37.7601	1.29105	52.2399	-1.20859e-06	-2.10123e-06	-2.26402e-09	-2.09896e-06	0.253599	30673.3	33.0497	30640.2
31.6296	19.1157	9.20558	21.2168	-25.7142	11.3675	0.253867	-0.00624498	546.608	102.901	1	11	0.00474273	0.000223537	0	1.13265e-05	-3.1867e-05	6.46705e-06	46.7342	0.0289306	0.0198286	-0.0210667	-25.6397	21.2255	19.1355	9.18451	0.042465	0.02045	0.0471325	25.7142	102901	213677	237163	-64.2858	0.0000000E+000	0.0000000E+000	0.0000000E+000	64.2858	0.0000000E+000	0.0000000E+000	0.0000000E+000	-64.2858	0.0000000E+000	0.0000000E+000	0.0000000E+000	-25.7142	0.0000000E+000	0.0000000E+000	0.0000000E+000	25.7142	2.07653	64.2858	-8.13577e-07	-1.58539e-06	1.99009e-10	-1.58559e-06	0.253899	40651.3	5.10282	40656.4
10.0032	25.6311	6.64238	26.4778	-14.5288	12.6998	0.253869	-0.00591928	2395.28	150.744	1	11	0.00474287	0.000179126	0	8.50137e-06	2.53972e-05	4.13569e-06	87.5182	0.0230881	0.00099975	-0.0230665	-14.4799	26.473	25.6321	6.61932	0.0365597	0.00947457	0.0377675	14.5288	150744	581680	600895	-75.4712	0.0000000E+000	0.0000000E+000	0.0000000E+000	75.4712	0.0000000E+000	0.0000000E+000	0.0000000E+000	-75.4712	0.0000000E+000	0.0000000E+000	0.0000000E+000	-14.5288	0.0000000E+000	0.0000000E+000	0.0000000E+000	14.5288	3.85872	75.4712	-4.12968e-07	-1.50272e-06	-1.50333e-10	-1.50257e-06	0.253843	42888.4	4.29058	42884.2
3.1604	29.2035	4.43644	29.5385	-8.63802	14.2164	0.253867	-0.00529113	11351.3	256.056	1	11	0.00474183	0.00016053	0	8.11361e-06	0.000216278	7.39407e-06	11.9502	0.0460602	0.045062	-0.00953729	-8.60665	29.5817	29.2485	4.4269	0.0334701	0.00508459	0.0338541	8.63802	256056	1.68552e+06	1.70486e+06	-81.362	0.0000000E+000	0.0000000E+000	0.0000000E+000	81.362	0.0000000E+000	0.0000000E+000	0.0000000E+000	-81.362	0.0000000E+000	0.0000000E+000	0.0000000E+000	-8.63802	0.0000000E+000	0.0000000E+000	0.0000000E+000	8.63802	6.58264	81.362	1.88165e-07	-1.34324e-06	-1.14435e-09	-1.3421e-06	0.25365	47979.7	40.8755	47938.8
1.00006	31.507	3.52845	31.7039	-6.38989	19.8549	0.253882	-0.00471124	45103.3	558.663	1	12	0.00473948	0.000149492	0	-7.04079e-06	0.000254454	3.04455e-06	10.6945	0.020366	0.0200123	-0.00377937	-6.37909	31.7234	31.527	3.52467	0.0313459	0.0035104	0.0315418	6.38989	558662	4.98853e+06	5.01972e+06	-83.6101	0.0000000E+000	0.0000000E+000	0.0000000E+000	83.6101	0.0000000E+000	0.0000000E+000	0.0000000E+000	-83.6101	0.0000000E+000	0.0000000E+000	0.0000000E+000	-6.38989	0.0000000E+000	0.0000000E+000	0.0000000E+000	6.38989	8.92942	83.6101	-7.08411e-06	-1.1961e-06	-1.19879e-09	-1.1949e-06	0.253627	53888.6	54.01	53834.5
0.316193	33.4656	3.63176	33.6621	-6.19364	34.1987	0.253883	-0.00514757	138596	1613.26	1	12	0.00474171	0.000140862	0	-5.23223e-06	-0.000127307	1.55422e-06	-25.0029	0.0110336	0.0099996	0.00466351	-6.19969	33.6725	33.4756	3.63643	0.0295336	0.00320506	0.029707	6.19364	1.61326e+06	1.48657e+07	1.4953e+07	-83.8064	0.0000000E+000	0.0000000E+000	0.0000000E+000	83.8064	0.0000000E+000	0.0000000E+000	0.0000000E+000	-83.8064	0.0000000E+000	0.0000000E+000	0.0000000E+000	-6.19364	0.0000000E+000	0.0000000E+000	0.0000000E+000	6.19364	9.21469	83.8064	2.94387e-06	-1.30688e-06	6.55324e-10	-1.30754e-06	0.254011	49321	24.7315	49345.7
0.0999041	35.9389	5.47955	36.3542	-8.66905	79.4067	0.253881	-0.00522311	290731	6605	1	12	0.00474342	0.000130478	0	-8.48766e-05	-0.000318188	2.72465e-06	12.5556	0.0208821	0.0203827	-0.00453948	-8.65714	36.3737	35.9593	5.47501	0.0271929	0.00414606	0.0275071	8.66905	6.605e+06	4.33204e+07	4.3821e+07	-81.3309	0.0000000E+000	0.0000000E+000	0.0000000E+000	81.3309	0.0000000E+000	0.0000000E+000	0.0000000E+000	-81.3309	0.0000000E+000	0.0000000E+000	0.0000000E+000	-8.66905	0.0000000E+000	0.0000000E+000	0.0000000E+000	8.66905	6.55872	81.3309	-5.56294e-05	-1.32605e-06	1.66193e-09	-1.32771e-06	0.254199	48607.2	60.9192	48668.1
0.0315922	40.0692	8.96138	41.059	-12.6066	222.29	0.253879	-0.00883342	562167	26779.2	1	12	0.00474028	0.00011545	0	-0.000536789	0.000273542	4.3512e-06	5.75505	0.0376889	0.037499	-0.00377929	-12.5901	41.0948	40.1067	8.9576	0.023768	0.00531566	0.0243552	12.6066	2.67792e+07	1.19738e+08	1.22696e+08	-77.3934	0.0000000E+000	0.0000000E+000	0.0000000E+000	77.3934	0.0000000E+000	0.0000000E+000	0.0000000E+000	-77.3934	0.0000000E+000	0.0000000E+000	0.0000000E+000	-12.6066	0.0000000E+000	0.0000000E+000	0.0000000E+000	12.6066	4.47132	77.3934	-0.000197755	-2.24262e-06	-2.41631e-09	-2.2402e-06	0.253605	28740.7	30.9667	28709.7
0.0100092	46.6565	16.5512	49.5052	-19.532	673.513	0.253878	-0.0112498	960708	107387	1	12	0.00474086	9.57648e-05	0	-0.00138662	-0.000241836	2.29827e-06	4.06036	0.0239991	0.0239389	-0.00169932	-19.5209	49.5272	46.6804	16.5495	0.0190375	0.00675349	0.0201999	19.532	1.07387e+08	3.02713e+08	3.21197e+08	-70.468	0.0000000E+000	0.0000000E+000	0.0000000E+000	70.468	0.0000000E+000	0.0000000E+000	0.0000000E+000	-70.468	0.0000000E+000	0.0000000E+000	0.0000000E+000	-19.532	0.0000000E+000	0.0000000E+000	0.0000000E+000	19.532	2.81891	70.468	-0.000371435	-2.85606e-06	2.72059e-09	-2.85878e-06	0.25412	22567.4	21.497	22588.9