File: txt/18353_R257_UA646_SOC00_C07.mpt
EC-Lab ASCII FILE
Nb header lines : 65

Potentio Electrochemical Impedance Spectroscopy

Run on channel : 7 (SN 66126)
User :
CE vs. WE compliance from -10 V to 10 V
Electrode connection : standard
Potential control : Ewe
Ewe ctrl range : min = -10.00 V, max = 10.00 V
Safety Limits :
	Do not start on E overload
Acquisition started on : 10/13/2025 14:40:40.999
Technique started on : 10/13/2025 14:40:42.911
Loaded Setting File :  C:\Users\Celltest\OneDrive - store-dot.com\Documents\EC-Lab\Data\@Biologic Test Protocols\anode half cell EIS SOC00.mps
Saved on :
	File : 18353_R257_UA646_SOC00_C07.mpr
	Directory : C:\Users\Celltest\OneDrive - store-dot.com\Documents\EC-Lab\Data\John\
	Host : 169.254.61.224
Device : VMP-3e (SN .003165)
Address : USB
EC-LAB for windows v11.62 (software)
Internet server v27.00 (firmware)
Command interpretor v12.03 (firmware)
Electrode material :
Initial state :
Electrolyte :
Comments :
Electrode surface area : 0.001 cm²
Characteristic mass : 0.001 g
Equivalent Weight : 0.000 g/eq.
Density : 0.000 g/cm3
Volume (V) : 0.001 cm³
Record Ece
Cycle Definition : Charge/Discharge alternance
Mode                Single sine
E (V)               0.0000
vs.                 Eoc
tE (h:m:s)          0:00:0.0000
record              0
dI                  0.000
unit dI             mA
dt (s)              0.000
fi                  100.000
unit fi             kHz
ff                  10.000
unit ff             mHz
Nd                  6
Points              per decade
spacing             Logarithmic
Va (mV)             5.0
pw                  0.10
Na                  2
corr                0
E range min (V)     -10.000
E range max (V)     10.000
I Range             Auto
Bandwidth           5
nc cycles           0
goto Ns'            0
nr cycles           0
inc. cycle          0

freq/Hz	Re(Z)/Ohm	-Im(Z)/Ohm	|Z|/Ohm	Phase(Z)/deg	time/s	<Ewe>/V	<I>/mA	Cs/µF	Cp/µF	cycle number	I Range	|Ewe|/V	|I|/A	Ns	(Q-Qo)/mA.h	<Ece>/V	|Ece|/V	Phase(Zce)/deg	|Zce|/Ohm	Re(Zce)/Ohm	-Im(Zce)/Ohm	Phase(Zwe-ce)/deg	|Zwe-ce|/Ohm	Re(Zwe-ce)/Ohm	-Im(Zwe-ce)/Ohm	Re(Y)/Ohm-1	Im(Y)/Ohm-1	|Y|/Ohm-1	Phase(Y)/deg	Re(C)/nF	Im(C)/nF	|C|/nF	Phase(C)/deg	Re(M)	Im(M)	|M|	Phase(M)/deg	Re(Permittivity)	Im(Permittivity)	|Permittivity|	Phase(Permittivity)/deg	Re(Resistivity)/Ohm.cm	Im(Resistivity)/Ohm.cm	|Resistivity|/Ohm.cm	Phase(Resistivity)/deg	Re(Conductivity)/mS/cm	Im(Conductivity)/mS/cm	|Conductivity|/mS/cm	Phase(Conductivity)/deg	Tan(Delta)	Loss Angle(Delta)/deg	dq/mA.h	Pwe/W	Pce/W	Pwe-ce/W	<Ewe-Ece>/V	Rwe/Ohm	Rce/Ohm	Rwe-ce/Ohm		Ewe-Ece/V
100004	1.2859	0.482881	1.37357	-20.5822	1.91156	0.251532	0.044281	3.29582	0.407325	1	9	0.00488417	0.00355582	0	8.36717e-06	-0.000193068	3.19656e-05	87.933	0.00898968	0.000324246	-0.00898383	-20.2259	1.37074	1.28622	0.473898	0.681557	0.255939	0.728028	20.5822	407.325	1084.69	1158.65	-69.4178	0.0000000E+000	0.0000000E+000	0.0000000E+000	69.4178	0.0000000E+000	0.0000000E+000	0.0000000E+000	-69.4178	0.0000000E+000	0.0000000E+000	0.0000000E+000	-20.5822	0.0000000E+000	0.0000000E+000	0.0000000E+000	20.5822	2.66296	69.4178	8.36717e-06	1.11381e-05	-8.54926e-09	1.11466e-05	0.251725	5680.35	4.36007	5684.71
31621.1	1.71492	0.707381	1.85509	-22.4155	3.43252	0.251568	0.0453981	7.11524	1.03459	1	9	0.00521973	0.00281374	0	-3.64594e-06	-0.000231219	9.2032e-06	20.1047	0.00327081	0.00307151	-0.0011243	-22.3473	1.8575	1.71799	0.706257	0.498329	0.205554	0.539059	22.4155	1034.59	2508.18	2713.18	-67.5845	0.0000000E+000	0.0000000E+000	0.0000000E+000	67.5845	0.0000000E+000	0.0000000E+000	0.0000000E+000	-67.5845	0.0000000E+000	0.0000000E+000	0.0000000E+000	-22.4155	0.0000000E+000	0.0000000E+000	0.0000000E+000	22.4155	2.42432	67.5845	-2.81774e-06	1.14207e-05	-1.04969e-08	1.14312e-05	0.251799	5541.38	5.09315	5546.47
10002.2	2.26959	0.982228	2.47301	-23.4019	4.58355	0.251569	0.0485259	16.1999	2.55554	1	9	0.00488641	0.00197589	0	1.96097e-05	1.67614e-05	4.51734e-06	-9.40858	0.00228623	0.00225547	0.000373738	-23.3891	2.47523	2.27184	0.982601	0.371103	0.160605	0.404365	23.4019	2555.54	5904.97	6434.24	-66.5981	0.0000000E+000	0.0000000E+000	0.0000000E+000	66.5981	0.0000000E+000	0.0000000E+000	0.0000000E+000	-66.5981	0.0000000E+000	0.0000000E+000	0.0000000E+000	-23.4019	0.0000000E+000	0.0000000E+000	0.0000000E+000	23.4019	2.31065	66.5981	6.61133e-06	1.22076e-05	8.1336e-10	1.22068e-05	0.251552	5184.22	0.345411	5183.87
3163.08	3.01776	1.43184	3.34022	-25.3829	5.65867	0.251338	-0.0161532	35.1412	6.45735	1	9	0.00495021	0.001482	0	2.42218e-05	-0.000116767	1.2306e-05	9.87922	0.00830359	0.00818046	-0.00142466	-25.3009	3.347	3.02594	1.43041	0.27048	0.128335	0.299382	25.3829	6457.35	13609.6	15063.8	-64.6171	0.0000000E+000	0.0000000E+000	0.0000000E+000	64.6171	0.0000000E+000	0.0000000E+000	0.0000000E+000	-64.6171	0.0000000E+000	0.0000000E+000	0.0000000E+000	-25.3829	0.0000000E+000	0.0000000E+000	0.0000000E+000	25.3829	2.10762	64.6171	-6.60309e-07	-4.05991e-06	1.88615e-09	-4.06179e-06	0.251455	15559.6	7.2287	15566.9
1000.32	4.00501	2.25437	4.5959	-29.3746	7.25782	0.251484	-0.0178908	70.5758	16.9811	1	10	0.0049381	0.00107446	0	2.26204e-05	-0.000441049	3.24835e-05	-53.5275	0.0302324	0.0179712	0.0243112	-29.5279	4.6235	4.02298	2.27868	0.189611	0.10673	0.217585	29.3746	16981.1	30167.8	34618.7	-60.6254	0.0000000E+000	0.0000000E+000	0.0000000E+000	60.6254	0.0000000E+000	0.0000000E+000	0.0000000E+000	-60.6254	0.0000000E+000	0.0000000E+000	0.0000000E+000	-29.3746	0.0000000E+000	0.0000000E+000	0.0000000E+000	29.3746	1.77655	60.6254	-2.38753e-06	-4.49926e-06	7.89072e-09	-4.50715e-06	0.251925	14056.6	24.6522	14081.3
316.316	5.65615	4.28155	7.09392	-37.1247	8.60704	0.251479	-0.0190002	117.516	42.8082	1	10	0.00488814	0.000689061	0	1.53828e-05	-0.000383823	7.64332e-06	55.0277	0.0110924	0.00635792	-0.00908941	-37.0352	7.09351	5.66251	4.27246	0.112395	0.0850802	0.140966	37.1247	42808.2	56552	70927.2	-52.8753	0.0000000E+000	0.0000000E+000	0.0000000E+000	52.8753	0.0000000E+000	0.0000000E+000	0.0000000E+000	-52.8753	0.0000000E+000	0.0000000E+000	0.0000000E+000	-37.1247	0.0000000E+000	0.0000000E+000	0.0000000E+000	37.1247	1.32105	52.8753	-2.39846e-06	-4.77816e-06	7.29271e-09	-4.78545e-06	0.251863	13235.6	20.201	13255.8
100.032	10.1387	7.7627	12.7692	-37.4395	9.95384	0.25148	-0.0198081	204.96	75.7472	1	10	0.00486888	0.000381298	0	9.19605e-06	-0.000326596	3.26611e-06	91.5952	0.00856576	-0.00023845	-0.00856244	-37.4097	12.7638	10.1384	7.75414	0.0621805	0.0476086	0.0783134	37.4395	75747.2	98931.7	124600	-52.5605	0.0000000E+000	0.0000000E+000	0.0000000E+000	52.5605	0.0000000E+000	0.0000000E+000	0.0000000E+000	-52.5605	0.0000000E+000	0.0000000E+000	0.0000000E+000	-37.4395	0.0000000E+000	0.0000000E+000	0.0000000E+000	37.4395	1.30608	52.5605	-2.60802e-06	-4.98132e-06	6.46924e-09	-4.98779e-06	0.251806	12695.8	16.488	12712.3
31.6296	18.2181	8.58188	20.1382	-25.2234	11.5185	0.251524	-0.00816509	586.333	106.48	1	11	0.00486879	0.000241769	0	2.6739e-06	-0.000154917	1.1003e-05	-62.2743	0.0455104	0.0211732	0.0402851	-25.3013	20.1746	18.2393	8.62217	0.0449222	0.0211612	0.0496568	25.2234	106480	226041	249865	-64.7766	0.0000000E+000	0.0000000E+000	0.0000000E+000	64.7766	0.0000000E+000	0.0000000E+000	0.0000000E+000	-64.7766	0.0000000E+000	0.0000000E+000	0.0000000E+000	-25.2234	0.0000000E+000	0.0000000E+000	0.0000000E+000	25.2234	2.12286	64.7766	-2.05189e-06	-2.05372e-06	1.26492e-09	-2.05498e-06	0.251679	30804.8	18.9731	30823.8
10.0032	24.0808	6.06413	24.8326	-14.1346	12.8509	0.251539	-0.00770924	2623.69	156.461	1	11	0.004858	0.00019563	0	-6.44428e-07	1.67614e-05	6.89868e-06	-53.1367	0.0352639	0.0211551	0.0282136	-14.1858	24.86	24.1019	6.09235	0.0390505	0.00983388	0.0402697	14.1346	156461	621309	640707	-75.8654	0.0000000E+000	0.0000000E+000	0.0000000E+000	75.8654	0.0000000E+000	0.0000000E+000	0.0000000E+000	-75.8654	0.0000000E+000	0.0000000E+000	0.0000000E+000	-14.1346	0.0000000E+000	0.0000000E+000	0.0000000E+000	14.1346	3.97101	75.8654	-2.41243e-06	-1.93917e-06	-1.29217e-10	-1.93904e-06	0.251522	32628.2	2.17419	32626
3.1604	27.2656	4.06962	27.5676	-8.48922	14.3674	0.251538	-0.0064492	12374.4	269.671	1	11	0.00485799	0.000176221	0	-4.58621e-06	-0.000421973	3.01781e-06	-79.8575	0.0171252	0.00301568	0.0168576	-8.52294	27.5731	27.2686	4.08648	0.035877	0.00535495	0.0362744	8.48922	269671	1.80674e+06	1.82675e+06	-81.5108	0.0000000E+000	0.0000000E+000	0.0000000E+000	81.5108	0.0000000E+000	0.0000000E+000	0.0000000E+000	-81.5108	0.0000000E+000	0.0000000E+000	0.0000000E+000	-8.48922	0.0000000E+000	0.0000000E+000	0.0000000E+000	8.48922	6.69978	81.5108	-3.67703e-06	-1.62222e-06	2.72139e-09	-1.62494e-06	0.25196	39003	65.4303	39068.4
1.00006	29.4388	3.26285	29.6191	-6.32457	20.008	0.251539	-0.00674812	48774.7	591.898	1	12	0.00486397	0.000164217	0	-7.63464e-06	1.67614e-05	3.98373e-06	-10.8354	0.0242589	0.0238264	0.0045604	-6.32826	29.6433	29.4626	3.26741	0.0335565	0.00371924	0.033762	6.32457	591898	5.34035e+06	5.37305e+06	-83.6754	0.0000000E+000	0.0000000E+000	0.0000000E+000	83.6754	0.0000000E+000	0.0000000E+000	0.0000000E+000	-83.6754	0.0000000E+000	0.0000000E+000	0.0000000E+000	-6.32457	0.0000000E+000	0.0000000E+000	0.0000000E+000	6.32457	9.02242	83.6754	2.03546e-08	-1.69741e-06	-1.13108e-10	-1.6973e-06	0.251522	37275.3	2.48386	37272.8
0.316193	31.2609	3.50537	31.4568	-6.39801	34.3529	0.251543	-0.00565385	143593	1783.08	1	12	0.00486311	0.000154596	0	-3.87976e-05	-0.000135842	2.93518e-06	5.22691	0.0189861	0.0189071	-0.00172964	-6.39104	31.4754	31.2798	3.50364	0.0315916	0.00354245	0.0317896	6.39801	1.78309e+06	1.59016e+07	1.60012e+07	-83.602	0.0000000E+000	0.0000000E+000	0.0000000E+000	83.602	0.0000000E+000	0.0000000E+000	0.0000000E+000	-83.602	0.0000000E+000	0.0000000E+000	0.0000000E+000	-6.39801	0.0000000E+000	0.0000000E+000	0.0000000E+000	6.39801	8.918	83.602	-2.12567e-05	-1.42219e-06	7.6803e-10	-1.42295e-06	0.251679	44490.5	24.0265	44514.6
0.0999041	33.7332	5.1849	34.1293	-8.73816	79.5609	0.251541	-0.007555	307253	7091.23	1	12	0.00486171	0.00014245	0	-0.00017431	-0.000383823	2.25516e-06	-30.8624	0.0158313	0.0135896	0.0081211	-8.74816	34.144	33.7468	5.19302	0.0289602	0.00445128	0.0293003	8.73816	7.09123e+06	4.61359e+07	4.66777e+07	-81.2618	0.0000000E+000	0.0000000E+000	0.0000000E+000	81.2618	0.0000000E+000	0.0000000E+000	0.0000000E+000	-81.2618	0.0000000E+000	0.0000000E+000	0.0000000E+000	-8.73816	0.0000000E+000	0.0000000E+000	0.0000000E+000	8.73816	6.50605	81.2618	-5.0755e-05	-1.9004e-06	2.89978e-09	-1.9033e-06	0.251925	33294.7	50.8038	33345.5
0.0315922	37.5811	8.51665	38.534	-12.7687	222.444	0.25155	-0.00884594	591523	28894.8	1	12	0.00486138	0.000126158	0	-0.000307939	-0.0004792	3.65614e-06	20.3272	0.0289806	0.0271758	-0.0100673	-12.7452	38.5583	37.6083	8.50658	0.0253093	0.00573561	0.0259511	12.7687	2.88948e+07	1.27503e+08	1.30736e+08	-77.2313	0.0000000E+000	0.0000000E+000	0.0000000E+000	77.2313	0.0000000E+000	0.0000000E+000	0.0000000E+000	-77.2313	0.0000000E+000	0.0000000E+000	0.0000000E+000	-12.7687	0.0000000E+000	0.0000000E+000	0.0000000E+000	12.7687	4.41266	77.2313	-4.95395e-05	-2.22519e-06	4.23897e-09	-2.22943e-06	0.252029	28436.7	54.1717	28490.9
0.0100092	43.8242	16.4177	46.7985	-20.5372	673.668	0.25155	-0.0102739	968525	119198	1	12	0.00486094	0.000103869	0	-0.00161876	-0.0004792	2.17546e-06	4.89279	0.0209441	0.0208678	-0.00178636	-20.5262	46.8174	43.8451	16.4159	0.0200101	0.0074963	0.0213682	20.5372	1.19198e+08	3.18179e+08	3.39774e+08	-69.4628	0.0000000E+000	0.0000000E+000	0.0000000E+000	69.4628	0.0000000E+000	0.0000000E+000	0.0000000E+000	-69.4628	0.0000000E+000	0.0000000E+000	0.0000000E+000	-20.5372	0.0000000E+000	0.0000000E+000	0.0000000E+000	20.5372	2.66933	69.4628	-0.000790349	-2.58439e-06	4.92323e-09	-2.58931e-06	0.252029	24484.4	46.6426	24531.1