File: txt/18350_R257_UA646_SOC00_C05.mpt
EC-Lab ASCII FILE
Nb header lines : 65

Potentio Electrochemical Impedance Spectroscopy

Run on channel : 5 (SN 65912)
User :
CE vs. WE compliance from -10 V to 10 V
Electrode connection : standard
Potential control : Ewe
Ewe ctrl range : min = -10.00 V, max = 10.00 V
Safety Limits :
	Do not start on E overload
Acquisition started on : 10/13/2025 14:40:05.524
Technique started on : 10/13/2025 14:40:07.435
Loaded Setting File :  C:\Users\Celltest\OneDrive - store-dot.com\Documents\EC-Lab\Data\@Biologic Test Protocols\anode half cell EIS SOC00.mps
Saved on :
	File : 18350_R257_UA646_SOC00_C05.mpr
	Directory : C:\Users\Celltest\OneDrive - store-dot.com\Documents\EC-Lab\Data\John\
	Host : 169.254.61.224
Device : VMP-3e (SN .003165)
Address : USB
EC-LAB for windows v11.62 (software)
Internet server v27.00 (firmware)
Command interpretor v12.03 (firmware)
Electrode material :
Initial state :
Electrolyte :
Comments :
Electrode surface area : 0.001 cm²
Characteristic mass : 0.001 g
Equivalent Weight : 0.000 g/eq.
Density : 0.000 g/cm3
Volume (V) : 0.001 cm³
Record Ece
Cycle Definition : Charge/Discharge alternance
Mode                Single sine
E (V)               0.0000
vs.                 Eoc
tE (h:m:s)          0:00:0.0000
record              0
dI                  0.000
unit dI             mA
dt (s)              0.000
fi                  100.000
unit fi             kHz
ff                  10.000
unit ff             mHz
Nd                  6
Points              per decade
spacing             Logarithmic
Va (mV)             5.0
pw                  0.10
Na                  2
corr                0
E range min (V)     -10.000
E range max (V)     10.000
I Range             Auto
Bandwidth           5
nc cycles           0
goto Ns'            0
nr cycles           0
inc. cycle          0

freq/Hz	Re(Z)/Ohm	-Im(Z)/Ohm	|Z|/Ohm	Phase(Z)/deg	time/s	<Ewe>/V	<I>/mA	Cs/µF	Cp/µF	cycle number	I Range	|Ewe|/V	|I|/A	Ns	(Q-Qo)/mA.h	<Ece>/V	|Ece|/V	Phase(Zce)/deg	|Zce|/Ohm	Re(Zce)/Ohm	-Im(Zce)/Ohm	Phase(Zwe-ce)/deg	|Zwe-ce|/Ohm	Re(Zwe-ce)/Ohm	-Im(Zwe-ce)/Ohm	Re(Y)/Ohm-1	Im(Y)/Ohm-1	|Y|/Ohm-1	Phase(Y)/deg	Re(C)/nF	Im(C)/nF	|C|/nF	Phase(C)/deg	Re(M)	Im(M)	|M|	Phase(M)/deg	Re(Permittivity)	Im(Permittivity)	|Permittivity|	Phase(Permittivity)/deg	Re(Resistivity)/Ohm.cm	Im(Resistivity)/Ohm.cm	|Resistivity|/Ohm.cm	Phase(Resistivity)/deg	Re(Conductivity)/mS/cm	Im(Conductivity)/mS/cm	|Conductivity|/mS/cm	Phase(Conductivity)/deg	Tan(Delta)	Loss Angle(Delta)/deg	dq/mA.h	Pwe/W	Pce/W	Pwe-ce/W	<Ewe-Ece>/V	Rwe/Ohm	Rce/Ohm	Rwe-ce/Ohm		Ewe-Ece/V
100004	1.32928	0.49775	1.41941	-20.5285	1.91052	0.25071	-0.0228868	3.19737	0.393186	1	9	0.00464551	0.00327284	0	-2.95931e-06	7.30894e-05	3.67633e-05	100.129	0.0112328	-0.00197545	-0.0110578	-20.1369	1.41372	1.3273	0.486693	0.659778	0.247055	0.704517	20.5285	393.186	1050.03	1121.23	-69.4715	0.0000000E+000	0.0000000E+000	0.0000000E+000	69.4715	0.0000000E+000	0.0000000E+000	0.0000000E+000	-69.4715	0.0000000E+000	0.0000000E+000	0.0000000E+000	-20.5285	0.0000000E+000	0.0000000E+000	0.0000000E+000	20.5285	2.67057	69.4715	-2.95931e-06	-5.73794e-06	-1.67278e-09	-5.73627e-06	0.250637	10954.4	3.19353	10951.2
31621.1	1.77399	0.730671	1.91858	-22.3857	3.43352	0.250683	-0.0215461	6.88844	0.999093	1	9	0.0050165	0.0026147	0	-3.09386e-05	-9.87315e-05	1.17259e-05	-8.95207	0.0044846	0.00442997	0.00069784	-22.3547	1.92294	1.77842	0.731369	0.481941	0.198501	0.52122	22.3857	999.093	2425.7	2623.39	-67.6143	0.0000000E+000	0.0000000E+000	0.0000000E+000	67.6143	0.0000000E+000	0.0000000E+000	0.0000000E+000	-67.6143	0.0000000E+000	0.0000000E+000	0.0000000E+000	-22.3857	0.0000000E+000	0.0000000E+000	0.0000000E+000	22.3857	2.4279	67.6143	-2.54552e-06	-5.40126e-06	2.12728e-09	-5.40338e-06	0.250782	11634.7	4.58233	11639.3
10002.2	2.3566	0.996747	2.55873	-22.9264	4.33455	0.250675	-0.0288824	15.9639	2.42248	1	9	0.0045473	0.00177717	0	-4.2121e-05	0.000111272	1.02978e-05	49.1792	0.00579452	0.00378785	-0.00438505	-22.803	2.56051	2.36039	0.992362	0.359947	0.152243	0.390819	22.9264	2422.48	5727.46	6218.7	-67.0736	0.0000000E+000	0.0000000E+000	0.0000000E+000	67.0736	0.0000000E+000	0.0000000E+000	0.0000000E+000	-67.0736	0.0000000E+000	0.0000000E+000	0.0000000E+000	-22.9264	0.0000000E+000	0.0000000E+000	0.0000000E+000	22.9264	2.3643	67.0736	-3.50725e-06	-7.2401e-06	-3.2138e-09	-7.23688e-06	0.250564	8679.17	3.85258	8675.31
3163.08	3.11867	1.47499	3.44989	-25.312	5.35863	0.250436	-0.0727136	34.1132	6.23575	1	9	0.00470202	0.00136295	0	-5.44496e-05	0.000225819	7.74264e-06	32.5943	0.00568079	0.0047861	-0.00306017	-25.2321	3.45291	3.12346	1.47193	0.262036	0.123931	0.289865	25.312	6235.75	13184.7	14585	-64.688	0.0000000E+000	0.0000000E+000	0.0000000E+000	64.688	0.0000000E+000	0.0000000E+000	0.0000000E+000	-64.688	0.0000000E+000	0.0000000E+000	0.0000000E+000	-25.312	0.0000000E+000	0.0000000E+000	0.0000000E+000	25.312	2.11437	64.688	-6.53714e-06	-1.82101e-05	-1.64201e-08	-1.81937e-05	0.25021	3444.14	3.1056	3441.03
1000.32	4.1107	2.32765	4.72396	-29.5204	6.95678	0.250606	-0.0174277	68.3539	16.5953	1	10	0.00472436	0.00100008	0	-5.68346e-05	3.4907e-05	8.47761e-06	-37.5118	0.0084769	0.00672411	0.00516179	-29.5346	4.73236	4.11742	2.33281	0.184206	0.104305	0.211687	29.5204	16595.3	29307.9	33680.2	-60.4796	0.0000000E+000	0.0000000E+000	0.0000000E+000	60.4796	0.0000000E+000	0.0000000E+000	0.0000000E+000	-60.4796	0.0000000E+000	0.0000000E+000	0.0000000E+000	-29.5204	0.0000000E+000	0.0000000E+000	0.0000000E+000	29.5204	1.76603	60.4796	-2.92408e-06	-4.36748e-06	-6.08348e-10	-4.36687e-06	0.250571	14379.8	2.00296	14377.8
316.316	5.74581	4.49613	7.29586	-38.0433	8.30601	0.250602	-0.017316	111.908	42.4996	1	10	0.00464871	0.000637172	0	-6.26859e-05	0.00024491	1.13092e-05	7.86002	0.0177491	0.0175823	-0.00242724	-37.9434	7.30822	5.7634	4.4937	0.107944	0.0844668	0.137064	38.0433	42499.6	54312.3	68964.1	-51.9567	0.0000000E+000	0.0000000E+000	0.0000000E+000	51.9567	0.0000000E+000	0.0000000E+000	0.0000000E+000	-51.9567	0.0000000E+000	0.0000000E+000	0.0000000E+000	-38.0433	0.0000000E+000	0.0000000E+000	0.0000000E+000	38.0433	1.27795	51.9567	-2.51834e-06	-4.33943e-06	-4.24087e-09	-4.33519e-06	0.250357	14472.3	14.1436	14458.1
100.032	10.4655	8.39486	13.4164	-38.7348	9.65384	0.250604	-0.0176474	189.525	74.2032	1	10	0.00464235	0.00034602	0	-6.89616e-05	0.000149454	7.4613e-06	31.9289	0.0215632	0.0183008	-0.011404	-38.648	13.4236	10.4838	8.38346	0.0581416	0.0466382	0.0745356	38.7348	74203.2	92505.5	118589	-51.2652	0.0000000E+000	0.0000000E+000	0.0000000E+000	51.2652	0.0000000E+000	0.0000000E+000	0.0000000E+000	-51.2652	0.0000000E+000	0.0000000E+000	0.0000000E+000	-38.7348	0.0000000E+000	0.0000000E+000	0.0000000E+000	38.7348	1.24665	51.2652	-2.38022e-06	-4.42251e-06	-2.63748e-09	-4.41987e-06	0.250454	14200.6	8.46891	14192.1
31.6296	19.3177	9.69598	21.6145	-26.653	11.2226	0.250639	-0.00763501	518.962	104.431	1	11	0.00462728	0.000214082	0	-7.3736e-05	0.000149454	1.21882e-05	51.0063	0.0569322	0.0358237	-0.0442486	-26.5057	21.6267	19.3536	9.65173	0.041349	0.020754	0.0462652	26.653	104431	208062	232799	-63.347	0.0000000E+000	0.0000000E+000	0.0000000E+000	63.347	0.0000000E+000	0.0000000E+000	0.0000000E+000	-63.347	0.0000000E+000	0.0000000E+000	0.0000000E+000	-26.653	0.0000000E+000	0.0000000E+000	0.0000000E+000	26.653	1.99235	63.347	-8.99443e-07	-1.91363e-06	-1.14108e-09	-1.91249e-06	0.25049	32827.7	19.5749	32808.1
10.0032	26.2413	7.0486	27.1715	-15.0352	12.5548	0.250651	-0.00681367	2257.24	151.9	1	11	0.0046264	0.000170267	0	-7.70917e-05	0.000130363	8.19885e-06	-97.4903	0.048153	-0.00627715	0.0477421	-15.1358	27.1778	26.235	7.09635	0.0355434	0.00954722	0.0368033	15.0352	151900	565510	585555	-74.9648	0.0000000E+000	0.0000000E+000	0.0000000E+000	74.9648	0.0000000E+000	0.0000000E+000	0.0000000E+000	-74.9648	0.0000000E+000	0.0000000E+000	0.0000000E+000	-15.0352	0.0000000E+000	0.0000000E+000	0.0000000E+000	15.0352	3.72291	74.9648	-7.4146e-07	-1.70785e-06	-8.88251e-10	-1.70696e-06	0.25052	36786.5	19.1326	36767.3
3.1604	30.0088	4.74048	30.381	-8.97679	14.0714	0.250645	-0.00663216	10623.2	258.641	1	11	0.00462089	0.000152098	0	-7.81335e-05	9.21806e-05	6.16644e-06	48.8528	0.0405425	0.0266768	-0.0305294	-8.91212	30.4026	30.0355	4.70995	0.0325122	0.00513593	0.0329153	8.97679	258641	1.63729e+06	1.65759e+06	-81.0232	0.0000000E+000	0.0000000E+000	0.0000000E+000	81.0232	0.0000000E+000	0.0000000E+000	0.0000000E+000	-81.0232	0.0000000E+000	0.0000000E+000	0.0000000E+000	-8.97679	0.0000000E+000	0.0000000E+000	0.0000000E+000	8.97679	6.33034	81.0232	-3.70506e-07	-1.66232e-06	-6.11357e-10	-1.6617e-06	0.250552	37792.3	13.899	37778.4
1.00006	32.5536	3.81824	32.7768	-6.68971	19.7098	0.250658	-0.00548024	41680.1	565.618	1	12	0.00462642	0.000141149	0	-9.44385e-05	-2.23667e-05	2.17767e-06	-82.5272	0.0154281	0.00200652	0.0152971	-6.71586	32.7806	32.5556	3.83354	0.0303017	0.00355411	0.0305094	6.68971	565619	4.82235e+06	4.85541e+06	-83.3103	0.0000000E+000	0.0000000E+000	0.0000000E+000	83.3103	0.0000000E+000	0.0000000E+000	0.0000000E+000	-83.3103	0.0000000E+000	0.0000000E+000	0.0000000E+000	-6.68971	0.0000000E+000	0.0000000E+000	0.0000000E+000	6.68971	8.52581	83.3103	-7.28236e-06	-1.37366e-06	1.22575e-10	-1.37379e-06	0.25068	45738.5	4.08133	45742.6
0.316193	34.765	3.94606	34.9882	-6.47574	34.0521	0.250651	-0.00595758	127557	1622.51	1	12	0.00462466	0.000132178	0	-9.57935e-05	-4.14579e-05	1.89946e-06	2.42306	0.0143705	0.0143577	-0.000607554	-6.4721	35.0024	34.7794	3.94545	0.0283987	0.00322344	0.028581	6.47574	1.62251e+06	1.42944e+07	1.43862e+07	-83.5243	0.0000000E+000	0.0000000E+000	0.0000000E+000	83.5243	0.0000000E+000	0.0000000E+000	0.0000000E+000	-83.5243	0.0000000E+000	0.0000000E+000	0.0000000E+000	-6.47574	0.0000000E+000	0.0000000E+000	0.0000000E+000	6.47574	8.81005	83.5243	4.09479e-07	-1.49327e-06	2.46989e-10	-1.49352e-06	0.250692	42072.6	6.95885	42079.6
0.0999041	37.4622	5.76522	37.9033	-8.74885	79.2599	0.250655	-0.00572891	276326	6392.92	1	12	0.00462514	0.000122025	0	-0.000188899	1.58158e-05	1.24055e-06	25.8741	0.0101663	0.00914722	-0.00443654	-8.74012	37.9116	37.4714	5.76078	0.026076	0.00401294	0.0263829	8.74885	6.39292e+06	4.1541e+07	4.20301e+07	-81.2512	0.0000000E+000	0.0000000E+000	0.0000000E+000	81.2512	0.0000000E+000	0.0000000E+000	0.0000000E+000	-81.2512	0.0000000E+000	0.0000000E+000	0.0000000E+000	-8.74885	0.0000000E+000	0.0000000E+000	0.0000000E+000	8.74885	6.49797	81.2512	-6.00149e-05	-1.43598e-06	-9.06072e-11	-1.43589e-06	0.250639	43752.6	2.7607	43749.8
0.0315922	41.9376	9.11611	42.917	-12.2638	222.143	0.250653	-0.0090407	552625	24933.9	1	12	0.00462346	0.00010773	0	-0.000633163	-2.23667e-05	2.56779e-06	4.87166	0.0238354	0.0237493	-0.0020242	-12.2544	42.9398	41.9614	9.11408	0.0227691	0.00494938	0.0233008	12.2638	2.49339e+07	1.14706e+08	1.17385e+08	-77.7362	0.0000000E+000	0.0000000E+000	0.0000000E+000	77.7362	0.0000000E+000	0.0000000E+000	0.0000000E+000	-77.7362	0.0000000E+000	0.0000000E+000	0.0000000E+000	-12.2638	0.0000000E+000	0.0000000E+000	0.0000000E+000	12.2638	4.60039	77.7362	-0.000190717	-2.26608e-06	2.0221e-10	-2.26628e-06	0.250676	27725	2.474	27727.5
0.0100092	48.7598	16.2461	51.3951	-18.4274	673.365	0.250644	-0.0113375	978750	97797.9	1	12	0.00462383	8.99664e-05	0	-0.00151149	3.4907e-05	2.75574e-06	10.5415	0.0306308	0.0301138	-0.00560383	-18.4109	51.4219	48.7899	16.2405	0.0184595	0.00615046	0.0194571	18.4274	9.77979e+07	2.93522e+08	3.09386e+08	-71.5726	0.0000000E+000	0.0000000E+000	0.0000000E+000	71.5726	0.0000000E+000	0.0000000E+000	0.0000000E+000	-71.5726	0.0000000E+000	0.0000000E+000	0.0000000E+000	-18.4274	0.0000000E+000	0.0000000E+000	0.0000000E+000	18.4274	3.00131	71.5726	-0.000397253	-2.84166e-06	-3.95756e-10	-2.84127e-06	0.250609	22107.6	3.07891	22104.5