File: txt/18355_R257_UA646_SOC00_C01.mpt
EC-Lab ASCII FILE
Nb header lines : 65

Potentio Electrochemical Impedance Spectroscopy

Run on channel : 1 (SN 66354)
User :
CE vs. WE compliance from -10 V to 10 V
Electrode connection : standard
Potential control : Ewe
Ewe ctrl range : min = -10.00 V, max = 10.00 V
Safety Limits :
	Do not start on E overload
Acquisition started on : 10/13/2025 14:53:07.701
Technique started on : 10/13/2025 14:53:09.612
Loaded Setting File :  C:\Users\Celltest\OneDrive - store-dot.com\Documents\EC-Lab\Data\@Biologic Test Protocols\anode half cell EIS SOC00.mps
Saved on :
	File : 18355_R257_UA646_SOC00_C01.mpr
	Directory : C:\Users\Celltest\OneDrive - store-dot.com\Documents\EC-Lab\Data\John\
	Host : 169.254.61.224
Device : VMP-3e (SN .003165)
Address : USB
EC-LAB for windows v11.62 (software)
Internet server v27.00 (firmware)
Command interpretor v12.03 (firmware)
Electrode material :
Initial state :
Electrolyte :
Comments :
Electrode surface area : 0.001 cm²
Characteristic mass : 0.001 g
Equivalent Weight : 0.000 g/eq.
Density : 0.000 g/cm3
Volume (V) : 0.001 cm³
Record Ece
Cycle Definition : Charge/Discharge alternance
Mode                Single sine
E (V)               0.0000
vs.                 Eoc
tE (h:m:s)          0:00:0.0000
record              0
dI                  0.000
unit dI             mA
dt (s)              0.000
fi                  100.000
unit fi             kHz
ff                  10.000
unit ff             mHz
Nd                  6
Points              per decade
spacing             Logarithmic
Va (mV)             5.0
pw                  0.10
Na                  2
corr                0
E range min (V)     -10.000
E range max (V)     10.000
I Range             Auto
Bandwidth           5
nc cycles           0
goto Ns'            0
nr cycles           0
inc. cycle          0

freq/Hz	Re(Z)/Ohm	-Im(Z)/Ohm	|Z|/Ohm	Phase(Z)/deg	time/s	<Ewe>/V	<I>/mA	Cs/µF	Cp/µF	cycle number	I Range	|Ewe|/V	|I|/A	Ns	(Q-Qo)/mA.h	<Ece>/V	|Ece|/V	Phase(Zce)/deg	|Zce|/Ohm	Re(Zce)/Ohm	-Im(Zce)/Ohm	Phase(Zwe-ce)/deg	|Zwe-ce|/Ohm	Re(Zwe-ce)/Ohm	-Im(Zwe-ce)/Ohm	Re(Y)/Ohm-1	Im(Y)/Ohm-1	|Y|/Ohm-1	Phase(Y)/deg	Re(C)/nF	Im(C)/nF	|C|/nF	Phase(C)/deg	Re(M)	Im(M)	|M|	Phase(M)/deg	Re(Permittivity)	Im(Permittivity)	|Permittivity|	Phase(Permittivity)/deg	Re(Resistivity)/Ohm.cm	Im(Resistivity)/Ohm.cm	|Resistivity|/Ohm.cm	Phase(Resistivity)/deg	Re(Conductivity)/mS/cm	Im(Conductivity)/mS/cm	|Conductivity|/mS/cm	Phase(Conductivity)/deg	Tan(Delta)	Loss Angle(Delta)/deg	dq/mA.h	Pwe/W	Pce/W	Pwe-ce/W	<Ewe-Ece>/V	Rwe/Ohm	Rce/Ohm	Rwe-ce/Ohm		Ewe-Ece/V
100004	1.37317	0.483476	1.4558	-19.3965	1.91056	0.254345	0.0761433	3.29176	0.363059	1	9	0.00471738	0.00324041	0	7.13194e-06	-0.000131202	4.1922e-05	92.2751	0.0129373	-0.000513581	-0.0129271	-18.9218	1.45107	1.37266	0.470549	0.647921	0.228125	0.686908	19.3965	363.059	1031.16	1093.21	-70.6035	0.0000000E+000	0.0000000E+000	0.0000000E+000	70.6035	0.0000000E+000	0.0000000E+000	0.0000000E+000	-70.6035	0.0000000E+000	0.0000000E+000	0.0000000E+000	-19.3965	0.0000000E+000	0.0000000E+000	0.0000000E+000	19.3965	2.8402	70.6035	7.13194e-06	1.93666e-05	-9.99012e-09	1.93766e-05	0.254476	3340.34	1.72309	3342.06
31621.1	1.81333	0.736971	1.95737	-22.1178	3.43356	0.25436	0.0746531	6.82956	0.968164	1	9	0.00503578	0.00257273	0	2.33815e-05	0.000116803	1.21208e-05	47.7874	0.00471127	0.00316542	-0.00348943	-21.9884	1.95899	1.81649	0.733481	0.473295	0.192356	0.510891	22.1178	968.164	2382.18	2571.41	-67.8822	0.0000000E+000	0.0000000E+000	0.0000000E+000	67.8822	0.0000000E+000	0.0000000E+000	0.0000000E+000	-67.8822	0.0000000E+000	0.0000000E+000	0.0000000E+000	-22.1178	0.0000000E+000	0.0000000E+000	0.0000000E+000	22.1178	2.46051	67.8822	6.59988e-06	1.89888e-05	8.71975e-09	1.898e-05	0.254243	3407.22	1.56462	3405.66
10002.2	2.38873	1.00747	2.5925	-22.8681	4.33453	0.254372	0.0746531	15.794	2.38517	1	9	0.004502	0.00173655	0	4.44846e-05	9.77262e-05	8.44959e-06	-34.5151	0.00486573	0.00400925	0.00275704	-22.8897	2.59726	2.39274	1.01023	0.355411	0.149898	0.385729	22.8681	2385.17	5655.29	6137.69	-67.132	0.0000000E+000	0.0000000E+000	0.0000000E+000	67.132	0.0000000E+000	0.0000000E+000	0.0000000E+000	-67.132	0.0000000E+000	0.0000000E+000	0.0000000E+000	-22.8681	0.0000000E+000	0.0000000E+000	0.0000000E+000	22.8681	2.37102	67.132	4.40508e-06	1.89897e-05	7.29556e-09	1.89824e-05	0.254274	3407.39	1.30907	3406.08
3163.08	3.16986	1.46913	3.49376	-24.8662	5.35868	0.254146	0.0339714	34.2492	6.05598	1	9	0.00477165	0.00136576	0	6.00934e-05	2.33964e-06	6.54379e-06	-82.5657	0.0047913	0.000619943	0.00475103	-24.9326	3.49632	3.17048	1.47388	0.25969	0.120358	0.286225	24.8662	6055.98	13066.7	14401.8	-65.1338	0.0000000E+000	0.0000000E+000	0.0000000E+000	65.1338	0.0000000E+000	0.0000000E+000	0.0000000E+000	-65.1338	0.0000000E+000	0.0000000E+000	0.0000000E+000	-24.8662	0.0000000E+000	0.0000000E+000	0.0000000E+000	24.8662	2.15765	65.1338	6.96728e-06	8.63368e-06	7.94809e-11	8.6336e-06	0.254143	7481.18	0.0688711	7481.11
1000.32	4.16497	2.32733	4.7711	-29.1959	6.95686	0.254284	-0.00758476	68.3634	16.2668	1	10	0.0047849	0.00100289	0	6.52316e-05	5.95716e-05	7.23583e-06	15.2901	0.00721496	0.00695957	-0.00190263	-29.1352	4.77625	4.17193	2.32542	0.182968	0.10224	0.209595	29.1959	16266.8	29110.9	33347.5	-60.8041	0.0000000E+000	0.0000000E+000	0.0000000E+000	60.8041	0.0000000E+000	0.0000000E+000	0.0000000E+000	-60.8041	0.0000000E+000	0.0000000E+000	0.0000000E+000	-29.1959	0.0000000E+000	0.0000000E+000	0.0000000E+000	29.1959	1.78959	60.8041	-1.54777e-06	-1.92869e-06	-4.51836e-10	-1.92823e-06	0.254225	33525.7	7.85412	33517.9
316.316	5.77888	4.43934	7.2872	-37.5315	8.30609	0.254289	-0.00709654	113.339	42.0627	1	10	0.00471446	0.000646952	0	6.27163e-05	0.000135881	4.55868e-06	79.4209	0.0070464	0.00129367	-0.00692663	-37.4821	7.284	5.78018	4.43241	0.108824	0.0835983	0.137227	37.5315	42062.7	54754.8	69046	-52.4685	0.0000000E+000	0.0000000E+000	0.0000000E+000	52.4685	0.0000000E+000	0.0000000E+000	0.0000000E+000	-52.4685	0.0000000E+000	0.0000000E+000	0.0000000E+000	-37.5315	0.0000000E+000	0.0000000E+000	0.0000000E+000	37.5315	1.30174	52.4685	-1.29008e-06	-1.80457e-06	-9.64283e-10	-1.8036e-06	0.254153	35832.8	19.1475	35813.6
100.032	10.2897	8.3761	13.2679	-39.1465	9.65377	0.254273	-0.00824072	189.95	75.7039	1	10	0.00469243	0.000353667	0	6.03861e-05	5.95716e-05	1.44388e-05	-24.67	0.0408259	0.0370996	0.0170404	-39.1025	13.3074	10.3268	8.39314	0.0584519	0.0475814	0.0753698	39.1465	75703.9	92999.4	119916	-50.8535	0.0000000E+000	0.0000000E+000	0.0000000E+000	50.8535	0.0000000E+000	0.0000000E+000	0.0000000E+000	-50.8535	0.0000000E+000	0.0000000E+000	0.0000000E+000	-39.1465	0.0000000E+000	0.0000000E+000	0.0000000E+000	39.1465	1.22846	50.8535	-1.39947e-06	-2.09539e-06	-4.90913e-10	-2.0949e-06	0.254213	30855.6	7.22893	30848.4
31.6296	19.3075	10.1867	21.83	-27.8164	11.2225	0.254326	0.000101995	493.96	107.561	1	11	0.00469443	0.000215045	0	5.90231e-05	-0.000150279	6.50678e-06	-49.1386	0.0302577	0.0197956	0.0228838	-27.8452	21.8582	19.3273	10.2096	0.0405152	0.0213761	0.0458085	27.8164	107561	203866	230501	-62.1836	0.0000000E+000	0.0000000E+000	0.0000000E+000	62.1836	0.0000000E+000	0.0000000E+000	0.0000000E+000	-62.1836	0.0000000E+000	0.0000000E+000	0.0000000E+000	-27.8164	0.0000000E+000	0.0000000E+000	0.0000000E+000	27.8164	1.89536	62.1836	2.92867e-07	2.594e-08	-1.53277e-11	2.59553e-08	0.254476	2.49352e+06	1473.4	2.49499e+06
10.0032	26.8276	7.73454	27.9203	-16.0826	12.5548	0.254334	0.000535457	2057.06	157.862	1	11	0.00468296	0.000167726	0	5.8096e-05	-0.000131202	2.33847e-06	51.244	0.0139422	0.00872788	-0.0108724	-16.0562	27.9256	26.8363	7.72367	0.0344146	0.00992192	0.0358163	16.0826	157862	547550	569852	-73.9174	0.0000000E+000	0.0000000E+000	0.0000000E+000	73.9174	0.0000000E+000	0.0000000E+000	0.0000000E+000	-73.9174	0.0000000E+000	0.0000000E+000	0.0000000E+000	-16.0826	0.0000000E+000	0.0000000E+000	0.0000000E+000	16.0826	3.46854	73.9174	-6.71424e-07	1.36185e-07	-7.02528e-11	1.36255e-07	0.254465	474985	245.027	475230
3.1604	31.1423	5.41317	31.6092	-9.86067	14.0715	0.254339	0.00204978	9303.09	272.837	1	11	0.00468386	0.00014818	0	6.01364e-05	0.000135881	7.58688e-06	18.8524	0.0512003	0.0484537	-0.0165444	-9.81614	31.6541	31.1907	5.39662	0.031169	0.00541781	0.0316363	9.86067	272836	1.56964e+06	1.59318e+06	-80.1393	0.0000000E+000	0.0000000E+000	0.0000000E+000	80.1393	0.0000000E+000	0.0000000E+000	0.0000000E+000	-80.1393	0.0000000E+000	0.0000000E+000	0.0000000E+000	-9.86067	0.0000000E+000	0.0000000E+000	0.0000000E+000	9.86067	5.75306	80.1393	2.33425e-08	5.2134e-07	2.78526e-10	5.21062e-07	0.254203	124081	66.2903	124015
1.00006	34.1634	4.38926	34.4442	-7.32118	19.3899	0.254353	0.00103065	36257.7	588.779	1	12	0.00468759	0.000136092	0	5.95351e-05	0.000269422	4.21568e-06	-10.314	0.0309766	0.030476	0.00554615	-7.32386	34.4751	34.1938	4.39481	0.0287958	0.00369964	0.0290325	7.32118	588779	4.5827e+06	4.62037e+06	-82.6788	0.0000000E+000	0.0000000E+000	0.0000000E+000	82.6788	0.0000000E+000	0.0000000E+000	0.0000000E+000	-82.6788	0.0000000E+000	0.0000000E+000	0.0000000E+000	-7.32118	0.0000000E+000	0.0000000E+000	0.0000000E+000	7.32118	7.7834	82.6788	2.5537e-06	2.6215e-07	2.7768e-10	2.61872e-07	0.254084	246788	261.409	246527
0.316193	36.8128	4.27953	37.0607	-6.63094	33.7321	0.25434	0.000492638	117617	1568.33	1	12	0.0046925	0.000126617	0	8.06249e-05	9.77262e-05	3.57088e-06	3.16044	0.0282023	0.0281594	-0.00155486	-6.62353	37.0885	36.8409	4.27798	0.0268023	0.00311579	0.0269828	6.63094	1.56833e+06	1.34908e+07	1.35817e+07	-83.3691	0.0000000E+000	0.0000000E+000	0.0000000E+000	83.3691	0.0000000E+000	0.0000000E+000	0.0000000E+000	-83.3691	0.0000000E+000	0.0000000E+000	0.0000000E+000	-6.63094	0.0000000E+000	0.0000000E+000	0.0000000E+000	6.63094	8.60206	83.3691	6.40821e-06	1.25298e-07	4.81437e-11	1.25249e-07	0.254242	516282	198.373	516083
0.0999041	39.469	5.86773	39.9028	-8.45604	78.941	0.254337	-0.00101676	271498	5870.84	1	12	0.00469058	0.00011755	0	2.17314e-05	0.000250345	2.83873e-06	-9.58445	0.0241491	0.023812	0.00402085	-8.45672	39.9269	39.4928	5.87175	0.0247885	0.00368522	0.0250609	8.45604	5.87084e+06	3.949e+07	3.9924e+07	-81.544	0.0000000E+000	0.0000000E+000	0.0000000E+000	81.544	0.0000000E+000	0.0000000E+000	0.0000000E+000	-81.544	0.0000000E+000	0.0000000E+000	0.0000000E+000	-8.45604	0.0000000E+000	0.0000000E+000	0.0000000E+000	8.45604	6.72646	81.544	-3.82718e-05	-2.586e-07	-2.5454e-10	-2.58345e-07	0.254087	250145	246.218	249899
0.0315922	43.9907	9.54494	45.0143	-12.2421	221.824	0.254338	-0.00511497	527797	23730.8	1	12	0.00468953	0.000104179	0	-0.000141855	-0.000321975	2.72273e-06	0.707028	0.0261352	0.0261332	-0.0003225	-12.2346	45.0398	44.0168	9.54462	0.02171	0.00471056	0.0222152	12.2421	2.37308e+07	1.0937e+08	1.11915e+08	-77.7579	0.0000000E+000	0.0000000E+000	0.0000000E+000	77.7579	0.0000000E+000	0.0000000E+000	0.0000000E+000	-77.7579	0.0000000E+000	0.0000000E+000	0.0000000E+000	-12.2421	0.0000000E+000	0.0000000E+000	0.0000000E+000	12.2421	4.6088	77.7579	-4.92233e-05	-1.30093e-06	1.64689e-09	-1.30258e-06	0.25466	49724.2	62.9475	49787.1
0.0100092	51.0972	17.0159	53.8559	-18.4183	673.047	0.254332	-0.00679717	934473	93284.6	1	12	0.00468972	8.70789e-05	0	-0.000486902	0.000174035	2.18565e-06	-30.6685	0.0250996	0.021589	0.0128026	-18.424	53.8805	51.1188	17.0287	0.0176169	0.00586662	0.0185681	18.4183	9.32846e+07	2.80125e+08	2.95249e+08	-71.5817	0.0000000E+000	0.0000000E+000	0.0000000E+000	71.5817	0.0000000E+000	0.0000000E+000	0.0000000E+000	-71.5817	0.0000000E+000	0.0000000E+000	0.0000000E+000	-18.4183	0.0000000E+000	0.0000000E+000	0.0000000E+000	18.4183	3.00291	71.5817	-0.000235041	-1.72874e-06	-1.18295e-09	-1.72755e-06	0.254158	37417.3	25.6041	37391.7