File: txt/18395_R277_UA689_SOC00_C02.mpt
EC-Lab ASCII FILE
Nb header lines : 65

Potentio Electrochemical Impedance Spectroscopy

Run on channel : 2 (SN 66139)
User :
CE vs. WE compliance from -10 V to 10 V
Electrode connection : standard
Potential control : Ewe
Ewe ctrl range : min = -10.00 V, max = 10.00 V
Safety Limits :
	Do not start on E overload
Acquisition started on : 10/13/2025 14:53:41.347
Technique started on : 10/13/2025 14:53:43.258
Loaded Setting File :  C:\Users\Celltest\OneDrive - store-dot.com\Documents\EC-Lab\Data\@Biologic Test Protocols\anode half cell EIS SOC00.mps
Saved on :
	File : 18395_R277_UA689_SOC00_C02.mpr
	Directory : C:\Users\Celltest\OneDrive - store-dot.com\Documents\EC-Lab\Data\Gyutae\
	Host : 169.254.61.224
Device : VMP-3e (SN .003165)
Address : USB
EC-LAB for windows v11.62 (software)
Internet server v27.00 (firmware)
Command interpretor v12.03 (firmware)
Electrode material :
Initial state :
Electrolyte :
Comments :
Electrode surface area : 0.001 cm²
Characteristic mass : 0.001 g
Equivalent Weight : 0.000 g/eq.
Density : 0.000 g/cm3
Volume (V) : 0.001 cm³
Record Ece
Cycle Definition : Charge/Discharge alternance
Mode                Single sine
E (V)               0.0000
vs.                 Eoc
tE (h:m:s)          0:00:0.0000
record              0
dI                  0.000
unit dI             mA
dt (s)              0.000
fi                  100.000
unit fi             kHz
ff                  10.000
unit ff             mHz
Nd                  6
Points              per decade
spacing             Logarithmic
Va (mV)             5.0
pw                  0.10
Na                  2
corr                0
E range min (V)     -10.000
E range max (V)     10.000
I Range             Auto
Bandwidth           5
nc cycles           0
goto Ns'            0
nr cycles           0
inc. cycle          0

freq/Hz	Re(Z)/Ohm	-Im(Z)/Ohm	|Z|/Ohm	Phase(Z)/deg	time/s	<Ewe>/V	<I>/mA	Cs/µF	Cp/µF	cycle number	I Range	|Ewe|/V	|I|/A	Ns	(Q-Qo)/mA.h	<Ece>/V	|Ece|/V	Phase(Zce)/deg	|Zce|/Ohm	Re(Zce)/Ohm	-Im(Zce)/Ohm	Phase(Zwe-ce)/deg	|Zwe-ce|/Ohm	Re(Zwe-ce)/Ohm	-Im(Zwe-ce)/Ohm	Re(Y)/Ohm-1	Im(Y)/Ohm-1	|Y|/Ohm-1	Phase(Y)/deg	Re(C)/nF	Im(C)/nF	|C|/nF	Phase(C)/deg	Re(M)	Im(M)	|M|	Phase(M)/deg	Re(Permittivity)	Im(Permittivity)	|Permittivity|	Phase(Permittivity)/deg	Re(Resistivity)/Ohm.cm	Im(Resistivity)/Ohm.cm	|Resistivity|/Ohm.cm	Phase(Resistivity)/deg	Re(Conductivity)/mS/cm	Im(Conductivity)/mS/cm	|Conductivity|/mS/cm	Phase(Conductivity)/deg	Tan(Delta)	Loss Angle(Delta)/deg	dq/mA.h	Pwe/W	Pce/W	Pwe-ce/W	<Ewe-Ece>/V	Rwe/Ohm	Rce/Ohm	Rwe-ce/Ohm		Ewe-Ece/V
100004	1.68666	0.606736	1.79247	-19.785	1.91055	0.241921	0.00327993	2.62304	0.300538	1	9	0.004521	0.00252222	0	-4.23965e-06	-1.87484e-05	1.48352e-05	94.8929	0.0058818	-0.000501679	-0.00586037	-19.6139	1.79002	1.68616	0.600875	0.524956	0.18884	0.557889	19.785	300.538	835.463	887.875	-70.215	0.0000000E+000	0.0000000E+000	0.0000000E+000	70.215	0.0000000E+000	0.0000000E+000	0.0000000E+000	-70.215	0.0000000E+000	0.0000000E+000	0.0000000E+000	-19.785	0.0000000E+000	0.0000000E+000	0.0000000E+000	19.785	2.7799	70.215	-4.23965e-06	7.93485e-07	-6.14934e-11	7.93547e-07	0.24194	73758	5.71608	73763.8
31621.1	2.23764	0.944854	2.42894	-22.8922	3.43154	0.241904	0.00231151	5.32694	0.806069	1	9	0.00504749	0.00207806	0	-1.47552e-05	3.42479e-07	1.0173e-05	-6.57785	0.00489541	0.00486319	0.000560785	-22.8598	2.43364	2.2425	0.945414	0.379275	0.160151	0.411702	22.8922	806.07	1908.96	2072.17	-67.1078	0.0000000E+000	0.0000000E+000	0.0000000E+000	67.1078	0.0000000E+000	0.0000000E+000	0.0000000E+000	-67.1078	0.0000000E+000	0.0000000E+000	0.0000000E+000	-22.8922	0.0000000E+000	0.0000000E+000	0.0000000E+000	22.8922	2.36824	67.1078	-6.3633e-06	5.59164e-07	7.91645e-13	5.59163e-07	0.241904	104652	0.148162	104652
10002.2	3.0024	1.31357	3.27717	-23.6297	4.45656	0.241903	-0.00383407	12.1135	1.94615	1	9	0.00496731	0.00151573	0	-1.49768e-05	7.67059e-05	6.77354e-06	71.1157	0.00446884	0.00144638	-0.0042283	-23.5518	3.27681	3.00385	1.30934	0.279556	0.122308	0.305141	23.6297	1946.15	4448.29	4855.39	-66.3703	0.0000000E+000	0.0000000E+000	0.0000000E+000	66.3703	0.0000000E+000	0.0000000E+000	0.0000000E+000	-66.3703	0.0000000E+000	0.0000000E+000	0.0000000E+000	-23.6297	0.0000000E+000	0.0000000E+000	0.0000000E+000	23.6297	2.28568	66.3703	-9.34372e-07	-9.27471e-07	-2.94095e-10	-9.27177e-07	0.241826	63093	20.0064	63073
3163.08	4.00117	1.90564	4.43179	-25.4671	5.51267	0.241839	-0.0247464	26.404	4.88193	1	10	0.00481703	0.00108693	0	-1.95905e-05	0.000324887	8.36431e-06	-15.0598	0.00769538	0.00743109	0.00199947	-25.4492	4.43936	4.0086	1.90764	0.203717	0.0970246	0.225642	25.4671	4881.93	10250.3	11353.5	-64.5329	0.0000000E+000	0.0000000E+000	0.0000000E+000	64.5329	0.0000000E+000	0.0000000E+000	0.0000000E+000	-64.5329	0.0000000E+000	0.0000000E+000	0.0000000E+000	-25.4671	0.0000000E+000	0.0000000E+000	0.0000000E+000	25.4671	2.09964	64.5329	-3.25347e-06	-5.98464e-06	-8.03977e-09	-5.9766e-06	0.241514	9772.72	13.1287	9759.59
1000.32	5.31299	3.0413	6.12187	-29.788	6.86586	0.241851	-0.0167409	52.3146	12.9113	1	10	0.00462688	0.000755796	0	-2.4994e-05	0.000267614	3.19687e-06	77.5099	0.00422981	0.000914785	-0.00412971	-29.7502	6.12061	5.3139	3.03717	0.141765	0.0811503	0.163349	29.788	12911.3	22555.4	25989.4	-60.212	0.0000000E+000	0.0000000E+000	0.0000000E+000	60.212	0.0000000E+000	0.0000000E+000	0.0000000E+000	-60.212	0.0000000E+000	0.0000000E+000	0.0000000E+000	-29.788	0.0000000E+000	0.0000000E+000	0.0000000E+000	29.788	1.74695	60.212	-1.51462e-06	-4.04879e-06	-4.4801e-09	-4.04431e-06	0.241583	14446.7	15.9857	14430.7
316.316	7.534	5.76251	9.48513	-37.4112	8.21608	0.241847	-0.0166813	87.3147	32.2273	1	10	0.00455787	0.000480527	0	-3.13643e-05	5.7615e-05	8.50333e-06	-39.5981	0.0176958	0.0136353	0.0112793	-37.4153	9.50282	7.54764	5.77379	0.0837412	0.0640509	0.105428	37.4112	32227.3	42134.5	53046.4	-52.5888	0.0000000E+000	0.0000000E+000	0.0000000E+000	52.5888	0.0000000E+000	0.0000000E+000	0.0000000E+000	-52.5888	0.0000000E+000	0.0000000E+000	0.0000000E+000	-37.4112	0.0000000E+000	0.0000000E+000	0.0000000E+000	37.4112	1.30742	52.5888	-2.37637e-06	-4.03432e-06	-9.61093e-10	-4.03336e-06	0.241789	14498.1	3.45387	14494.6
100.032	13.6116	10.3377	17.0922	-37.2156	9.5638	0.241846	-0.0159214	153.907	56.2997	1	10	0.00455056	0.000266236	0	-3.71612e-05	0.000286705	4.80039e-06	87.0627	0.0180306	0.000923947	-0.0180069	-37.1657	17.0821	13.6126	10.3196	0.0465923	0.0353855	0.0585062	37.2156	56299.7	74130.1	93085.6	-52.7844	0.0000000E+000	0.0000000E+000	0.0000000E+000	52.7844	0.0000000E+000	0.0000000E+000	0.0000000E+000	-52.7844	0.0000000E+000	0.0000000E+000	0.0000000E+000	-37.2156	0.0000000E+000	0.0000000E+000	0.0000000E+000	37.2156	1.31671	52.7844	-2.27902e-06	-3.85052e-06	-4.56473e-09	-3.84596e-06	0.24156	15190.1	18.0076	15172.1
31.6296	24.3841	11.1924	26.8301	-24.6554	11.1435	0.241882	-0.00822844	449.575	78.2361	1	11	0.00455404	0.000169736	0	-4.11431e-05	1.94333e-05	1.12262e-05	-67.6014	0.066139	0.0252021	0.0611492	-24.7515	26.8786	24.4093	11.2536	0.0338736	0.0155482	0.0372716	24.6554	78236.1	170447	187545	-65.3446	0.0000000E+000	0.0000000E+000	0.0000000E+000	65.3446	0.0000000E+000	0.0000000E+000	0.0000000E+000	-65.3446	0.0000000E+000	0.0000000E+000	0.0000000E+000	-24.6554	0.0000000E+000	0.0000000E+000	0.0000000E+000	24.6554	2.17862	65.3446	-9.63307e-07	-1.99031e-06	-1.59906e-10	-1.99015e-06	0.241862	29395.8	2.36173	29393.5
10.0032	31.8703	7.58879	32.7614	-13.3935	12.4748	0.241895	-0.00757446	2096.57	112.494	1	11	0.00454549	0.000138745	0	-4.45261e-05	-5.69301e-05	6.53627e-06	-98.4294	0.0471098	-0.00690585	0.0466009	-13.4756	32.7655	31.8634	7.63539	0.0296936	0.00707047	0.0305238	13.3935	112494	472437	485645	-76.6065	0.0000000E+000	0.0000000E+000	0.0000000E+000	76.6065	0.0000000E+000	0.0000000E+000	0.0000000E+000	-76.6065	0.0000000E+000	0.0000000E+000	0.0000000E+000	-13.3935	0.0000000E+000	0.0000000E+000	0.0000000E+000	13.3935	4.19966	76.6065	-7.62479e-07	-1.83222e-06	4.31214e-10	-1.83265e-06	0.241952	31935.6	7.51606	31943.1
3.1604	35.7778	4.91071	36.1132	-7.81534	13.9914	0.241901	-0.00655508	10255	189.623	1	11	0.00454286	0.000125795	0	-4.58647e-05	0.000133978	6.64222e-06	-3.57193	0.052802	0.0526994	0.00328964	-7.80915	36.1659	35.8305	4.914	0.0274335	0.0037654	0.0276907	7.81534	189623	1.38153e+06	1.39448e+06	-82.1847	0.0000000E+000	0.0000000E+000	0.0000000E+000	82.1847	0.0000000E+000	0.0000000E+000	0.0000000E+000	-82.1847	0.0000000E+000	0.0000000E+000	0.0000000E+000	-7.81534	0.0000000E+000	0.0000000E+000	0.0000000E+000	7.81534	7.28567	82.1847	-3.90974e-07	-1.58568e-06	-8.78239e-10	-1.5848e-06	0.241767	36902.8	20.4389	36882.3
1.00006	38.3315	3.68854	38.5086	-5.4965	19.3119	0.241899	-0.00585259	43145.7	395.851	1	12	0.00454419	0.000118005	0	-5.95311e-05	0.000153069	1.83213e-06	35.9055	0.0155259	0.0125758	-0.00910517	-5.48123	38.5202	38.3441	3.67944	0.0258488	0.00248737	0.0259682	5.4965	395851	4.11371e+06	4.13271e+06	-84.5035	0.0000000E+000	0.0000000E+000	0.0000000E+000	84.5035	0.0000000E+000	0.0000000E+000	0.0000000E+000	-84.5035	0.0000000E+000	0.0000000E+000	0.0000000E+000	-5.4965	0.0000000E+000	0.0000000E+000	0.0000000E+000	5.4965	10.3921	84.5035	-4.27012e-06	-1.41574e-06	-8.95851e-10	-1.41484e-06	0.241746	41332	26.1541	41305.9
0.316193	40.1895	3.56049	40.3469	-5.06275	33.6557	0.241899	-0.00528186	141370	1100.92	1	12	0.00454887	0.000112744	0	-6.32134e-05	3.42479e-07	2.14578e-06	17.6364	0.0190324	0.0181378	-0.00576632	-5.05233	40.3645	40.2077	3.55472	0.0246883	0.0021872	0.024785	5.06275	1.10092e+06	1.24268e+07	1.24755e+07	-84.9372	0.0000000E+000	0.0000000E+000	0.0000000E+000	84.9372	0.0000000E+000	0.0000000E+000	0.0000000E+000	-84.9372	0.0000000E+000	0.0000000E+000	0.0000000E+000	-5.06275	0.0000000E+000	0.0000000E+000	0.0000000E+000	5.06275	11.2876	84.9372	-5.88224e-07	-1.27768e-06	-1.80893e-12	-1.27768e-06	0.241899	45798.1	0.0648407	45798.1
0.0999041	42.066	5.56896	42.433	-7.54132	78.8638	0.241893	-0.00401689	286064	4927.23	1	12	0.00454658	0.000107147	0	-0.000138802	0.000267614	1.27209e-06	-36.4121	0.0118724	0.00955453	0.00704732	-7.54906	42.4434	42.0756	5.57601	0.0233627	0.0030929	0.0235665	7.54132	4.92723e+06	3.72186e+07	3.75433e+07	-82.4587	0.0000000E+000	0.0000000E+000	0.0000000E+000	82.4587	0.0000000E+000	0.0000000E+000	0.0000000E+000	-82.4587	0.0000000E+000	0.0000000E+000	0.0000000E+000	-7.54132	0.0000000E+000	0.0000000E+000	0.0000000E+000	7.54132	7.55365	82.4587	-4.73541e-05	-9.71657e-07	-1.07498e-09	-9.70582e-07	0.241625	60219	66.6223	60152.4
0.0315922	45.882	11.2788	47.2479	-13.8107	221.746	0.241894	-0.00573033	446661	25452.9	1	12	0.00454678	9.62324e-05	0	-0.000452264	0.000114888	1.23731e-06	8.8402	0.0128576	0.0127048	-0.00197594	-13.8047	47.2598	45.8947	11.2768	0.0205531	0.00505239	0.021165	13.8107	2.54529e+07	1.03542e+08	1.06625e+08	-76.1893	0.0000000E+000	0.0000000E+000	0.0000000E+000	76.1893	0.0000000E+000	0.0000000E+000	0.0000000E+000	-76.1893	0.0000000E+000	0.0000000E+000	0.0000000E+000	-13.8107	0.0000000E+000	0.0000000E+000	0.0000000E+000	13.8107	4.06799	76.1893	-0.000123715	-1.38613e-06	-6.58344e-10	-1.38548e-06	0.241779	42213	20.049	42192.9
0.0100092	54.5641	23.855	59.5509	-23.6146	672.969	0.241886	-0.00648251	666565	106961	1	12	0.00454698	7.63545e-05	0	-0.00081024	0.000382159	1.40441e-06	-2.38853	0.0183933	0.0183773	0.000766552	-23.6082	59.568	54.5825	23.8558	0.0153862	0.00672672	0.0167924	23.6146	1.06961e+08	2.44654e+08	2.67014e+08	-66.3854	0.0000000E+000	0.0000000E+000	0.0000000E+000	66.3854	0.0000000E+000	0.0000000E+000	0.0000000E+000	-66.3854	0.0000000E+000	0.0000000E+000	0.0000000E+000	-23.6146	0.0000000E+000	0.0000000E+000	0.0000000E+000	23.6146	2.28732	66.3854	-0.000161058	-1.56803e-06	-2.47735e-09	-1.56555e-06	0.241503	37313.6	58.9524	37254.6