File: txt/18392_R277_UA689_SOC00_C02.mpt
EC-Lab ASCII FILE
Nb header lines : 65

Potentio Electrochemical Impedance Spectroscopy

Run on channel : 2 (SN 66139)
User :
CE vs. WE compliance from -10 V to 10 V
Electrode connection : standard
Potential control : Ewe
Ewe ctrl range : min = -10.00 V, max = 10.00 V
Safety Limits :
	Do not start on E overload
Acquisition started on : 10/13/2025 15:08:52.903
Technique started on : 10/13/2025 15:08:54.630
Loaded Setting File :  C:\Users\Celltest\OneDrive - store-dot.com\Documents\EC-Lab\Data\@Biologic Test Protocols\anode half cell EIS SOC00.mps
Saved on :
	File : 18392_R277_UA689_SOC00_C02.mpr
	Directory : C:\Users\Celltest\OneDrive - store-dot.com\Documents\EC-Lab\Data\Gyutae\
	Host : 169.254.61.224
Device : VMP-3e (SN .003165)
Address : USB
EC-LAB for windows v11.62 (software)
Internet server v27.00 (firmware)
Command interpretor v12.03 (firmware)
Electrode material :
Initial state :
Electrolyte :
Comments :
Electrode surface area : 0.001 cm²
Characteristic mass : 0.001 g
Equivalent Weight : 0.000 g/eq.
Density : 0.000 g/cm3
Volume (V) : 0.001 cm³
Record Ece
Cycle Definition : Charge/Discharge alternance
Mode                Single sine
E (V)               0.0000
vs.                 Eoc
tE (h:m:s)          0:00:0.0000
record              0
dI                  0.000
unit dI             mA
dt (s)              0.000
fi                  100.000
unit fi             kHz
ff                  10.000
unit ff             mHz
Nd                  6
Points              per decade
spacing             Logarithmic
Va (mV)             5.0
pw                  0.10
Na                  2
corr                0
E range min (V)     -10.000
E range max (V)     10.000
I Range             Auto
Bandwidth           5
nc cycles           0
goto Ns'            0
nr cycles           0
inc. cycle          0

freq/Hz	Re(Z)/Ohm	-Im(Z)/Ohm	|Z|/Ohm	Phase(Z)/deg	time/s	<Ewe>/V	<I>/mA	Cs/µF	Cp/µF	cycle number	I Range	|Ewe|/V	|I|/A	Ns	(Q-Qo)/mA.h	<Ece>/V	|Ece|/V	Phase(Zce)/deg	|Zce|/Ohm	Re(Zce)/Ohm	-Im(Zce)/Ohm	Phase(Zwe-ce)/deg	|Zwe-ce|/Ohm	Re(Zwe-ce)/Ohm	-Im(Zwe-ce)/Ohm	Re(Y)/Ohm-1	Im(Y)/Ohm-1	|Y|/Ohm-1	Phase(Y)/deg	Re(C)/nF	Im(C)/nF	|C|/nF	Phase(C)/deg	Re(M)	Im(M)	|M|	Phase(M)/deg	Re(Permittivity)	Im(Permittivity)	|Permittivity|	Phase(Permittivity)/deg	Re(Resistivity)/Ohm.cm	Im(Resistivity)/Ohm.cm	|Resistivity|/Ohm.cm	Phase(Resistivity)/deg	Re(Conductivity)/mS/cm	Im(Conductivity)/mS/cm	|Conductivity|/mS/cm	Phase(Conductivity)/deg	Tan(Delta)	Loss Angle(Delta)/deg	dq/mA.h	Pwe/W	Pce/W	Pwe-ce/W	<Ewe-Ece>/V	Rwe/Ohm	Rce/Ohm	Rwe-ce/Ohm		Ewe-Ece/V
100004	1.08739	0.435831	1.17148	-21.8411	1.72655	0.23607	0.0027585	3.65162	0.505419	1	9	0.00451981	0.0038582	0	-5.59094e-06	0.000133978	2.48403e-05	76.9012	0.0064383	0.00145912	-0.00627078	-21.5297	1.17052	1.08885	0.429561	0.792346	0.317576	0.85362	21.8411	505.419	1261.01	1358.53	-68.1589	0.0000000E+000	0.0000000E+000	0.0000000E+000	68.1589	0.0000000E+000	0.0000000E+000	0.0000000E+000	-68.1589	0.0000000E+000	0.0000000E+000	0.0000000E+000	-21.8411	0.0000000E+000	0.0000000E+000	0.0000000E+000	21.8411	2.49498	68.1589	-5.59094e-06	6.512e-07	3.6958e-10	6.5083e-07	0.235936	85578.9	48.5692	85530.3
31621.1	1.4704	0.633238	1.60096	-23.2995	3.24755	0.236057	-0.00118957	7.94832	1.24351	1	9	0.00508531	0.00317642	0	-1.15327e-05	0.00017216	1.00137e-05	10.4811	0.0031525	0.0030999	-0.000573476	-23.2369	1.60358	1.4735	0.632665	0.573688	0.247063	0.624626	23.2995	1243.51	2887.47	3143.86	-66.7005	0.0000000E+000	0.0000000E+000	0.0000000E+000	66.7005	0.0000000E+000	0.0000000E+000	0.0000000E+000	-66.7005	0.0000000E+000	0.0000000E+000	0.0000000E+000	-23.2995	0.0000000E+000	0.0000000E+000	0.0000000E+000	23.2995	2.32203	66.7005	-5.2565e-06	-2.80806e-07	-2.04796e-10	-2.80601e-07	0.235885	198439	144.725	198295
10002.2	1.95374	0.869365	2.13843	-23.9878	4.27254	0.23605	-0.00428099	18.303	3.02506	1	9	0.00505444	0.00236362	0	-7.15988e-06	9.57967e-05	5.23192e-06	-79.8154	0.00221352	0.000391394	0.00217864	-24.0369	2.13968	1.95413	0.871544	0.427243	0.190112	0.467632	23.9878	3025.06	6798.28	7440.94	-66.0122	0.0000000E+000	0.0000000E+000	0.0000000E+000	66.0122	0.0000000E+000	0.0000000E+000	0.0000000E+000	-66.0122	0.0000000E+000	0.0000000E+000	0.0000000E+000	-23.9878	0.0000000E+000	0.0000000E+000	0.0000000E+000	23.9878	2.24732	66.0122	-1.96336e-06	-1.01053e-06	-4.10105e-10	-1.01012e-06	0.235954	55139.1	22.3772	55116.7
3163.08	2.56772	1.30984	2.88251	-27.027	5.17261	0.235863	-0.0575799	38.4141	7.93206	1	9	0.00455132	0.00157894	0	-1.48329e-05	0.000534886	7.38618e-06	110.076	0.00467794	-0.00160581	-0.00439369	-26.9636	2.87909	2.56612	1.30545	0.309033	0.157644	0.346919	27.027	7932.06	15549.5	17455.7	-62.973	0.0000000E+000	0.0000000E+000	0.0000000E+000	62.973	0.0000000E+000	0.0000000E+000	0.0000000E+000	-62.973	0.0000000E+000	0.0000000E+000	0.0000000E+000	-27.027	0.0000000E+000	0.0000000E+000	0.0000000E+000	27.027	1.96033	62.973	-7.08253e-06	-1.3581e-05	-3.07987e-08	-1.35502e-05	0.235328	4096.27	9.28946	4086.98
1000.32	3.39863	2.31683	4.1132	-34.2821	6.98585	0.235978	-0.0290341	68.6731	21.788	1	10	0.00493316	0.00119935	0	-1.40046e-05	0.000286705	1.68933e-05	-71.1604	0.0140853	0.00454843	0.0133307	-34.3995	4.12447	3.40318	2.33016	0.200884	0.136942	0.24312	34.2821	21788	31961.4	38681.4	-55.7179	0.0000000E+000	0.0000000E+000	0.0000000E+000	55.7179	0.0000000E+000	0.0000000E+000	0.0000000E+000	-55.7179	0.0000000E+000	0.0000000E+000	0.0000000E+000	-34.2821	0.0000000E+000	0.0000000E+000	0.0000000E+000	34.2821	1.46693	55.7179	-2.65775e-06	-6.85142e-06	-8.32423e-09	-6.8431e-06	0.235692	8127.63	9.87477	8117.76
316.316	5.28105	4.75925	7.10914	-42.025	8.335	0.235959	-0.0288963	105.721	47.3809	1	10	0.00483029	0.000679448	0	-2.4809e-05	0.000191251	6.44483e-06	56.2703	0.00948538	0.005267	-0.00788868	-41.9493	7.10778	5.28632	4.75136	0.104493	0.0941681	0.140664	42.025	47380.8	52575.7	70775.3	-47.975	0.0000000E+000	0.0000000E+000	0.0000000E+000	47.975	0.0000000E+000	0.0000000E+000	0.0000000E+000	-47.975	0.0000000E+000	0.0000000E+000	0.0000000E+000	-42.025	0.0000000E+000	0.0000000E+000	0.0000000E+000	42.025	1.10964	47.975	-2.8956e-06	-6.81833e-06	-5.52644e-09	-6.8128e-06	0.235767	8165.71	6.61853	8159.09
100.032	10.6789	8.01083	13.3496	-36.8755	9.68283	0.23596	-0.0283189	198.611	71.5187	1	10	0.00478707	0.000358592	0	-3.4646e-05	0.000133978	4.3406e-06	-38.3119	0.0121046	0.00949782	0.00750414	-36.8768	13.3617	10.6884	8.01833	0.0599223	0.0449509	0.0749084	36.8755	71518.7	95338.8	119182	-53.1245	0.0000000E+000	0.0000000E+000	0.0000000E+000	53.1245	0.0000000E+000	0.0000000E+000	0.0000000E+000	-53.1245	0.0000000E+000	0.0000000E+000	0.0000000E+000	-36.8755	0.0000000E+000	0.0000000E+000	0.0000000E+000	36.8755	1.33306	53.1245	-3.46806e-06	-6.68212e-06	-3.79412e-09	-6.67832e-06	0.235826	8332.24	4.73106	8327.51
31.6296	18.3306	7.16601	19.6816	-21.3521	11.2475	0.235996	-0.0139905	702.182	93.0862	1	11	0.00478806	0.000243277	0	-4.48286e-05	-5.69301e-05	7.76281e-06	-139.22	0.0319094	-0.0241625	0.0208419	-21.4342	19.6667	18.3065	7.18685	0.0473215	0.0184994	0.050809	21.3521	93086.2	238114	255663	-68.6479	0.0000000E+000	0.0000000E+000	0.0000000E+000	68.6479	0.0000000E+000	0.0000000E+000	0.0000000E+000	-68.6479	0.0000000E+000	0.0000000E+000	0.0000000E+000	-21.3521	0.0000000E+000	0.0000000E+000	0.0000000E+000	21.3521	2.558	68.6479	-3.44027e-06	-3.3017e-06	7.96479e-10	-3.30249e-06	0.236053	16868.3	4.0692	16872.4
10.0032	22.4551	4.41879	22.8857	-11.1326	12.5788	0.236008	-0.0135912	3600.62	134.232	1	11	0.00478673	0.000209158	0	-4.84184e-05	9.57967e-05	7.85379e-06	8.91264	0.0375496	0.0370962	-0.00581749	-11.1004	22.921	22.4922	4.41298	0.0428731	0.00843672	0.0436953	11.1326	134232	682128	695210	-78.8674	0.0000000E+000	0.0000000E+000	0.0000000E+000	78.8674	0.0000000E+000	0.0000000E+000	0.0000000E+000	-78.8674	0.0000000E+000	0.0000000E+000	0.0000000E+000	-11.1326	0.0000000E+000	0.0000000E+000	0.0000000E+000	11.1326	5.08173	78.8674	-1.44921e-07	-3.20762e-06	-1.30199e-09	-3.20632e-06	0.235912	17364.8	7.04845	17357.8
3.1604	24.5397	2.88206	24.7084	-6.6984	14.0965	0.23601	-0.0122282	17473.3	237.735	1	11	0.00478688	0.000193735	0	-5.42335e-05	0.00017216	3.7079e-06	-97.869	0.0191391	-0.00262031	0.0189588	-6.74278	24.708	24.5371	2.90102	0.0401958	0.00472079	0.0404721	6.6984	237735	2.02423e+06	2.03814e+06	-83.3016	0.0000000E+000	0.0000000E+000	0.0000000E+000	83.3016	0.0000000E+000	0.0000000E+000	0.0000000E+000	-83.3016	0.0000000E+000	0.0000000E+000	0.0000000E+000	-6.6984	0.0000000E+000	0.0000000E+000	0.0000000E+000	6.6984	8.51464	83.3016	-5.51232e-07	-2.88598e-06	-2.10521e-09	-2.88388e-06	0.235838	19300.5	14.0789	19286.4
1.00006	26.0436	2.28467	26.1436	-5.01342	19.7347	0.236011	-0.00974798	69657.7	531.966	1	12	0.0047894	0.000183196	0	-6.98129e-05	0.000324887	6.07576e-06	9.0504	0.0331654	0.0327525	-0.00521702	-4.99578	26.1758	26.0764	2.27945	0.0381039	0.00334265	0.0382502	5.01342	531966	6.06404e+06	6.08733e+06	-84.9866	0.0000000E+000	0.0000000E+000	0.0000000E+000	84.9866	0.0000000E+000	0.0000000E+000	0.0000000E+000	-84.9866	0.0000000E+000	0.0000000E+000	0.0000000E+000	-5.01342	0.0000000E+000	0.0000000E+000	0.0000000E+000	5.01342	11.3993	84.9866	-1.25323e-05	-2.30063e-06	-3.16699e-09	-2.29747e-06	0.235686	24211.3	33.3286	24178
0.316193	27.3152	2.46527	27.4262	-5.15714	34.0779	0.236008	-0.0094881	204175	1649.69	1	12	0.00479084	0.000174681	0	-0.000123926	0.000191251	1.91967e-06	-0.239094	0.0109895	0.0109895	4.5859e-05	-5.15517	27.4371	27.3262	2.46532	0.0363139	0.00327743	0.0364615	5.15714	1.64969e+06	1.82785e+07	1.83528e+07	-84.8429	0.0000000E+000	0.0000000E+000	0.0000000E+000	84.8429	0.0000000E+000	0.0000000E+000	0.0000000E+000	-84.8429	0.0000000E+000	0.0000000E+000	0.0000000E+000	-5.15714	0.0000000E+000	0.0000000E+000	0.0000000E+000	5.15714	11.08	84.8429	-1.82783e-05	-2.23927e-06	-1.81461e-09	-2.23745e-06	0.235817	24874.1	20.1569	24853.9
0.0999041	28.6271	4.12083	28.9222	-8.19137	79.2872	0.236003	-0.00656014	386592	7848.01	1	12	0.00479036	0.000165629	0	-0.000133918	0.000191251	3.23992e-06	32.391	0.0195613	0.0165178	-0.0104789	-8.16618	28.937	28.6436	4.11035	0.0342228	0.00492632	0.0345756	8.19137	7.84802e+06	5.45196e+07	5.50816e+07	-81.8086	0.0000000E+000	0.0000000E+000	0.0000000E+000	81.8086	0.0000000E+000	0.0000000E+000	0.0000000E+000	-81.8086	0.0000000E+000	0.0000000E+000	0.0000000E+000	-8.19137	0.0000000E+000	0.0000000E+000	0.0000000E+000	8.19137	6.94693	81.8086	2.10146e-06	-1.54821e-06	-1.25463e-09	-1.54696e-06	0.235812	35975.3	29.1535	35946.1
0.0315922	31.4553	8.89958	32.69	-15.7977	222.172	0.236	-0.00404362	566070	41954.7	1	12	0.00479048	0.000146543	0	-0.000400253	-7.60209e-05	2.75868e-06	-10.3207	0.0188251	0.0185205	0.00337266	-15.7946	32.7087	31.4738	8.90296	0.029435	0.00832799	0.0305904	15.7977	4.19547e+07	1.48287e+08	1.54108e+08	-74.2023	0.0000000E+000	0.0000000E+000	0.0000000E+000	74.2023	0.0000000E+000	0.0000000E+000	0.0000000E+000	-74.2023	0.0000000E+000	0.0000000E+000	0.0000000E+000	-15.7977	0.0000000E+000	0.0000000E+000	0.0000000E+000	15.7977	3.53446	74.2023	-0.000180351	-9.54296e-07	3.074e-10	-9.54603e-07	0.236076	58363.6	18.8002	58382.4
0.0100092	38.3726	18.5014	42.6	-25.7411	673.395	0.235996	-0.00559522	859445	162109	1	12	0.00479027	0.000112448	0	-0.0014531	0.000248523	2.19737e-06	24.0663	0.0195413	0.0178427	-0.00796881	-25.721	42.6126	38.3905	18.4934	0.0211447	0.0101949	0.0234742	25.7411	1.62109e+08	3.36221e+08	3.73261e+08	-64.2589	0.0000000E+000	0.0000000E+000	0.0000000E+000	64.2589	0.0000000E+000	0.0000000E+000	0.0000000E+000	-64.2589	0.0000000E+000	0.0000000E+000	0.0000000E+000	-25.7411	0.0000000E+000	0.0000000E+000	0.0000000E+000	25.7411	2.07404	64.2589	-0.000358534	-1.32045e-06	-1.39054e-09	-1.31906e-06	0.235747	42178.1	44.4171	42133.7