File: txt/18391_R277_UA689_SOC00_C01.mpt
EC-Lab ASCII FILE
Nb header lines : 65

Potentio Electrochemical Impedance Spectroscopy

Run on channel : 1 (SN 66354)
User :
CE vs. WE compliance from -10 V to 10 V
Electrode connection : standard
Potential control : Ewe
Ewe ctrl range : min = -10.00 V, max = 10.00 V
Safety Limits :
	Do not start on E overload
Acquisition started on : 10/13/2025 15:08:45.965
Technique started on : 10/13/2025 15:08:47.876
Loaded Setting File :  C:\Users\Celltest\OneDrive - store-dot.com\Documents\EC-Lab\Data\@Biologic Test Protocols\anode half cell EIS SOC00.mps
Saved on :
	File : 18391_R277_UA689_SOC00_C01.mpr
	Directory : C:\Users\Celltest\OneDrive - store-dot.com\Documents\EC-Lab\Data\Gyutae\
	Host : 169.254.61.224
Device : VMP-3e (SN .003165)
Address : USB
EC-LAB for windows v11.62 (software)
Internet server v27.00 (firmware)
Command interpretor v12.03 (firmware)
Electrode material :
Initial state :
Electrolyte :
Comments :
Electrode surface area : 0.001 cm²
Characteristic mass : 0.001 g
Equivalent Weight : 0.000 g/eq.
Density : 0.000 g/cm3
Volume (V) : 0.001 cm³
Record Ece
Cycle Definition : Charge/Discharge alternance
Mode                Single sine
E (V)               0.0000
vs.                 Eoc
tE (h:m:s)          0:00:0.0000
record              0
dI                  0.000
unit dI             mA
dt (s)              0.000
fi                  100.000
unit fi             kHz
ff                  10.000
unit ff             mHz
Nd                  6
Points              per decade
spacing             Logarithmic
Va (mV)             5.0
pw                  0.10
Na                  2
corr                0
E range min (V)     -10.000
E range max (V)     10.000
I Range             Auto
Bandwidth           5
nc cycles           0
goto Ns'            0
nr cycles           0
inc. cycle          0

freq/Hz	Re(Z)/Ohm	-Im(Z)/Ohm	|Z|/Ohm	Phase(Z)/deg	time/s	<Ewe>/V	<I>/mA	Cs/µF	Cp/µF	cycle number	I Range	|Ewe|/V	|I|/A	Ns	(Q-Qo)/mA.h	<Ece>/V	|Ece|/V	Phase(Zce)/deg	|Zce|/Ohm	Re(Zce)/Ohm	-Im(Zce)/Ohm	Phase(Zwe-ce)/deg	|Zwe-ce|/Ohm	Re(Zwe-ce)/Ohm	-Im(Zwe-ce)/Ohm	Re(Y)/Ohm-1	Im(Y)/Ohm-1	|Y|/Ohm-1	Phase(Y)/deg	Re(C)/nF	Im(C)/nF	|C|/nF	Phase(C)/deg	Re(M)	Im(M)	|M|	Phase(M)/deg	Re(Permittivity)	Im(Permittivity)	|Permittivity|	Phase(Permittivity)/deg	Re(Resistivity)/Ohm.cm	Im(Resistivity)/Ohm.cm	|Resistivity|/Ohm.cm	Phase(Resistivity)/deg	Re(Conductivity)/mS/cm	Im(Conductivity)/mS/cm	|Conductivity|/mS/cm	Phase(Conductivity)/deg	Tan(Delta)	Loss Angle(Delta)/deg	dq/mA.h	Pwe/W	Pce/W	Pwe-ce/W	<Ewe-Ece>/V	Rwe/Ohm	Rce/Ohm	Rwe-ce/Ohm		Ewe-Ece/V
100004	1.08502	0.397612	1.15557	-20.1257	1.91055	0.236252	0.0718963	4.00263	0.473878	1	9	0.00475664	0.00411626	0	1.42667e-05	-0.000169356	4.79225e-05	88.9802	0.0116423	0.000207204	-0.0116404	-19.5785	1.15182	1.08522	0.385971	0.812531	0.297758	0.86537	20.1257	473.878	1293.13	1377.23	-69.8743	0.0000000E+000	0.0000000E+000	0.0000000E+000	69.8743	0.0000000E+000	0.0000000E+000	0.0000000E+000	-69.8743	0.0000000E+000	0.0000000E+000	0.0000000E+000	-20.1257	0.0000000E+000	0.0000000E+000	0.0000000E+000	20.1257	2.72883	69.8743	1.42667e-05	1.69857e-05	-1.21761e-08	1.69978e-05	0.236421	3286.01	2.35556	3288.37
31621.1	1.41611	0.570024	1.52653	-21.9261	3.43152	0.236258	0.0695865	8.82977	1.23119	1	9	0.00509717	0.00333905	0	5.74e-05	0.000154958	1.40735e-05	-0.694664	0.00421481	0.0042145	5.10999e-05	-21.869	1.53046	1.42033	0.570075	0.607695	0.244614	0.655079	21.9261	1231.19	3058.64	3297.13	-68.0739	0.0000000E+000	0.0000000E+000	0.0000000E+000	68.0739	0.0000000E+000	0.0000000E+000	0.0000000E+000	-68.0739	0.0000000E+000	0.0000000E+000	0.0000000E+000	-21.9261	0.0000000E+000	0.0000000E+000	0.0000000E+000	21.9261	2.4843	68.0739	2.45419e-05	1.64404e-05	1.0783e-08	1.64296e-05	0.236103	3395.17	2.22684	3392.95
10002.2	1.85824	0.804452	2.02489	-23.4083	4.58055	0.236265	0.0694003	19.7799	3.12191	1	9	0.00492859	0.002434	0	8.19272e-05	0.000383886	6.92118e-06	-36.2252	0.00284354	0.00229388	0.00168042	-23.4262	2.02766	1.86053	0.806132	0.453208	0.196199	0.493854	23.4083	3121.91	7211.43	7858.18	-66.5917	0.0000000E+000	0.0000000E+000	0.0000000E+000	66.5917	0.0000000E+000	0.0000000E+000	0.0000000E+000	-66.5917	0.0000000E+000	0.0000000E+000	0.0000000E+000	-23.4083	0.0000000E+000	0.0000000E+000	0.0000000E+000	23.4083	2.30994	66.5917	1.0018e-05	1.63968e-05	2.66418e-08	1.63702e-05	0.235881	3404.37	5.53147	3398.84
3163.08	2.4311	1.22928	2.72422	-26.8233	5.60562	0.236001	-0.00715743	40.9317	8.33442	1	9	0.00493445	0.00181133	0	9.14192e-05	-1.67377e-05	1.04891e-05	-31.1021	0.00579083	0.00495838	0.00299134	-26.8323	2.73	2.43606	1.23227	0.327581	0.16564	0.367077	26.8233	8334.42	16482.7	18470	-63.1767	0.0000000E+000	0.0000000E+000	0.0000000E+000	63.1767	0.0000000E+000	0.0000000E+000	0.0000000E+000	-63.1767	0.0000000E+000	0.0000000E+000	0.0000000E+000	-26.8233	0.0000000E+000	0.0000000E+000	0.0000000E+000	26.8233	1.97767	63.1767	-1.28557e-06	-1.68916e-06	1.19799e-10	-1.68928e-06	0.236017	32972.8	2.3385	32975.2
1000.32	3.27005	2.21331	3.94867	-34.0918	7.20581	0.236167	-0.0173456	71.885	22.5851	1	10	0.00495638	0.0012552	0	0.000108331	2.1417e-05	8.60683e-06	-114.567	0.00685692	-0.00285076	0.00623622	-34.1899	3.94981	3.2672	2.21955	0.209726	0.141952	0.25325	34.0918	22585.1	33368.3	40293.1	-55.9082	0.0000000E+000	0.0000000E+000	0.0000000E+000	55.9082	0.0000000E+000	0.0000000E+000	0.0000000E+000	-55.9082	0.0000000E+000	0.0000000E+000	0.0000000E+000	-34.0918	0.0000000E+000	0.0000000E+000	0.0000000E+000	34.0918	1.47745	55.9082	-1.62867e-06	-4.09646e-06	-3.7149e-10	-4.09609e-06	0.236146	13615.4	1.23472	13614.2
316.316	5.14852	4.40745	6.77738	-40.5656	8.55505	0.236171	-0.0185159	114.159	48.2795	1	10	0.00483824	0.000713881	0	0.000101578	0.000441118	1.06233e-05	70.3231	0.0148811	0.0050107	-0.0140121	-40.4479	6.77209	5.15353	4.39344	0.112088	0.0959541	0.14755	40.5656	48279.5	56397.2	74239.9	-49.4344	0.0000000E+000	0.0000000E+000	0.0000000E+000	49.4344	0.0000000E+000	0.0000000E+000	0.0000000E+000	-49.4344	0.0000000E+000	0.0000000E+000	0.0000000E+000	-40.5656	0.0000000E+000	0.0000000E+000	0.0000000E+000	40.5656	1.16814	49.4344	-1.80746e-06	-4.37291e-06	-8.16768e-09	-4.36474e-06	0.235729	12755	23.8238	12731.2
100.032	10.1339	6.76311	12.1834	-33.7181	9.90184	0.236173	-0.0171742	235.253	72.4918	1	10	0.00479384	0.000393472	0	9.61928e-05	-7.39696e-05	2.20797e-05	-134.507	0.056115	-0.0393362	0.0400194	-33.9776	12.173	10.0946	6.80313	0.0682713	0.0455625	0.0820787	33.7181	72491.8	108622	130591	-56.2819	0.0000000E+000	0.0000000E+000	0.0000000E+000	56.2819	0.0000000E+000	0.0000000E+000	0.0000000E+000	-56.2819	0.0000000E+000	0.0000000E+000	0.0000000E+000	-33.7181	0.0000000E+000	0.0000000E+000	0.0000000E+000	33.7181	1.49841	56.2819	-2.61391e-06	-4.05608e-06	1.27037e-09	-4.05735e-06	0.236247	13751.6	4.30702	13755.9
31.6296	16.2457	5.47713	17.1442	-18.6311	11.4666	0.236205	-0.00455364	918.701	93.7662	1	11	0.00482017	0.000281155	0	9.05752e-05	-0.000245665	9.45014e-06	-16.9457	0.0336119	0.0321525	0.0097967	-18.6278	17.1778	16.2779	5.48692	0.0552721	0.0186346	0.0583288	18.6311	93766.2	278120	293501	-71.3689	0.0000000E+000	0.0000000E+000	0.0000000E+000	71.3689	0.0000000E+000	0.0000000E+000	0.0000000E+000	-71.3689	0.0000000E+000	0.0000000E+000	0.0000000E+000	-18.6311	0.0000000E+000	0.0000000E+000	0.0000000E+000	18.6311	2.96611	71.3689	-1.42765e-06	-1.07559e-06	1.11867e-09	-1.07671e-06	0.236451	51871.7	53.9492	51925.6
10.0032	19.1095	3.22173	19.3792	-9.56969	12.7988	0.236213	-0.00409784	4938.46	136.49	1	11	0.00480161	0.000247771	0	8.94518e-05	0.000326654	1.31807e-06	-51.2988	0.00531971	0.0033262	0.00415159	-9.58016	19.3832	19.1128	3.22589	0.0508837	0.00857864	0.0516017	9.56969	136490	809579	821004	-80.4303	0.0000000E+000	0.0000000E+000	0.0000000E+000	80.4303	0.0000000E+000	0.0000000E+000	0.0000000E+000	-80.4303	0.0000000E+000	0.0000000E+000	0.0000000E+000	-9.56969	0.0000000E+000	0.0000000E+000	0.0000000E+000	9.56969	5.93144	80.4303	-1.53569e-06	-9.67961e-07	-1.33857e-09	-9.66622e-07	0.235886	57643.3	79.7138	57563.6
3.1604	20.6647	2.09423	20.7705	-5.78679	14.3154	0.236225	-0.00259524	24046.7	244.46	1	11	0.00481322	0.000231733	0	8.58039e-05	-7.39696e-05	5.36969e-06	4.53866	0.0231719	0.0230992	-0.00183363	-5.77534	20.7933	20.6878	2.09239	0.0478998	0.00485432	0.0481451	5.78679	244460	2.41219e+06	2.42455e+06	-84.2132	0.0000000E+000	0.0000000E+000	0.0000000E+000	84.2132	0.0000000E+000	0.0000000E+000	0.0000000E+000	-84.2132	0.0000000E+000	0.0000000E+000	0.0000000E+000	-5.78679	0.0000000E+000	0.0000000E+000	0.0000000E+000	5.78679	9.86745	84.2132	-2.90796e-06	-6.13059e-07	1.91968e-10	-6.13251e-07	0.236299	91022.5	28.5021	91051
1.00006	21.7579	1.7579	21.8288	-4.6191	19.955	0.236222	-0.0028565	90531.3	587.12	1	12	0.00481113	0.000220403	0	9.41137e-05	0.000307577	3.01313e-06	43.6611	0.013671	0.0098901	-0.00943834	-4.59233	21.8379	21.7678	1.74846	0.0456623	0.00368922	0.0458111	4.6191	587121	7.26692e+06	7.2906e+06	-85.3809	0.0000000E+000	0.0000000E+000	0.0000000E+000	85.3809	0.0000000E+000	0.0000000E+000	0.0000000E+000	-85.3809	0.0000000E+000	0.0000000E+000	0.0000000E+000	-4.6191	0.0000000E+000	0.0000000E+000	0.0000000E+000	4.6191	12.3772	85.3809	3.66874e-06	-6.74768e-07	-8.78592e-10	-6.73889e-07	0.235915	82696.4	107.676	82588.8
0.316193	22.6962	2.08406	22.7917	-5.24642	34.2962	0.236228	-0.00164	241523	2019.41	1	12	0.00480907	0.000211001	0	5.75519e-05	4.04943e-05	2.16247e-06	5.45447	0.0102486	0.0102022	-0.000974178	-5.24164	22.8017	22.7064	2.08308	0.0436919	0.00401197	0.0438757	5.24642	2.01941e+06	2.19922e+07	2.20847e+07	-84.7536	0.0000000E+000	0.0000000E+000	0.0000000E+000	84.7536	0.0000000E+000	0.0000000E+000	0.0000000E+000	-84.7536	0.0000000E+000	0.0000000E+000	0.0000000E+000	-5.24642	0.0000000E+000	0.0000000E+000	0.0000000E+000	5.24642	10.8904	84.7536	-2.24334e-05	-3.87414e-07	-6.64108e-11	-3.87348e-07	0.236187	144041	24.6916	144016
0.0999041	24.0717	3.84031	24.3761	-9.06437	79.5052	0.236226	-0.0042819	414831	10296.1	1	12	0.00481118	0.000197373	0	5.49865e-06	-7.39696e-05	2.39999e-06	17.1761	0.0121596	0.0116173	-0.00359086	-9.05173	24.387	24.0833	3.83671	0.0405115	0.00646305	0.0410238	9.06437	1.02961e+07	6.45379e+07	6.53541e+07	-80.9356	0.0000000E+000	0.0000000E+000	0.0000000E+000	80.9356	0.0000000E+000	0.0000000E+000	0.0000000E+000	-80.9356	0.0000000E+000	0.0000000E+000	0.0000000E+000	-9.06437	0.0000000E+000	0.0000000E+000	0.0000000E+000	9.06437	6.26817	80.9356	1.8619e-07	-1.0115e-06	3.16731e-10	-1.01181e-06	0.2363	55168.4	17.2749	55185.6
0.0315922	27.0671	7.98169	28.2194	-16.43	222.388	0.236226	-0.002561	631169	50493.9	1	12	0.00480855	0.000170398	0	0.000151192	0.000307577	2.42256e-06	10.3529	0.014217	0.0139855	-0.00255495	-16.417	28.2321	27.0811	7.97913	0.0339896	0.010023	0.0354366	16.43	5.04939e+07	1.71232e+08	1.78522e+08	-73.57	0.0000000E+000	0.0000000E+000	0.0000000E+000	73.57	0.0000000E+000	0.0000000E+000	0.0000000E+000	-73.57	0.0000000E+000	0.0000000E+000	0.0000000E+000	-16.43	0.0000000E+000	0.0000000E+000	0.0000000E+000	16.43	3.39115	73.57	4.76526e-05	-6.04974e-07	-7.87704e-10	-6.04186e-07	0.235918	92239.6	120.1	92119.5
0.0100092	32.6777	16.4564	36.5875	-26.7297	673.61	0.236222	-0.0034808	966246	195475	1	12	0.00481138	0.000131504	0	-0.000801788	2.1417e-05	3.05119e-06	8.82977	0.0232023	0.0229274	-0.00356154	-26.7086	36.6063	32.7006	16.4528	0.024411	0.0122933	0.0273318	26.7297	1.95475e+08	3.88158e+08	4.346e+08	-63.2703	0.0000000E+000	0.0000000E+000	0.0000000E+000	63.2703	0.0000000E+000	0.0000000E+000	0.0000000E+000	-63.2703	0.0000000E+000	0.0000000E+000	0.0000000E+000	-26.7297	0.0000000E+000	0.0000000E+000	0.0000000E+000	26.7297	1.98571	63.2703	-0.000574952	-8.22241e-07	-7.45481e-11	-8.22166e-07	0.236201	67864.3	6.15289	67858.1