File: txt/18394_R277_UA689_SOC00_C04.mpt
EC-Lab ASCII FILE
Nb header lines : 65

Potentio Electrochemical Impedance Spectroscopy

Run on channel : 4 (SN 66756)
User :
CE vs. WE compliance from -10 V to 10 V
Electrode connection : standard
Potential control : Ewe
Ewe ctrl range : min = -10.00 V, max = 10.00 V
Safety Limits :
	Do not start on E overload
Acquisition started on : 10/13/2025 15:09:07.772
Technique started on : 10/13/2025 15:09:09.498
Loaded Setting File :  C:\Users\Celltest\OneDrive - store-dot.com\Documents\EC-Lab\Data\@Biologic Test Protocols\anode half cell EIS SOC00.mps
Saved on :
	File : 18394_R277_UA689_SOC00_C04.mpr
	Directory : C:\Users\Celltest\OneDrive - store-dot.com\Documents\EC-Lab\Data\Gyutae\
	Host : 169.254.61.224
Device : VMP-3e (SN .003165)
Address : USB
EC-LAB for windows v11.62 (software)
Internet server v27.00 (firmware)
Command interpretor v12.03 (firmware)
Electrode material :
Initial state :
Electrolyte :
Comments :
Electrode surface area : 0.001 cm²
Characteristic mass : 0.001 g
Equivalent Weight : 0.000 g/eq.
Density : 0.000 g/cm3
Volume (V) : 0.001 cm³
Record Ece
Cycle Definition : Charge/Discharge alternance
Mode                Single sine
E (V)               0.0000
vs.                 Eoc
tE (h:m:s)          0:00:0.0000
record              0
dI                  0.000
unit dI             mA
dt (s)              0.000
fi                  100.000
unit fi             kHz
ff                  10.000
unit ff             mHz
Nd                  6
Points              per decade
spacing             Logarithmic
Va (mV)             5.0
pw                  0.10
Na                  2
corr                0
E range min (V)     -10.000
E range max (V)     10.000
I Range             Auto
Bandwidth           5
nc cycles           0
goto Ns'            0
nr cycles           0
inc. cycle          0

freq/Hz	Re(Z)/Ohm	-Im(Z)/Ohm	|Z|/Ohm	Phase(Z)/deg	time/s	<Ewe>/V	<I>/mA	Cs/µF	Cp/µF	cycle number	I Range	|Ewe|/V	|I|/A	Ns	(Q-Qo)/mA.h	<Ece>/V	|Ece|/V	Phase(Zce)/deg	|Zce|/Ohm	Re(Zce)/Ohm	-Im(Zce)/Ohm	Phase(Zwe-ce)/deg	|Zwe-ce|/Ohm	Re(Zwe-ce)/Ohm	-Im(Zwe-ce)/Ohm	Re(Y)/Ohm-1	Im(Y)/Ohm-1	|Y|/Ohm-1	Phase(Y)/deg	Re(C)/nF	Im(C)/nF	|C|/nF	Phase(C)/deg	Re(M)	Im(M)	|M|	Phase(M)/deg	Re(Permittivity)	Im(Permittivity)	|Permittivity|	Phase(Permittivity)/deg	Re(Resistivity)/Ohm.cm	Im(Resistivity)/Ohm.cm	|Resistivity|/Ohm.cm	Phase(Resistivity)/deg	Re(Conductivity)/mS/cm	Im(Conductivity)/mS/cm	|Conductivity|/mS/cm	Phase(Conductivity)/deg	Tan(Delta)	Loss Angle(Delta)/deg	dq/mA.h	Pwe/W	Pce/W	Pwe-ce/W	<Ewe-Ece>/V	Rwe/Ohm	Rce/Ohm	Rwe-ce/Ohm		Ewe-Ece/V
100004	1.50166	0.574777	1.60791	-20.9449	1.72556	0.249131	-0.0502993	2.76888	0.35382	1	9	0.00473013	0.00294179	0	-1.13361e-05	-0.000168381	3.44273e-05	105.147	0.0117028	-0.00305795	-0.0112962	-20.6064	1.60104	1.49861	0.563481	0.580833	0.22232	0.621927	20.9449	353.82	924.39	989.791	-69.0551	0.0000000E+000	0.0000000E+000	0.0000000E+000	69.0551	0.0000000E+000	0.0000000E+000	0.0000000E+000	-69.0551	0.0000000E+000	0.0000000E+000	0.0000000E+000	-20.9449	0.0000000E+000	0.0000000E+000	0.0000000E+000	20.9449	2.6126	69.0551	-1.13361e-05	-1.25311e-05	8.46947e-09	-1.25396e-05	0.2493	4952.97	3.34758	4956.32
31621.1	2.03269	0.896163	2.22147	-23.7915	3.24855	0.249127	-0.0487329	5.61637	0.914004	1	9	0.00520291	0.0023421	0	-4.13229e-05	4.18282e-05	9.7751e-06	-48.7059	0.00417365	0.00275429	0.00313579	-23.8368	2.22526	2.03544	0.899299	0.411898	0.181596	0.450152	23.7915	914.004	2073.16	2265.7	-66.2085	0.0000000E+000	0.0000000E+000	0.0000000E+000	66.2085	0.0000000E+000	0.0000000E+000	0.0000000E+000	-66.2085	0.0000000E+000	0.0000000E+000	0.0000000E+000	-23.7915	0.0000000E+000	0.0000000E+000	0.0000000E+000	23.7915	2.26822	66.2085	-1.65006e-06	-1.21407e-05	-2.03841e-09	-1.21387e-05	0.249086	5112.1	0.858315	5111.24
10002.2	2.7509	1.22006	3.00932	-23.9179	4.27554	0.249115	-0.0432502	13.0419	2.14372	1	9	0.00460115	0.00152897	0	-5.63756e-05	8.00481e-05	1.05001e-05	9.14645	0.00686744	0.00678012	-0.00109164	-23.8467	3.01508	2.75768	1.21897	0.303765	0.134724	0.332301	23.9179	2143.72	4833.5	5287.55	-66.0821	0.0000000E+000	0.0000000E+000	0.0000000E+000	66.0821	0.0000000E+000	0.0000000E+000	0.0000000E+000	-66.0821	0.0000000E+000	0.0000000E+000	0.0000000E+000	-23.9179	0.0000000E+000	0.0000000E+000	0.0000000E+000	23.9179	2.25473	66.0821	-2.58815e-06	-1.07743e-05	-3.4621e-09	-1.07708e-05	0.249035	5759.86	1.85081	5758.01
3163.08	3.68885	1.76734	4.09037	-25.5992	5.50568	0.249033	-0.0340849	28.4702	5.31503	1	10	0.00488981	0.00119544	0	-6.8004e-05	-0.000187491	1.07505e-05	-19.4906	0.00899289	0.00847756	0.00300049	-25.5859	4.09931	3.69733	1.77034	0.220479	0.105632	0.244477	25.5992	5315.02	11093.7	12301.2	-64.4008	0.0000000E+000	0.0000000E+000	0.0000000E+000	64.4008	0.0000000E+000	0.0000000E+000	0.0000000E+000	-64.4008	0.0000000E+000	0.0000000E+000	0.0000000E+000	-25.5992	0.0000000E+000	0.0000000E+000	0.0000000E+000	25.5992	2.08723	64.4008	-6.42084e-06	-8.48826e-06	6.39061e-09	-8.49465e-06	0.249221	7306.27	5.50072	7311.77
1000.32	4.83704	2.86605	5.62239	-30.6476	6.85878	0.249042	-0.0226258	55.5134	14.4252	1	10	0.00470662	0.000837122	0	-7.62141e-05	-0.000187491	9.48378e-06	63.6508	0.011329	0.00502829	-0.010152	-30.5325	5.62155	4.84207	2.8559	0.153017	0.0906655	0.17786	30.6476	14425.2	24345.6	28298.3	-59.3524	0.0000000E+000	0.0000000E+000	0.0000000E+000	59.3524	0.0000000E+000	0.0000000E+000	0.0000000E+000	-59.3524	0.0000000E+000	0.0000000E+000	0.0000000E+000	-30.6476	0.0000000E+000	0.0000000E+000	0.0000000E+000	30.6476	1.68771	59.3524	-2.33151e-06	-5.63478e-06	4.24213e-09	-5.63902e-06	0.24923	11007	8.28663	11015.3
316.316	6.84004	5.71982	8.91642	-39.9032	8.20905	0.249042	-0.0230436	87.9664	36.1993	1	10	0.00464109	0.00052051	0	-8.41892e-05	4.18282e-05	9.2344e-06	54.9606	0.017741	0.0101858	-0.0145256	-39.7896	8.91493	6.85023	5.7053	0.0860355	0.0719451	0.112153	39.9032	36199.3	43288.9	56429.8	-50.0968	0.0000000E+000	0.0000000E+000	0.0000000E+000	50.0968	0.0000000E+000	0.0000000E+000	0.0000000E+000	-50.0968	0.0000000E+000	0.0000000E+000	0.0000000E+000	-39.9032	0.0000000E+000	0.0000000E+000	0.0000000E+000	39.9032	1.19585	50.0968	-2.57136e-06	-5.73881e-06	-9.6387e-10	-5.73785e-06	0.249	10807.4	1.81518	10805.6
100.032	12.8087	10.7398	16.7154	-39.9792	9.55679	0.249034	-0.0224169	148.144	61.1566	1	10	0.00462171	0.000276493	0	-9.19196e-05	0.000137378	1.27575e-05	-10.9516	0.0461402	0.0452999	0.00876567	-39.9026	16.7558	12.854	10.7486	0.0458426	0.0384381	0.059825	39.9792	61156.6	72937.4	95183.9	-50.0208	0.0000000E+000	0.0000000E+000	0.0000000E+000	50.0208	0.0000000E+000	0.0000000E+000	0.0000000E+000	-50.0208	0.0000000E+000	0.0000000E+000	0.0000000E+000	-39.9792	0.0000000E+000	0.0000000E+000	0.0000000E+000	39.9792	1.19263	50.0208	-2.8387e-06	-5.58258e-06	-3.07959e-09	-5.5795e-06	0.248897	11109.2	6.12832	11103.1
31.6296	24.52	12.3789	27.4676	-26.7868	11.1256	0.249092	-0.00993082	406.486	82.5596	1	11	0.00463104	0.0001686	0	-9.85095e-05	0.000252038	2.9701e-06	72.678	0.0176163	0.00524508	-0.0168173	-26.7506	27.4647	24.5253	12.3621	0.0324997	0.0164074	0.0364065	26.7868	82559.6	163534	183192	-63.2132	0.0000000E+000	0.0000000E+000	0.0000000E+000	63.2132	0.0000000E+000	0.0000000E+000	0.0000000E+000	-63.2132	0.0000000E+000	0.0000000E+000	0.0000000E+000	-26.7868	0.0000000E+000	0.0000000E+000	0.0000000E+000	26.7868	1.98079	63.2132	-8.57815e-07	-2.47369e-06	-2.50294e-09	-2.47119e-06	0.24884	25082.7	25.3793	25057.4
10.0032	32.9049	8.45045	33.9726	-14.4031	12.4588	0.249081	-0.00946373	1882.79	116.494	1	11	0.00461321	0.000135792	0	-0.000102196	-0.000111051	1.09602e-05	-78.7467	0.0807132	0.0157509	0.0791614	-14.5257	34.0077	32.9206	8.52962	0.0285103	0.00732186	0.0294354	14.4031	116494	453610	468330	-75.5969	0.0000000E+000	0.0000000E+000	0.0000000E+000	75.5969	0.0000000E+000	0.0000000E+000	0.0000000E+000	-75.5969	0.0000000E+000	0.0000000E+000	0.0000000E+000	-14.4031	0.0000000E+000	0.0000000E+000	0.0000000E+000	14.4031	3.89386	75.5969	-2.08013e-06	-2.35724e-06	1.05096e-09	-2.35829e-06	0.249192	26319.6	11.7344	26331.3
3.1604	37.2743	5.38687	37.6616	-8.22343	13.9755	0.249087	-0.00832453	9348.5	191.258	1	11	0.00461316	0.00012249	0	-0.0001067	-0.000149271	1.65553e-06	57.2555	0.0135156	0.00731053	-0.0113679	-8.20473	37.6672	37.2816	5.3755	0.0262793	0.00379787	0.0265523	8.22343	191258	1.3234e+06	1.33715e+06	-81.7766	0.0000000E+000	0.0000000E+000	0.0000000E+000	81.7766	0.0000000E+000	0.0000000E+000	0.0000000E+000	-81.7766	0.0000000E+000	0.0000000E+000	0.0000000E+000	-8.22343	0.0000000E+000	0.0000000E+000	0.0000000E+000	8.22343	6.91948	81.7766	-3.24648e-06	-2.07353e-06	1.24261e-09	-2.07477e-06	0.249236	29922	17.9315	29939.9
1.00006	40.1341	4.04029	40.3369	-5.74859	19.2938	0.249099	-0.00683751	39389.4	395.184	1	12	0.00462073	0.000114553	0	-0.000112134	-5.37216e-05	3.62634e-06	31.8721	0.0316564	0.0268835	-0.0167153	-5.72116	40.362	40.161	4.02358	0.0246665	0.00248317	0.0247912	5.74859	395184	3.92554e+06	3.94538e+06	-84.2514	0.0000000E+000	0.0000000E+000	0.0000000E+000	84.2514	0.0000000E+000	0.0000000E+000	0.0000000E+000	-84.2514	0.0000000E+000	0.0000000E+000	0.0000000E+000	-5.74859	0.0000000E+000	0.0000000E+000	0.0000000E+000	5.74859	9.93346	84.2514	-8.08256e-07	-1.70322e-06	3.67322e-10	-1.70359e-06	0.249153	36431.3	7.85689	36439.1
0.316193	42.2719	3.77188	42.4399	-5.09895	33.6371	0.249096	-0.00530724	133447	1054.09	1	12	0.00462082	0.000108879	0	-0.000145274	0.000156488	2.49779e-06	16.6569	0.0229409	0.0219783	-0.00657577	-5.08747	42.4612	42.2939	3.76531	0.0234695	0.00209416	0.0235628	5.09895	1.05409e+06	1.18133e+07	1.18602e+07	-84.9011	0.0000000E+000	0.0000000E+000	0.0000000E+000	84.9011	0.0000000E+000	0.0000000E+000	0.0000000E+000	-84.9011	0.0000000E+000	0.0000000E+000	0.0000000E+000	-5.09895	0.0000000E+000	0.0000000E+000	0.0000000E+000	5.09895	11.2071	84.9011	-1.90336e-05	-1.32201e-06	-8.30519e-10	-1.32118e-06	0.24894	46935.2	29.4857	46905.7
0.0999041	44.3051	5.49831	44.645	-7.07429	78.8463	0.249109	-0.00551029	289740	4394.61	1	12	0.00461853	0.00010345	0	-0.000237053	-9.19415e-05	3.564e-06	2.17364	0.0344514	0.0344266	-0.00130668	-7.06719	44.679	44.3395	5.497	0.0222284	0.00275857	0.0223989	7.07429	4.39462e+06	3.54116e+07	3.56832e+07	-82.9257	0.0000000E+000	0.0000000E+000	0.0000000E+000	82.9257	0.0000000E+000	0.0000000E+000	0.0000000E+000	-82.9257	0.0000000E+000	0.0000000E+000	0.0000000E+000	-7.07429	0.0000000E+000	0.0000000E+000	0.0000000E+000	7.07429	8.05795	82.9257	-3.09328e-05	-1.37266e-06	5.06624e-10	-1.37317e-06	0.249201	45207.9	16.6854	45224.6
0.0315922	47.6077	10.9877	48.8592	-12.9961	221.731	0.249107	-0.00434363	458496	23187.4	1	12	0.00462242	9.46069e-05	0	-0.000268482	-9.19415e-05	2.70725e-06	-12.5995	0.0286158	0.0279267	0.00624212	-12.9958	48.8879	47.6357	10.9939	0.0199427	0.00460269	0.020467	12.9961	2.31874e+07	1.00467e+08	1.03108e+08	-77.004	0.0000000E+000	0.0000000E+000	0.0000000E+000	77.004	0.0000000E+000	0.0000000E+000	0.0000000E+000	-77.004	0.0000000E+000	0.0000000E+000	0.0000000E+000	-12.9961	0.0000000E+000	0.0000000E+000	0.0000000E+000	12.9961	4.33284	77.004	-4.20134e-06	-1.08203e-06	3.9936e-10	-1.08243e-06	0.249199	57350	21.167	57371.1
0.0100092	55.9508	24.1999	60.96	-23.3895	672.953	0.249107	-0.00451306	657066	103549	1	12	0.00462012	7.57894e-05	0	-0.00100414	8.00481e-05	1.47305e-06	30.832	0.0194361	0.0166893	-0.00996142	-23.3747	60.9714	55.9675	24.1899	0.0150562	0.00651214	0.0164042	23.3895	1.03549e+08	2.39408e+08	2.60842e+08	-66.6105	0.0000000E+000	0.0000000E+000	0.0000000E+000	66.6105	0.0000000E+000	0.0000000E+000	0.0000000E+000	-66.6105	0.0000000E+000	0.0000000E+000	0.0000000E+000	-23.3895	0.0000000E+000	0.0000000E+000	0.0000000E+000	23.3895	2.31203	66.6105	-0.000454406	-1.12424e-06	-3.61262e-10	-1.12387e-06	0.249027	55196.9	17.737	55179.2