File: txt/18396_R277_UA690_SOC00_C05.mpt
EC-Lab ASCII FILE
Nb header lines : 65

Potentio Electrochemical Impedance Spectroscopy

Run on channel : 5 (SN 65912)
User :
CE vs. WE compliance from -10 V to 10 V
Electrode connection : standard
Potential control : Ewe
Ewe ctrl range : min = -10.00 V, max = 10.00 V
Safety Limits :
	Do not start on E overload
Acquisition started on : 10/13/2025 14:56:20.136
Technique started on : 10/13/2025 14:56:22.190
Loaded Setting File :  C:\Users\Celltest\OneDrive - store-dot.com\Documents\EC-Lab\Data\@Biologic Test Protocols\anode half cell EIS SOC00.mps
Saved on :
	File : 18396_R277_UA690_SOC00_C05.mpr
	Directory : C:\Users\Celltest\OneDrive - store-dot.com\Documents\EC-Lab\Data\Gyutae\
	Host : 169.254.61.224
Device : VMP-3e (SN .003165)
Address : USB
EC-LAB for windows v11.62 (software)
Internet server v27.00 (firmware)
Command interpretor v12.03 (firmware)
Electrode material :
Initial state :
Electrolyte :
Comments :
Electrode surface area : 0.001 cm²
Characteristic mass : 0.001 g
Equivalent Weight : 0.000 g/eq.
Density : 0.000 g/cm3
Volume (V) : 0.001 cm³
Record Ece
Cycle Definition : Charge/Discharge alternance
Mode                Single sine
E (V)               0.0000
vs.                 Eoc
tE (h:m:s)          0:00:0.0000
record              0
dI                  0.000
unit dI             mA
dt (s)              0.000
fi                  100.000
unit fi             kHz
ff                  10.000
unit ff             mHz
Nd                  6
Points              per decade
spacing             Logarithmic
Va (mV)             5.0
pw                  0.10
Na                  2
corr                0
E range min (V)     -10.000
E range max (V)     10.000
I Range             Auto
Bandwidth           5
nc cycles           0
goto Ns'            0
nr cycles           0
inc. cycle          0

freq/Hz	Re(Z)/Ohm	-Im(Z)/Ohm	|Z|/Ohm	Phase(Z)/deg	time/s	<Ewe>/V	<I>/mA	Cs/µF	Cp/µF	cycle number	I Range	|Ewe|/V	|I|/A	Ns	(Q-Qo)/mA.h	<Ece>/V	|Ece|/V	Phase(Zce)/deg	|Zce|/Ohm	Re(Zce)/Ohm	-Im(Zce)/Ohm	Phase(Zwe-ce)/deg	|Zwe-ce|/Ohm	Re(Zwe-ce)/Ohm	-Im(Zwe-ce)/Ohm	Re(Y)/Ohm-1	Im(Y)/Ohm-1	|Y|/Ohm-1	Phase(Y)/deg	Re(C)/nF	Im(C)/nF	|C|/nF	Phase(C)/deg	Re(M)	Im(M)	|M|	Phase(M)/deg	Re(Permittivity)	Im(Permittivity)	|Permittivity|	Phase(Permittivity)/deg	Re(Resistivity)/Ohm.cm	Im(Resistivity)/Ohm.cm	|Resistivity|/Ohm.cm	Phase(Resistivity)/deg	Re(Conductivity)/mS/cm	Im(Conductivity)/mS/cm	|Conductivity|/mS/cm	Phase(Conductivity)/deg	Tan(Delta)	Loss Angle(Delta)/deg	dq/mA.h	Pwe/W	Pce/W	Pwe-ce/W	<Ewe-Ece>/V	Rwe/Ohm	Rce/Ohm	Rwe-ce/Ohm		Ewe-Ece/V
100004	1.11846	0.377688	1.18051	-18.6591	2.05356	0.234093	-0.00449027	4.21377	0.43132	1	9	0.0050418	0.00427087	0	-5.06425e-06	-0.000117823	4.75253e-05	72.4143	0.0111278	0.00336206	-0.0106077	-18.119	1.18035	1.12182	0.36708	0.802569	0.271016	0.847093	18.6591	431.32	1277.28	1348.14	-71.3409	0.0000000E+000	0.0000000E+000	0.0000000E+000	71.3409	0.0000000E+000	0.0000000E+000	0.0000000E+000	-71.3409	0.0000000E+000	0.0000000E+000	0.0000000E+000	-18.6591	0.0000000E+000	0.0000000E+000	0.0000000E+000	18.6591	2.96133	71.3409	-5.06425e-06	-1.05114e-06	5.29056e-10	-1.05167e-06	0.234211	52133.5	26.2396	52159.7
31621.1	1.44684	0.546368	1.54656	-20.688	3.33052	0.234049	-0.0133534	9.21207	1.14973	1	9	0.00533748	0.00345119	0	-1.07023e-06	7.30894e-05	1.24729e-05	13.528	0.0036141	0.00351383	-0.000845414	-20.6129	1.54955	1.45035	0.545523	0.604902	0.228429	0.646596	20.688	1149.73	3044.58	3254.44	-69.312	0.0000000E+000	0.0000000E+000	0.0000000E+000	69.312	0.0000000E+000	0.0000000E+000	0.0000000E+000	-69.312	0.0000000E+000	0.0000000E+000	0.0000000E+000	-20.688	0.0000000E+000	0.0000000E+000	0.0000000E+000	20.688	2.6481	69.312	-3.7529e-06	-3.12535e-06	-9.7599e-10	-3.12437e-06	0.233976	17527.4	5.47349	17521.9
10002.2	1.87021	0.756948	2.01759	-22.0351	4.47953	0.234027	-0.0077674	21.0212	2.95887	1	9	0.00510357	0.00252954	0	-3.8783e-06	0.000264002	8.99494e-06	-58.2322	0.00355595	0.00187213	0.00302323	-22.0947	2.02046	1.87208	0.759972	0.459437	0.185953	0.495642	22.0351	2958.87	7310.54	7886.63	-67.9649	0.0000000E+000	0.0000000E+000	0.0000000E+000	67.9649	0.0000000E+000	0.0000000E+000	0.0000000E+000	-67.9649	0.0000000E+000	0.0000000E+000	0.0000000E+000	-22.0351	0.0000000E+000	0.0000000E+000	0.0000000E+000	22.0351	2.47072	67.9649	2.07389e-06	-1.81778e-06	-2.05061e-09	-1.81573e-06	0.233763	30129.4	33.9884	30095.4
3163.08	2.45797	1.10992	2.69695	-24.3019	5.80767	0.233989	-0.0362559	45.3336	7.67811	1	9	0.00511023	0.00189482	0	-1.00814e-05	9.21806e-05	9.83466e-06	12.8882	0.00519029	0.00505953	-0.00115769	-24.2354	2.70109	2.46303	1.10876	0.337933	0.152596	0.370789	24.3019	7678.11	17003.6	18656.8	-65.6981	0.0000000E+000	0.0000000E+000	0.0000000E+000	65.6981	0.0000000E+000	0.0000000E+000	0.0000000E+000	-65.6981	0.0000000E+000	0.0000000E+000	0.0000000E+000	-24.3019	0.0000000E+000	0.0000000E+000	0.0000000E+000	24.3019	2.21456	65.6981	-7.76867e-06	-8.48347e-06	-3.34209e-09	-8.48013e-06	0.233897	6453.82	2.5425	6451.28
1000.32	3.26274	1.73361	3.69471	-27.9833	7.40482	0.234013	-0.0137378	91.776	20.2057	1	10	0.00502053	0.00135884	0	-1.52503e-05	-7.96403e-05	1.3027e-05	157	0.00958683	-0.00882473	-0.00374587	-27.9963	3.68516	3.25391	1.72987	0.239013	0.126997	0.270657	27.9833	20205.7	38028	43062.7	-62.0167	0.0000000E+000	0.0000000E+000	0.0000000E+000	62.0167	0.0000000E+000	0.0000000E+000	0.0000000E+000	-62.0167	0.0000000E+000	0.0000000E+000	0.0000000E+000	-27.9833	0.0000000E+000	0.0000000E+000	0.0000000E+000	27.9833	1.88205	62.0167	-5.06979e-07	-3.21482e-06	1.09408e-09	-3.21591e-06	0.234092	17034.2	5.79717	17040
316.316	4.67285	3.10201	5.60874	-33.5777	8.75407	0.234024	-0.0128591	162.202	49.6148	1	10	0.00481011	0.000857609	0	-2.03814e-05	9.21806e-05	8.03205e-06	58.8011	0.00936563	0.00485149	-0.00801112	-33.4821	5.60836	4.6777	3.094	0.148543	0.0986081	0.178293	33.5777	49614.8	74739.5	89708.5	-56.4223	0.0000000E+000	0.0000000E+000	0.0000000E+000	56.4223	0.0000000E+000	0.0000000E+000	0.0000000E+000	-56.4223	0.0000000E+000	0.0000000E+000	0.0000000E+000	-33.5777	0.0000000E+000	0.0000000E+000	0.0000000E+000	33.5777	1.50639	56.4223	-8.33114e-07	-3.00933e-06	-1.18536e-09	-3.00815e-06	0.233932	18199.2	7.16853	18192
100.032	8.14047	4.57101	9.33603	-29.3149	10.1018	0.234018	-0.0130304	348.072	83.439	1	10	0.0047477	0.000508536	0	-2.46453e-05	0.000264002	1.04689e-05	-23.5693	0.0205864	0.018869	0.00823165	-29.3023	9.35651	8.15934	4.57924	0.0933954	0.052443	0.107112	29.3149	83439	148596	170419	-60.6851	0.0000000E+000	0.0000000E+000	0.0000000E+000	60.6851	0.0000000E+000	0.0000000E+000	0.0000000E+000	-60.6851	0.0000000E+000	0.0000000E+000	0.0000000E+000	-29.3149	0.0000000E+000	0.0000000E+000	0.0000000E+000	29.3149	1.78089	60.6851	-1.26867e-06	-3.04934e-06	-3.44004e-09	-3.0459e-06	0.233754	17959.5	20.2605	17939.2
31.6296	12.0664	3.61892	12.5974	-16.695	11.4316	0.234	-0.0175804	1390.43	114.748	1	10	0.00474749	0.000376864	0	-2.96593e-05	5.39982e-05	9.79725e-06	-47.2805	0.0259968	0.0176365	0.0190994	-16.755	12.6197	12.084	3.63802	0.0760356	0.0228045	0.0793817	16.695	114748	382599	399436	-73.305	0.0000000E+000	0.0000000E+000	0.0000000E+000	73.305	0.0000000E+000	0.0000000E+000	0.0000000E+000	-73.305	0.0000000E+000	0.0000000E+000	0.0000000E+000	-16.695	0.0000000E+000	0.0000000E+000	0.0000000E+000	16.695	3.33424	73.305	-1.29935e-06	-4.1138e-06	-9.49309e-10	-4.11285e-06	0.233946	13310.3	3.0715	13307.2
10.0032	14.0498	2.20745	14.2222	-8.92907	13.0128	0.234025	-0.00742725	7207.6	173.636	1	11	0.00475316	0.000334207	0	-3.29595e-05	0.000111272	5.55237e-06	69.9915	0.0166136	0.00568449	-0.0156108	-8.8634	14.2254	14.0555	2.19184	0.0694606	0.0109134	0.0703127	8.92907	173636	1.10515e+06	1.1187e+06	-81.0709	0.0000000E+000	0.0000000E+000	0.0000000E+000	81.0709	0.0000000E+000	0.0000000E+000	0.0000000E+000	-81.0709	0.0000000E+000	0.0000000E+000	0.0000000E+000	-8.92907	0.0000000E+000	0.0000000E+000	0.0000000E+000	8.92907	6.36474	81.0709	-1.13168e-06	-1.73816e-06	-8.26444e-10	-1.73733e-06	0.233914	31509	14.9816	31494
3.1604	15.0528	1.39963	15.1177	-5.31218	14.5294	0.234015	-0.00731146	35980.3	308.404	1	11	0.00474244	0.0003137	0	-3.26873e-05	-2.23667e-05	5.35365e-06	-30.4824	0.0170661	0.0147073	0.00865721	-5.33966	15.1332	15.0675	1.40829	0.0658634	0.00612408	0.0661475	5.31218	308404	3.31683e+06	3.33113e+06	-84.6878	0.0000000E+000	0.0000000E+000	0.0000000E+000	84.6878	0.0000000E+000	0.0000000E+000	0.0000000E+000	-84.6878	0.0000000E+000	0.0000000E+000	0.0000000E+000	-5.31218	0.0000000E+000	0.0000000E+000	0.0000000E+000	5.31218	10.7548	84.6878	-3.03674e-07	-1.71099e-06	1.63533e-10	-1.71116e-06	0.234037	32006.6	3.05912	32009.7
1.00006	15.7595	1.09192	15.7973	-3.96348	19.1218	0.234026	-0.00648304	145747	696.333	1	11	0.00475116	0.000300757	0	-5.4997e-05	3.4907e-05	2.1248e-06	-27.4623	0.00706485	0.00626875	0.00325806	-3.9737	15.8038	15.7658	1.09518	0.0631505	0.00437547	0.0633019	3.96348	696333	1.00501e+07	1.00742e+07	-86.0365	0.0000000E+000	0.0000000E+000	0.0000000E+000	86.0365	0.0000000E+000	0.0000000E+000	0.0000000E+000	-86.0365	0.0000000E+000	0.0000000E+000	0.0000000E+000	-3.96348	0.0000000E+000	0.0000000E+000	0.0000000E+000	3.96348	14.4328	86.0365	-7.16234e-06	-1.5172e-06	-2.26303e-10	-1.51698e-06	0.233992	36098.3	5.38436	36092.9
0.316193	16.2695	1.27415	16.3193	-4.47799	34.9777	0.234028	-0.00546159	395046	2408.16	1	12	0.00474625	0.000290837	0	-3.54022e-05	0.000168545	3.30878e-06	-9.87207	0.0113768	0.0112083	0.00195053	-4.48175	16.3306	16.2807	1.2761	0.0610902	0.0047843	0.0612772	4.47799	2.40816e+06	3.07496e+07	3.08437e+07	-85.522	0.0000000E+000	0.0000000E+000	0.0000000E+000	85.522	0.0000000E+000	0.0000000E+000	0.0000000E+000	-85.522	0.0000000E+000	0.0000000E+000	0.0000000E+000	-4.47799	0.0000000E+000	0.0000000E+000	0.0000000E+000	4.47799	12.7689	85.522	1.31371e-05	-1.27816e-06	-9.20526e-10	-1.27724e-06	0.233859	42849.7	30.8602	42818.9
0.0999041	16.9485	2.46171	17.1263	-8.26424	80.1858	0.234027	-0.00304919	647142	13370.5	1	12	0.0047459	0.000277111	0	-0.00013979	-4.14579e-05	1.76428e-06	-30.1917	0.00636668	0.00550302	0.00320177	-8.27219	17.1322	16.954	2.46492	0.0577833	0.00839285	0.0583897	8.26424	1.33705e+07	9.20533e+07	9.30193e+07	-81.7358	0.0000000E+000	0.0000000E+000	0.0000000E+000	81.7358	0.0000000E+000	0.0000000E+000	0.0000000E+000	-81.7358	0.0000000E+000	0.0000000E+000	0.0000000E+000	-8.26424	0.0000000E+000	0.0000000E+000	0.0000000E+000	8.26424	6.88483	81.7358	-8.16443e-05	-7.13593e-07	1.26413e-10	-7.13719e-07	0.234068	76750.6	13.5964	76764.1
0.0315922	18.627	5.51961	19.4276	-16.5058	223.069	0.234027	-0.00758848	912707	73673.3	1	12	0.00475078	0.000244538	0	-0.000651369	0.000168545	2.2139e-06	-4.27345	0.0090534	0.00902823	0.000674629	-16.5001	19.4365	18.6361	5.52029	0.049352	0.0146241	0.0514731	16.5058	7.36733e+07	2.48625e+08	2.59311e+08	-73.4942	0.0000000E+000	0.0000000E+000	0.0000000E+000	73.4942	0.0000000E+000	0.0000000E+000	0.0000000E+000	-73.4942	0.0000000E+000	0.0000000E+000	0.0000000E+000	-16.5058	0.0000000E+000	0.0000000E+000	0.0000000E+000	16.5058	3.3747	73.4942	-0.000171746	-1.77591e-06	-1.279e-09	-1.77463e-06	0.233858	30839.7	22.2107	30817.5
0.0100092	22.5743	12.2008	25.6604	-28.39	674.292	0.23403	-0.00804219	1.30327e+06	294634	1	12	0.00475053	0.000185131	0	-0.000582115	0.000130363	3.15847e-06	-1.61369	0.0170607	0.017054	0.000480438	-28.3729	25.6757	22.5913	12.2013	0.0342836	0.0185294	0.0389705	28.39	2.94634e+08	5.4514e+08	6.19667e+08	-61.61	0.0000000E+000	0.0000000E+000	0.0000000E+000	61.61	0.0000000E+000	0.0000000E+000	0.0000000E+000	-61.61	0.0000000E+000	0.0000000E+000	0.0000000E+000	-28.39	0.0000000E+000	0.0000000E+000	0.0000000E+000	28.39	1.85023	61.61	2.56402e-05	-1.88211e-06	-1.0484e-09	-1.88106e-06	0.233899	29100.3	16.2099	29084.1