File: txt/18393_R277_UA689_SOC00_C03.mpt
EC-Lab ASCII FILE
Nb header lines : 65

Potentio Electrochemical Impedance Spectroscopy

Run on channel : 3 (SN 65921)
User :
CE vs. WE compliance from -10 V to 10 V
Electrode connection : standard
Potential control : Ewe
Ewe ctrl range : min = -10.00 V, max = 10.00 V
Safety Limits :
	Do not start on E overload
Acquisition started on : 10/13/2025 15:08:59.554
Technique started on : 10/13/2025 15:09:01.424
Loaded Setting File :  C:\Users\Celltest\OneDrive - store-dot.com\Documents\EC-Lab\Data\@Biologic Test Protocols\anode half cell EIS SOC00.mps
Saved on :
	File : 18393_R277_UA689_SOC00_C03.mpr
	Directory : C:\Users\Celltest\OneDrive - store-dot.com\Documents\EC-Lab\Data\Gyutae\
	Host : 169.254.61.224
Device : VMP-3e (SN .003165)
Address : USB
EC-LAB for windows v11.62 (software)
Internet server v27.00 (firmware)
Command interpretor v12.03 (firmware)
Electrode material :
Initial state :
Electrolyte :
Comments :
Electrode surface area : 0.001 cm²
Characteristic mass : 0.001 g
Equivalent Weight : 0.000 g/eq.
Density : 0.000 g/cm3
Volume (V) : 0.001 cm³
Record Ece
Cycle Definition : Charge/Discharge alternance
Mode                Single sine
E (V)               0.0000
vs.                 Eoc
tE (h:m:s)          0:00:0.0000
record              0
dI                  0.000
unit dI             mA
dt (s)              0.000
fi                  100.000
unit fi             kHz
ff                  10.000
unit ff             mHz
Nd                  6
Points              per decade
spacing             Logarithmic
Va (mV)             5.0
pw                  0.10
Na                  2
corr                0
E range min (V)     -10.000
E range max (V)     10.000
I Range             Auto
Bandwidth           5
nc cycles           0
goto Ns'            0
nr cycles           0
inc. cycle          0

freq/Hz	Re(Z)/Ohm	-Im(Z)/Ohm	|Z|/Ohm	Phase(Z)/deg	time/s	<Ewe>/V	<I>/mA	Cs/µF	Cp/µF	cycle number	I Range	|Ewe|/V	|I|/A	Ns	(Q-Qo)/mA.h	<Ece>/V	|Ece|/V	Phase(Zce)/deg	|Zce|/Ohm	Re(Zce)/Ohm	-Im(Zce)/Ohm	Phase(Zwe-ce)/deg	|Zwe-ce|/Ohm	Re(Zwe-ce)/Ohm	-Im(Zwe-ce)/Ohm	Re(Y)/Ohm-1	Im(Y)/Ohm-1	|Y|/Ohm-1	Phase(Y)/deg	Re(C)/nF	Im(C)/nF	|C|/nF	Phase(C)/deg	Re(M)	Im(M)	|M|	Phase(M)/deg	Re(Permittivity)	Im(Permittivity)	|Permittivity|	Phase(Permittivity)/deg	Re(Resistivity)/Ohm.cm	Im(Resistivity)/Ohm.cm	|Resistivity|/Ohm.cm	Phase(Resistivity)/deg	Re(Conductivity)/mS/cm	Im(Conductivity)/mS/cm	|Conductivity|/mS/cm	Phase(Conductivity)/deg	Tan(Delta)	Loss Angle(Delta)/deg	dq/mA.h	Pwe/W	Pce/W	Pwe-ce/W	<Ewe-Ece>/V	Rwe/Ohm	Rce/Ohm	Rwe-ce/Ohm		Ewe-Ece/V
100004	1.22742	0.45355	1.30853	-20.2801	1.86955	0.237451	0.033073	3.50897	0.42156	1	9	0.00491297	0.00375457	0	1.15755e-05	-0.000252362	2.76301e-05	91.5838	0.00735908	-0.0002034	-0.00735626	-19.9804	1.30581	1.22721	0.446193	0.716841	0.264884	0.764215	20.2801	421.56	1140.85	1216.24	-69.7199	0.0000000E+000	0.0000000E+000	0.0000000E+000	69.7199	0.0000000E+000	0.0000000E+000	0.0000000E+000	-69.7199	0.0000000E+000	0.0000000E+000	0.0000000E+000	-20.2801	0.0000000E+000	0.0000000E+000	0.0000000E+000	20.2801	2.70624	69.7199	1.15755e-05	7.85321e-06	-8.34636e-09	7.86156e-06	0.237703	7179.6	7.63045	7187.23
31621.1	1.63623	0.674331	1.76974	-22.3977	3.14655	0.237428	0.0299404	7.46396	1.08367	1	9	0.00544618	0.00307739	0	3.42017e-05	-6.1421e-05	1.02933e-05	16.8102	0.00334483	0.0032019	-0.000967329	-22.3294	1.77233	1.63943	0.673364	0.522428	0.215305	0.565055	22.3977	1083.67	2629.47	2844.02	-67.6023	0.0000000E+000	0.0000000E+000	0.0000000E+000	67.6023	0.0000000E+000	0.0000000E+000	0.0000000E+000	-67.6023	0.0000000E+000	0.0000000E+000	0.0000000E+000	-22.3977	0.0000000E+000	0.0000000E+000	0.0000000E+000	22.3977	2.42645	67.6023	-3.50769e-07	7.10867e-06	-1.83897e-09	7.1105e-06	0.237489	7930.02	2.05145	7932.07
10002.2	2.16188	0.935908	2.35577	-23.4085	4.29952	0.237425	0.0389281	17.0016	2.68344	1	9	0.00520207	0.00220823	0	4.5528e-05	-0.000175985	9.32295e-06	41.2453	0.00422192	0.00317443	-0.00278344	-23.3158	2.35758	2.16505	0.933124	0.389553	0.168643	0.42449	23.4085	2683.44	6198.55	6754.47	-66.5915	0.0000000E+000	0.0000000E+000	0.0000000E+000	66.5915	0.0000000E+000	0.0000000E+000	0.0000000E+000	-66.5915	0.0000000E+000	0.0000000E+000	0.0000000E+000	-23.4085	0.0000000E+000	0.0000000E+000	0.0000000E+000	23.4085	2.30993	66.5915	6.60111e-06	9.24251e-06	-6.85077e-09	9.24936e-06	0.237601	6099.07	4.52078	6103.6
3163.08	2.83945	1.39216	3.16237	-26.1184	5.32368	0.237292	-0.010747	36.1426	7.00446	1	9	0.00486849	0.00153951	0	4.58327e-05	-0.000347832	5.07282e-06	82.3559	0.0032951	0.000438314	-0.00326582	-26.0618	3.16133	2.83989	1.3889	0.283928	0.139208	0.316218	26.1184	7004.46	14286.3	15911	-63.8816	0.0000000E+000	0.0000000E+000	0.0000000E+000	63.8816	0.0000000E+000	0.0000000E+000	0.0000000E+000	-63.8816	0.0000000E+000	0.0000000E+000	0.0000000E+000	-26.1184	0.0000000E+000	0.0000000E+000	0.0000000E+000	26.1184	2.0396	63.8816	-2.18656e-06	-2.55018e-06	3.73815e-09	-2.55391e-06	0.23764	22079.9	32.3655	22112.2
1000.32	3.70997	2.42499	4.4322	-33.1702	6.92279	0.237374	-0.0158521	65.6103	19.6404	1	10	0.00478899	0.0010805	0	4.71649e-05	0.00012952	5.74342e-06	-127.008	0.00531553	-0.00319955	0.00424473	-33.2388	4.43185	3.70677	2.42923	0.188856	0.123444	0.225621	33.1702	19640.4	30047.8	35897.3	-56.8298	0.0000000E+000	0.0000000E+000	0.0000000E+000	56.8298	0.0000000E+000	0.0000000E+000	0.0000000E+000	-56.8298	0.0000000E+000	0.0000000E+000	0.0000000E+000	-33.1702	0.0000000E+000	0.0000000E+000	0.0000000E+000	33.1702	1.52989	56.8298	-1.87193e-06	-3.76287e-06	-2.05316e-09	-3.76081e-06	0.237244	14974.3	8.17051	14966.1
316.316	5.5741	5.02769	7.50655	-42.0496	8.27202	0.237364	-0.0163555	100.076	44.8939	1	10	0.00465611	0.000620273	0	4.18279e-05	0.000148614	1.21274e-05	10.6536	0.0195518	0.0192148	-0.00361454	-41.9311	7.51841	5.59332	5.02407	0.0989224	0.0892253	0.133217	42.0496	44893.9	49773	67028.4	-47.9504	0.0000000E+000	0.0000000E+000	0.0000000E+000	47.9504	0.0000000E+000	0.0000000E+000	0.0000000E+000	-47.9504	0.0000000E+000	0.0000000E+000	0.0000000E+000	-42.0496	0.0000000E+000	0.0000000E+000	0.0000000E+000	42.0496	1.10868	47.9504	-1.78174e-06	-3.88221e-06	-2.43065e-09	-3.87977e-06	0.237215	14512.8	9.08646	14503.7
100.032	11.1267	8.91896	14.2601	-38.715	9.61885	0.237367	-0.0155128	178.389	69.7826	1	10	0.00461634	0.000323723	0	3.54174e-05	7.22374e-05	1.04834e-05	50.695	0.0323838	0.0205135	-0.0250581	-38.5849	14.2605	11.1472	8.8939	0.0547166	0.0438598	0.0701255	38.715	69782.6	87056.4	111573	-51.285	0.0000000E+000	0.0000000E+000	0.0000000E+000	51.285	0.0000000E+000	0.0000000E+000	0.0000000E+000	-51.285	0.0000000E+000	0.0000000E+000	0.0000000E+000	-38.715	0.0000000E+000	0.0000000E+000	0.0000000E+000	38.715	1.24754	51.285	-1.64443e-06	-3.68223e-06	-1.1206e-09	-3.68111e-06	0.237295	15301.4	4.65664	15296.7
31.6296	20.2052	8.79054	22.0346	-23.512	11.1875	0.237386	-0.0111237	572.416	91.1025	1	11	0.00461561	0.00020947	0	3.0043e-05	-0.000233268	1.22204e-05	67.5114	0.0583393	0.0223148	-0.0539029	-23.3603	22.0337	20.2276	8.73663	0.0416152	0.0181052	0.0453831	23.512	91102.5	209401	228360	-66.488	0.0000000E+000	0.0000000E+000	0.0000000E+000	66.488	0.0000000E+000	0.0000000E+000	0.0000000E+000	-66.488	0.0000000E+000	0.0000000E+000	0.0000000E+000	-23.512	0.0000000E+000	0.0000000E+000	0.0000000E+000	23.512	2.29852	66.488	-1.2093e-06	-2.64062e-06	2.5948e-09	-2.64321e-06	0.237619	21340.5	20.9703	21361.5
10.0032	25.6002	5.52219	26.189	-12.1727	12.5198	0.237397	-0.0104518	2881.18	128.101	1	11	0.00461185	0.000176099	0	2.68636e-05	-6.1421e-05	1.10046e-05	1.06171	0.0624913	0.0624805	-0.00115791	-12.1415	26.2499	25.6627	5.52103	0.0373254	0.00805142	0.0381839	12.1727	128101	593863	607522	-77.8273	0.0000000E+000	0.0000000E+000	0.0000000E+000	77.8273	0.0000000E+000	0.0000000E+000	0.0000000E+000	-77.8273	0.0000000E+000	0.0000000E+000	0.0000000E+000	-12.1727	0.0000000E+000	0.0000000E+000	0.0000000E+000	12.1727	4.63588	77.8273	-1.59836e-06	-2.48121e-06	6.41958e-10	-2.48186e-06	0.237458	22713.6	5.87662	22719.5
3.1604	28.2605	3.52732	28.4798	-7.11454	14.0364	0.237391	-0.00992	14276.9	219.003	1	11	0.00460753	0.000161782	0	2.085e-05	-6.1421e-05	9.54404e-06	-7.29454	0.058993	0.0585156	0.00749035	-7.11492	28.5388	28.319	3.53481	0.0348423	0.00434881	0.0351126	7.11454	219003	1.75463e+06	1.76824e+06	-82.8855	0.0000000E+000	0.0000000E+000	0.0000000E+000	82.8855	0.0000000E+000	0.0000000E+000	0.0000000E+000	-82.8855	0.0000000E+000	0.0000000E+000	0.0000000E+000	-7.11454	0.0000000E+000	0.0000000E+000	0.0000000E+000	7.11454	8.0119	82.8855	-3.107e-06	-2.35492e-06	6.09296e-10	-2.35553e-06	0.237452	23930.5	6.19163	23936.7
1.00006	30.0363	2.72338	30.1595	-5.18083	19.676	0.237394	-0.00856687	58436.5	476.49	1	12	0.00461178	0.000152913	0	1.56427e-05	-0.000175985	1.56349e-06	22.924	0.0102247	0.00941716	-0.00398262	-5.17168	30.1685	30.0457	2.7194	0.0330216	0.00299407	0.0331571	5.18083	476490	5.25522e+06	5.27678e+06	-84.8192	0.0000000E+000	0.0000000E+000	0.0000000E+000	84.8192	0.0000000E+000	0.0000000E+000	0.0000000E+000	-84.8192	0.0000000E+000	0.0000000E+000	0.0000000E+000	-5.18083	0.0000000E+000	0.0000000E+000	0.0000000E+000	5.18083	11.029	84.8192	-4.28632e-06	-2.03372e-06	1.50764e-09	-2.03523e-06	0.23757	27710.7	20.5426	27731.3
0.316193	31.5026	2.83501	31.6299	-5.14236	34.0208	0.237391	-0.00705428	177547	1426.35	1	12	0.00460957	0.000145735	0	-3.65859e-05	1.49552e-05	2.73235e-06	12.5116	0.0187487	0.0183035	-0.00406169	-5.13206	31.6477	31.5209	2.83094	0.0314884	0.00283373	0.0316157	5.14236	1.42635e+06	1.58496e+07	1.59137e+07	-84.8576	0.0000000E+000	0.0000000E+000	0.0000000E+000	84.8576	0.0000000E+000	0.0000000E+000	0.0000000E+000	-84.8576	0.0000000E+000	0.0000000E+000	0.0000000E+000	-5.14236	0.0000000E+000	0.0000000E+000	0.0000000E+000	5.14236	11.112	84.8576	-2.61617e-05	-1.67462e-06	-1.05499e-10	-1.67452e-06	0.237376	33652	2.12002	33649.9
0.0999041	33.1776	4.75275	33.5163	-8.15227	79.2286	0.237391	-0.00687693	335190	6740.17	1	12	0.00461117	0.00013758	0	-0.000110111	0.000263178	1.13755e-06	-22.0744	0.00826828	0.00766219	0.00310731	-8.15567	33.5243	33.1852	4.75586	0.0295348	0.00423091	0.0298363	8.15227	6.74018e+06	4.70512e+07	4.75315e+07	-81.8477	0.0000000E+000	0.0000000E+000	0.0000000E+000	81.8477	0.0000000E+000	0.0000000E+000	0.0000000E+000	-81.8477	0.0000000E+000	0.0000000E+000	0.0000000E+000	-8.15227	0.0000000E+000	0.0000000E+000	0.0000000E+000	8.15227	6.9807	81.8477	-1.49386e-05	-1.63252e-06	-1.80986e-09	-1.63071e-06	0.237128	34519.9	38.2697	34481.6
0.0315922	36.6813	9.5954	37.9156	-14.6594	222.113	0.2374	-0.0041055	525022	33625.5	1	12	0.00461162	0.000121629	0	-0.000139487	-4.13882e-06	2.00765e-06	-14.5013	0.0165064	0.0159805	0.00413322	-14.6594	37.9321	36.6973	9.59953	0.0255158	0.00667465	0.0263744	14.6594	3.36255e+07	1.28543e+08	1.32869e+08	-75.3406	0.0000000E+000	0.0000000E+000	0.0000000E+000	75.3406	0.0000000E+000	0.0000000E+000	0.0000000E+000	-75.3406	0.0000000E+000	0.0000000E+000	0.0000000E+000	-14.6594	0.0000000E+000	0.0000000E+000	0.0000000E+000	14.6594	3.8228	75.3406	-3.38889e-05	-9.74646e-07	1.69919e-11	-9.74663e-07	0.237404	57824.8	1.00811	57825.8
0.0100092	43.8342	19.6016	48.0173	-24.0931	673.332	0.237398	-0.00492379	811204	135182	1	12	0.00461121	9.60323e-05	0	-0.0012005	-0.000118703	1.58892e-06	-50.1409	0.0165457	0.0106042	0.0127008	-24.1017	48.0321	43.8448	19.6143	0.0190116	0.00850152	0.0208258	24.0931	1.35182e+08	3.02301e+08	3.3115e+08	-65.9069	0.0000000E+000	0.0000000E+000	0.0000000E+000	65.9069	0.0000000E+000	0.0000000E+000	0.0000000E+000	-65.9069	0.0000000E+000	0.0000000E+000	0.0000000E+000	-24.0931	0.0000000E+000	0.0000000E+000	0.0000000E+000	24.0931	2.23625	65.9069	-0.000560372	-1.1689e-06	5.8447e-10	-1.16948e-06	0.237517	48214.5	24.1081	48238.6