File: txt/18399_R277_UA690_SOC00_C08.mpt
EC-Lab ASCII FILE
Nb header lines : 65

Potentio Electrochemical Impedance Spectroscopy

Run on channel : 8 (SN 65398)
User :
CE vs. WE compliance from -10 V to 10 V
Electrode connection : standard
Potential control : Ewe
Ewe ctrl range : min = -10.00 V, max = 10.00 V
Safety Limits :
	Do not start on E overload
Acquisition started on : 10/13/2025 14:56:54.035
Technique started on : 10/13/2025 14:56:55.946
Loaded Setting File :  C:\Users\Celltest\OneDrive - store-dot.com\Documents\EC-Lab\Data\@Biologic Test Protocols\anode half cell EIS SOC00.mps
Saved on :
	File : 18399_R277_UA690_SOC00_C08.mpr
	Directory : C:\Users\Celltest\OneDrive - store-dot.com\Documents\EC-Lab\Data\Gyutae\
	Host : 169.254.61.224
Device : VMP-3e (SN .003165)
Address : USB
EC-LAB for windows v11.62 (software)
Internet server v27.00 (firmware)
Command interpretor v12.03 (firmware)
Electrode material :
Initial state :
Electrolyte :
Comments :
Electrode surface area : 0.001 cm²
Characteristic mass : 0.001 g
Equivalent Weight : 0.000 g/eq.
Density : 0.000 g/cm3
Volume (V) : 0.001 cm³
Record Ece
Cycle Definition : Charge/Discharge alternance
Mode                Single sine
E (V)               0.0000
vs.                 Eoc
tE (h:m:s)          0:00:0.0000
record              0
dI                  0.000
unit dI             mA
dt (s)              0.000
fi                  100.000
unit fi             kHz
ff                  10.000
unit ff             mHz
Nd                  6
Points              per decade
spacing             Logarithmic
Va (mV)             5.0
pw                  0.10
Na                  2
corr                0
E range min (V)     -10.000
E range max (V)     10.000
I Range             Auto
Bandwidth           5
nc cycles           0
goto Ns'            0
nr cycles           0
inc. cycle          0

freq/Hz	Re(Z)/Ohm	-Im(Z)/Ohm	|Z|/Ohm	Phase(Z)/deg	time/s	<Ewe>/V	<I>/mA	Cs/µF	Cp/µF	cycle number	I Range	|Ewe|/V	|I|/A	Ns	(Q-Qo)/mA.h	<Ece>/V	|Ece|/V	Phase(Zce)/deg	|Zce|/Ohm	Re(Zce)/Ohm	-Im(Zce)/Ohm	Phase(Zwe-ce)/deg	|Zwe-ce|/Ohm	Re(Zwe-ce)/Ohm	-Im(Zwe-ce)/Ohm	Re(Y)/Ohm-1	Im(Y)/Ohm-1	|Y|/Ohm-1	Phase(Y)/deg	Re(C)/nF	Im(C)/nF	|C|/nF	Phase(C)/deg	Re(M)	Im(M)	|M|	Phase(M)/deg	Re(Permittivity)	Im(Permittivity)	|Permittivity|	Phase(Permittivity)/deg	Re(Resistivity)/Ohm.cm	Im(Resistivity)/Ohm.cm	|Resistivity|/Ohm.cm	Phase(Resistivity)/deg	Re(Conductivity)/mS/cm	Im(Conductivity)/mS/cm	|Conductivity|/mS/cm	Phase(Conductivity)/deg	Tan(Delta)	Loss Angle(Delta)/deg	dq/mA.h	Pwe/W	Pce/W	Pwe-ce/W	<Ewe-Ece>/V	Rwe/Ohm	Rce/Ohm	Rwe-ce/Ohm		Ewe-Ece/V
100004	1.44683	0.510785	1.53435	-19.4449	1.91056	0.240333	-0.00706601	3.11577	0.345297	1	9	0.00472385	0.00307873	0	-2.87931e-06	0.000178102	4.79789e-05	103.691	0.015584	-0.00368838	-0.0151412	-18.9549	1.52589	1.44315	0.495644	0.614568	0.216965	0.651742	19.4449	345.297	978.079	1037.24	-70.5551	0.0000000E+000	0.0000000E+000	0.0000000E+000	70.5551	0.0000000E+000	0.0000000E+000	0.0000000E+000	-70.5551	0.0000000E+000	0.0000000E+000	0.0000000E+000	-19.4449	0.0000000E+000	0.0000000E+000	0.0000000E+000	19.4449	2.83257	70.5551	-2.87931e-06	-1.6982e-06	-1.25847e-09	-1.69694e-06	0.240155	34012.5	25.2054	33987.3
31621.1	1.9067	0.794028	2.06542	-22.6089	3.43152	0.240324	-0.000369621	6.3388	0.936828	1	9	0.00494955	0.00239639	0	-1.88356e-05	4.44852e-05	1.17689e-05	27.9598	0.00491109	0.00433785	-0.00230258	-22.5038	2.06855	1.91104	0.791725	0.446955	0.18613	0.484162	22.6089	936.828	2249.6	2436.88	-67.3911	0.0000000E+000	0.0000000E+000	0.0000000E+000	67.3911	0.0000000E+000	0.0000000E+000	0.0000000E+000	-67.3911	0.0000000E+000	0.0000000E+000	0.0000000E+000	-22.6089	0.0000000E+000	0.0000000E+000	0.0000000E+000	22.6089	2.4013	67.3911	1.10983e-05	-8.88288e-08	-1.64427e-11	-8.88124e-08	0.24028	650192	120.354	650071
10002.2	2.55678	1.11023	2.78742	-23.4719	4.58252	0.240315	-0.00282499	14.3321	2.27369	1	9	0.00504575	0.00181019	0	-1.78608e-05	0.000216278	5.53931e-06	-99.1556	0.00306008	-0.000486909	0.0030211	-23.5328	2.78818	2.55629	1.11325	0.329069	0.142892	0.358754	23.4719	2273.69	5236.14	5708.48	-66.5281	0.0000000E+000	0.0000000E+000	0.0000000E+000	66.5281	0.0000000E+000	0.0000000E+000	0.0000000E+000	-66.5281	0.0000000E+000	0.0000000E+000	0.0000000E+000	-23.4719	0.0000000E+000	0.0000000E+000	0.0000000E+000	23.4719	2.30293	66.5281	2.40863e-07	-6.78887e-07	-6.10982e-10	-6.78276e-07	0.240099	85067.8	76.5589	84991.2
3163.08	3.43352	1.62246	3.79756	-25.2924	5.69167	0.240238	-0.0345359	31.0124	5.66077	1	10	0.00488592	0.0012866	0	-2.29422e-05	0.000273542	8.47878e-06	-53.6378	0.00659009	0.00390718	0.0053069	-25.3395	3.80336	3.43743	1.62777	0.238085	0.112503	0.263327	25.2924	5660.77	11979.6	13249.7	-64.7076	0.0000000E+000	0.0000000E+000	0.0000000E+000	64.7076	0.0000000E+000	0.0000000E+000	0.0000000E+000	-64.7076	0.0000000E+000	0.0000000E+000	0.0000000E+000	-25.2924	0.0000000E+000	0.0000000E+000	0.0000000E+000	25.2924	2.11624	64.7076	-4.71464e-06	-8.29683e-06	-9.44701e-09	-8.28738e-06	0.239964	6956.18	7.92051	6948.26
1000.32	4.67545	2.46207	5.28409	-27.7711	7.04583	0.240288	-0.0176919	64.6221	14.0295	1	10	0.0047007	0.000889596	0	-2.85767e-05	0.00038807	9.806e-06	-52.5128	0.011023	0.00670841	0.00874662	-27.821	5.2941	4.68216	2.47081	0.167449	0.088178	0.189247	27.7711	14029.5	26641.8	30110	-62.2289	0.0000000E+000	0.0000000E+000	0.0000000E+000	62.2289	0.0000000E+000	0.0000000E+000	0.0000000E+000	-62.2289	0.0000000E+000	0.0000000E+000	0.0000000E+000	-27.7711	0.0000000E+000	0.0000000E+000	0.0000000E+000	27.7711	1.89899	62.2289	-1.45225e-06	-4.25116e-06	-6.8657e-09	-4.24429e-06	0.2399	13581.8	21.9349	13559.9
316.316	6.54723	4.07947	7.71416	-31.9264	8.396	0.240287	-0.0176659	123.338	34.4926	1	10	0.00462828	0.000599972	0	-3.41976e-05	0.000235366	7.24312e-06	-70.6317	0.0120724	0.00400369	0.0113892	-31.9824	7.72358	6.55123	4.09086	0.110022	0.068553	0.129632	31.9264	34492.6	55357.9	65224.5	-58.0736	0.0000000E+000	0.0000000E+000	0.0000000E+000	58.0736	0.0000000E+000	0.0000000E+000	0.0000000E+000	-58.0736	0.0000000E+000	0.0000000E+000	0.0000000E+000	-31.9264	0.0000000E+000	0.0000000E+000	0.0000000E+000	31.9264	1.60492	58.0736	-1.84435e-06	-4.24488e-06	-4.15794e-09	-4.24072e-06	0.240052	13601.8	13.3232	13588.4
100.032	10.7626	6.50613	12.5763	-31.1535	9.74382	0.240284	-0.01777	244.545	65.4484	1	10	0.00461373	0.00036686	0	-4.0001e-05	0.000235366	4.93994e-06	69.4617	0.0134655	0.00472414	-0.0126096	-31.0932	12.5738	10.7673	6.49352	0.0680474	0.0411356	0.0795147	31.1535	65448.4	108266	126511	-58.8465	0.0000000E+000	0.0000000E+000	0.0000000E+000	58.8465	0.0000000E+000	0.0000000E+000	0.0000000E+000	-58.8465	0.0000000E+000	0.0000000E+000	0.0000000E+000	-31.1535	0.0000000E+000	0.0000000E+000	0.0000000E+000	31.1535	1.65422	58.8465	-2.27289e-06	-4.26985e-06	-4.18246e-09	-4.26567e-06	0.240049	13521.9	13.2451	13508.6
31.6296	17.1197	6.21568	18.2131	-19.9545	11.3075	0.240328	-0.00959325	809.54	94.2857	1	11	0.00460763	0.000252984	0	-4.66549e-05	-0.000108219	6.4004e-06	19.7293	0.0252997	0.0238145	-0.00854057	-19.9038	18.2326	17.1435	6.20714	0.0516091	0.0187378	0.0549054	19.9545	94285.7	259689	276275	-70.0455	0.0000000E+000	0.0000000E+000	0.0000000E+000	70.0455	0.0000000E+000	0.0000000E+000	0.0000000E+000	-70.0455	0.0000000E+000	0.0000000E+000	0.0000000E+000	-19.9545	0.0000000E+000	0.0000000E+000	0.0000000E+000	19.9545	2.75428	70.0455	-2.36487e-06	-2.30552e-06	1.03817e-09	-2.30656e-06	0.240436	25051.8	11.2808	25063.1
10.0032	20.9646	3.98864	21.3406	-10.7721	12.6388	0.240338	-0.0087788	3988.93	139.345	1	11	0.00461354	0.000216186	0	-4.8504e-05	0.000235366	9.2953e-06	60.1126	0.0429968	0.0214252	-0.0372785	-10.6631	21.3547	20.986	3.95136	0.0460333	0.00875812	0.046859	10.7721	139345	732408	745546	-79.2279	0.0000000E+000	0.0000000E+000	0.0000000E+000	79.2279	0.0000000E+000	0.0000000E+000	0.0000000E+000	-79.2279	0.0000000E+000	0.0000000E+000	0.0000000E+000	-10.7721	0.0000000E+000	0.0000000E+000	0.0000000E+000	10.7721	5.25607	79.2279	-2.61608e-07	-2.10988e-06	-2.06623e-09	-2.10782e-06	0.240103	27377.1	26.8107	27350.3
3.1604	22.9455	2.58649	23.0909	-6.4314	14.1555	0.24034	-0.0081607	19470.1	244.292	1	11	0.00460975	0.000199635	0	-5.37255e-05	0.00019719	6.89304e-06	84.4283	0.0345282	0.00335238	-0.0343651	-6.34573	23.0904	22.9489	2.55212	0.0430346	0.00485099	0.0433072	6.4314	244292	2.16719e+06	2.18091e+06	-83.5686	0.0000000E+000	0.0000000E+000	0.0000000E+000	83.5686	0.0000000E+000	0.0000000E+000	0.0000000E+000	-83.5686	0.0000000E+000	0.0000000E+000	0.0000000E+000	-6.4314	0.0000000E+000	0.0000000E+000	0.0000000E+000	6.4314	8.87131	83.5686	-1.20911e-06	-1.96134e-06	-1.60921e-09	-1.95973e-06	0.240143	29450.9	24.1633	29426.8
1.00006	24.2572	1.92808	24.3337	-4.54459	19.7939	0.240324	-0.00722389	82540.7	518.204	1	12	0.00461123	0.0001895	0	-5.8728e-05	0.000330806	5.52415e-06	24.672	0.0291512	0.0264901	-0.0121684	-4.51112	24.3591	24.2837	1.91591	0.0409661	0.00325618	0.0410953	4.54459	518204	6.51954e+06	6.5401e+06	-85.4554	0.0000000E+000	0.0000000E+000	0.0000000E+000	85.4554	0.0000000E+000	0.0000000E+000	0.0000000E+000	-85.4554	0.0000000E+000	0.0000000E+000	0.0000000E+000	-4.54459	0.0000000E+000	0.0000000E+000	0.0000000E+000	4.54459	12.581	85.4554	-6.75847e-06	-1.73607e-06	-2.38971e-09	-1.73368e-06	0.239993	33267.9	45.7934	33222.1
0.316193	25.2249	1.93667	25.2992	-4.39034	34.1361	0.240336	-0.00672814	259903	1523.04	1	12	0.00461317	0.000182345	0	-0.000113244	0.000178102	3.36075e-06	-11.0772	0.0184308	0.0180874	0.00354113	-4.3952	25.3175	25.243	1.94021	0.039411	0.00302583	0.039527	4.39034	1.52304e+06	1.98374e+07	1.98958e+07	-85.6097	0.0000000E+000	0.0000000E+000	0.0000000E+000	85.6097	0.0000000E+000	0.0000000E+000	0.0000000E+000	-85.6097	0.0000000E+000	0.0000000E+000	0.0000000E+000	-4.39034	0.0000000E+000	0.0000000E+000	0.0000000E+000	4.39034	13.0249	85.6097	-2.19752e-05	-1.61701e-06	-1.19829e-09	-1.61581e-06	0.240157	35720.9	26.4711	35694.5
0.0999041	26.2292	3.24106	26.4287	-7.04415	79.3452	0.240335	-0.00722714	491530	7392.17	1	12	0.00461061	0.000174455	0	-0.000132898	8.26613e-05	2.9786e-06	26.069	0.0170738	0.0153368	-0.00750311	-7.02394	26.443	26.2446	3.23356	0.037552	0.00464018	0.0378376	7.04415	7.39217e+06	5.98233e+07	6.02783e+07	-82.9559	0.0000000E+000	0.0000000E+000	0.0000000E+000	82.9559	0.0000000E+000	0.0000000E+000	0.0000000E+000	-82.9559	0.0000000E+000	0.0000000E+000	0.0000000E+000	-7.04415	0.0000000E+000	0.0000000E+000	0.0000000E+000	7.04415	8.09279	82.9559	6.24884e-06	-1.73693e-06	-5.97405e-10	-1.73634e-06	0.240252	33254.4	11.4376	33243
0.0315922	28.396	6.98733	29.2431	-13.824	222.229	0.240334	-0.0059683	720989	41162.9	1	12	0.00461619	0.000157856	0	-0.00030856	-0.000108219	3.41732e-06	22.2363	0.0216483	0.0200384	-0.00819231	-13.799	29.2606	28.4161	6.97914	0.0332056	0.00817082	0.0341962	13.824	4.11629e+07	1.67283e+08	1.72273e+08	-76.176	0.0000000E+000	0.0000000E+000	0.0000000E+000	76.176	0.0000000E+000	0.0000000E+000	0.0000000E+000	-76.176	0.0000000E+000	0.0000000E+000	0.0000000E+000	-13.824	0.0000000E+000	0.0000000E+000	0.0000000E+000	13.824	4.06393	76.176	-0.00014685	-1.43438e-06	6.45885e-10	-1.43503e-06	0.240442	40268.3	18.1323	40286.5
0.0100092	33.4513	15.4327	36.8397	-24.7662	673.451	0.240326	-0.00919209	1.03034e+06	180815	1	12	0.00460861	0.000125099	0	-0.00201145	2.53972e-05	1.58361e-06	-51.1307	0.0126588	0.00794398	0.00985589	-24.775	36.851	33.4593	15.4426	0.024648	0.0113714	0.0271447	24.7662	1.80815e+08	3.91926e+08	4.31625e+08	-65.2338	0.0000000E+000	0.0000000E+000	0.0000000E+000	65.2338	0.0000000E+000	0.0000000E+000	0.0000000E+000	-65.2338	0.0000000E+000	0.0000000E+000	0.0000000E+000	-24.7662	0.0000000E+000	0.0000000E+000	0.0000000E+000	24.7662	2.16755	65.2338	-0.000764961	-2.2091e-06	-2.33453e-10	-2.20886e-06	0.2403	26144.8	2.76293	26142.1