File: txt/18397_R277_UA690_SOC00_C06.mpt
EC-Lab ASCII FILE
Nb header lines : 65

Potentio Electrochemical Impedance Spectroscopy

Run on channel : 6 (SN 65795)
User :
CE vs. WE compliance from -10 V to 10 V
Electrode connection : standard
Potential control : Ewe
Ewe ctrl range : min = -10.00 V, max = 10.00 V
Safety Limits :
	Do not start on E overload
Acquisition started on : 10/13/2025 14:56:27.328
Technique started on : 10/13/2025 14:56:28.922
Loaded Setting File :  C:\Users\Celltest\OneDrive - store-dot.com\Documents\EC-Lab\Data\@Biologic Test Protocols\anode half cell EIS SOC00.mps
Saved on :
	File : 18397_R277_UA690_SOC00_C06.mpr
	Directory : C:\Users\Celltest\OneDrive - store-dot.com\Documents\EC-Lab\Data\Gyutae\
	Host : 169.254.61.224
Device : VMP-3e (SN .003165)
Address : USB
EC-LAB for windows v11.62 (software)
Internet server v27.00 (firmware)
Command interpretor v12.03 (firmware)
Electrode material :
Initial state :
Electrolyte :
Comments :
Electrode surface area : 0.001 cm²
Characteristic mass : 0.001 g
Equivalent Weight : 0.000 g/eq.
Density : 0.000 g/cm3
Volume (V) : 0.001 cm³
Record Ece
Cycle Definition : Charge/Discharge alternance
Mode                Single sine
E (V)               0.0000
vs.                 Eoc
tE (h:m:s)          0:00:0.0000
record              0
dI                  0.000
unit dI             mA
dt (s)              0.000
fi                  100.000
unit fi             kHz
ff                  10.000
unit ff             mHz
Nd                  6
Points              per decade
spacing             Logarithmic
Va (mV)             5.0
pw                  0.10
Na                  2
corr                0
E range min (V)     -10.000
E range max (V)     10.000
I Range             Auto
Bandwidth           5
nc cycles           0
goto Ns'            0
nr cycles           0
inc. cycle          0

freq/Hz	Re(Z)/Ohm	-Im(Z)/Ohm	|Z|/Ohm	Phase(Z)/deg	time/s	<Ewe>/V	<I>/mA	Cs/µF	Cp/µF	cycle number	I Range	|Ewe|/V	|I|/A	Ns	(Q-Qo)/mA.h	<Ece>/V	|Ece|/V	Phase(Zce)/deg	|Zce|/Ohm	Re(Zce)/Ohm	-Im(Zce)/Ohm	Phase(Zwe-ce)/deg	|Zwe-ce|/Ohm	Re(Zwe-ce)/Ohm	-Im(Zwe-ce)/Ohm	Re(Y)/Ohm-1	Im(Y)/Ohm-1	|Y|/Ohm-1	Phase(Y)/deg	Re(C)/nF	Im(C)/nF	|C|/nF	Phase(C)/deg	Re(M)	Im(M)	|M|	Phase(M)/deg	Re(Permittivity)	Im(Permittivity)	|Permittivity|	Phase(Permittivity)/deg	Re(Resistivity)/Ohm.cm	Im(Resistivity)/Ohm.cm	|Resistivity|/Ohm.cm	Phase(Resistivity)/deg	Re(Conductivity)/mS/cm	Im(Conductivity)/mS/cm	|Conductivity|/mS/cm	Phase(Conductivity)/deg	Tan(Delta)	Loss Angle(Delta)/deg	dq/mA.h	Pwe/W	Pce/W	Pwe-ce/W	<Ewe-Ece>/V	Rwe/Ohm	Rce/Ohm	Rwe-ce/Ohm		Ewe-Ece/V
100004	1.12669	0.39101	1.19261	-19.139	1.59355	0.235381	0.0429052	4.07021	0.437519	1	9	0.0046543	0.00390263	0	-3.6203e-06	1.98852e-05	4.52867e-05	62.0169	0.0116042	0.00544479	-0.0102475	-18.589	1.19445	1.13213	0.380762	0.792152	0.274911	0.838499	19.139	437.519	1260.7	1334.46	-70.861	0.0000000E+000	0.0000000E+000	0.0000000E+000	70.861	0.0000000E+000	0.0000000E+000	0.0000000E+000	-70.861	0.0000000E+000	0.0000000E+000	0.0000000E+000	-19.139	0.0000000E+000	0.0000000E+000	0.0000000E+000	19.139	2.88148	70.861	-3.6203e-06	1.0099e-05	8.53178e-10	1.00982e-05	0.235361	5486.07	0.463469	5485.6
31621.1	1.50196	0.628548	1.62818	-22.7085	2.86855	0.235318	0.0390684	8.00764	1.19337	1	9	0.00537185	0.0032993	0	2.14202e-06	0.000249062	1.51987e-05	23.2839	0.00460666	0.00423148	-0.00182095	-22.5921	1.63138	1.5062	0.626727	0.566572	0.237101	0.614183	22.7085	1193.37	2851.66	3091.29	-67.2915	0.0000000E+000	0.0000000E+000	0.0000000E+000	67.2915	0.0000000E+000	0.0000000E+000	0.0000000E+000	-67.2915	0.0000000E+000	0.0000000E+000	0.0000000E+000	-22.7085	0.0000000E+000	0.0000000E+000	0.0000000E+000	22.7085	2.38958	67.2915	-5.68833e-06	9.1935e-06	9.73044e-09	9.18377e-06	0.235069	6023.24	6.37502	6016.86
10002.2	2.00622	0.873597	2.18817	-23.5305	4.01955	0.235324	0.0286756	18.2143	2.90317	1	9	0.00544794	0.00248973	0	1.5326e-05	0.000344552	7.33811e-06	-13.581	0.00294736	0.00286494	0.000692099	-23.5171	2.19107	2.00908	0.874289	0.419002	0.182452	0.457003	23.5305	2903.17	6667.15	7271.81	-66.4695	0.0000000E+000	0.0000000E+000	0.0000000E+000	66.4695	0.0000000E+000	0.0000000E+000	0.0000000E+000	-66.4695	0.0000000E+000	0.0000000E+000	0.0000000E+000	-23.5305	0.0000000E+000	0.0000000E+000	0.0000000E+000	23.5305	2.2965	66.4695	-8.66256e-07	6.74807e-06	9.88024e-09	6.73819e-06	0.23498	8206.42	12.0155	8194.4
3163.08	2.67462	1.26097	2.95696	-25.2418	5.34665	0.235299	0.0194004	39.9031	7.2564	1	9	0.0051945	0.0017567	0	2.44223e-05	0.000287258	6.61242e-06	-55.3661	0.00376411	0.00213926	0.00309711	-25.2784	2.96022	2.67676	1.26406	0.305894	0.144215	0.338185	25.2418	7256.4	15391.5	17016.3	-64.7582	0.0000000E+000	0.0000000E+000	0.0000000E+000	64.7582	0.0000000E+000	0.0000000E+000	0.0000000E+000	-64.7582	0.0000000E+000	0.0000000E+000	0.0000000E+000	-25.2418	0.0000000E+000	0.0000000E+000	0.0000000E+000	25.2418	2.12109	64.7582	4.84591e-07	4.56489e-06	5.57291e-09	4.55932e-06	0.235012	12128.6	14.8068	12113.8
1000.32	3.61394	1.97301	4.11744	-28.6321	7.15976	0.235296	-0.0156932	80.6404	18.5163	1	10	0.0049768	0.00120871	0	2.85999e-05	5.80813e-05	1.13386e-05	114.563	0.0093807	-0.00389954	-0.00853177	-28.5537	4.10993	3.61004	1.96447	0.21317	0.116379	0.242869	28.6321	18516.3	33916.2	38641.5	-61.3679	0.0000000E+000	0.0000000E+000	0.0000000E+000	61.3679	0.0000000E+000	0.0000000E+000	0.0000000E+000	-61.3679	0.0000000E+000	0.0000000E+000	0.0000000E+000	-28.6321	0.0000000E+000	0.0000000E+000	0.0000000E+000	28.6321	1.83169	61.3679	-2.66808e-06	-3.69254e-06	-9.11481e-10	-3.69163e-06	0.235238	14993.5	3.70105	14989.8
316.316	5.14733	3.51628	6.23372	-34.338	8.50903	0.235301	-0.015246	143.092	45.529	1	10	0.00467817	0.000750462	0	2.36323e-05	0.00036365	6.17919e-06	-19.8341	0.00823385	0.00774541	0.00279373	-34.3191	6.24169	5.15508	3.51907	0.132461	0.0904876	0.160418	34.338	45529	66648	80714.6	-55.662	0.0000000E+000	0.0000000E+000	0.0000000E+000	55.662	0.0000000E+000	0.0000000E+000	0.0000000E+000	-55.662	0.0000000E+000	0.0000000E+000	0.0000000E+000	-34.338	0.0000000E+000	0.0000000E+000	0.0000000E+000	34.338	1.46386	55.662	-2.4055e-06	-3.58741e-06	-5.54421e-09	-3.58186e-06	0.234938	15433.6	23.8521	15409.8
100.032	9.00939	5.52403	10.5681	-31.5142	9.85686	0.2353	-0.0148398	288.021	78.6949	1	10	0.0045874	0.000434081	0	1.78469e-05	5.80813e-05	1.14087e-05	16.9367	0.0262823	0.0251424	-0.00765644	-31.4077	10.5855	9.03453	5.51638	0.0806686	0.0494613	0.0946247	31.5142	78694.9	128347	150552	-58.4858	0.0000000E+000	0.0000000E+000	0.0000000E+000	58.4858	0.0000000E+000	0.0000000E+000	0.0000000E+000	-58.4858	0.0000000E+000	0.0000000E+000	0.0000000E+000	-31.5142	0.0000000E+000	0.0000000E+000	0.0000000E+000	31.5142	1.63094	58.4858	-1.91322e-06	-3.49181e-06	-8.61916e-10	-3.49094e-06	0.235241	15855.9	3.91388	15852
31.6296	14.0719	4.7818	14.8622	-18.7684	11.1856	0.235307	-0.0149218	1052.29	108.932	1	10	0.00457118	0.000307572	0	1.19398e-05	9.62774e-05	9.20626e-06	21.1393	0.0299321	0.0279178	-0.0107946	-18.6945	14.8851	14.0998	4.771	0.0637072	0.0216485	0.067285	18.7684	108932	320565	338567	-71.2316	0.0000000E+000	0.0000000E+000	0.0000000E+000	71.2316	0.0000000E+000	0.0000000E+000	0.0000000E+000	-71.2316	0.0000000E+000	0.0000000E+000	0.0000000E+000	-18.7684	0.0000000E+000	0.0000000E+000	0.0000000E+000	18.7684	2.9428	71.2316	-2.46104e-06	-3.51122e-06	-1.43663e-09	-3.50978e-06	0.235211	15769.4	6.45212	15762.9
10.0032	16.8447	2.92285	17.0964	-9.8438	12.7498	0.235312	-0.0163562	5443.46	159.103	1	11	0.00456963	0.000267286	0	5.42257e-06	0.000249062	6.7486e-06	58.1107	0.0252486	0.0133384	-0.0214379	-9.76541	17.1059	16.858	2.90141	0.0576307	0.00999992	0.0584918	9.8438	159103	916927	930628	-80.1562	0.0000000E+000	0.0000000E+000	0.0000000E+000	80.1562	0.0000000E+000	0.0000000E+000	0.0000000E+000	-80.1562	0.0000000E+000	0.0000000E+000	0.0000000E+000	-9.8438	0.0000000E+000	0.0000000E+000	0.0000000E+000	9.8438	5.76311	80.1562	1.85764e-07	-3.84879e-06	-4.07369e-09	-3.84472e-06	0.235062	14386.7	15.2274	14371.5
3.1604	18.2293	1.92161	18.3303	-6.01751	14.2674	0.235304	-0.01596	26206.8	288.008	1	11	0.00456518	0.000249051	0	-4.96233e-07	0.000191768	4.6249e-06	1.33343	0.0185701	0.0185651	-0.000432138	-6.01009	18.3487	18.2478	1.92117	0.054254	0.00571908	0.0545546	6.01751	288008	2.73218e+06	2.74732e+06	-83.9825	0.0000000E+000	0.0000000E+000	0.0000000E+000	83.9825	0.0000000E+000	0.0000000E+000	0.0000000E+000	-83.9825	0.0000000E+000	0.0000000E+000	0.0000000E+000	-6.01751	0.0000000E+000	0.0000000E+000	0.0000000E+000	6.01751	9.48648	83.9825	2.74777e-07	-3.75545e-06	-3.06061e-09	-3.75239e-06	0.235113	14743.4	12.0155	14731.4
1.00006	19.2349	1.48038	19.2918	-4.40097	19.9059	0.235302	-0.0132937	107503	633.021	1	12	0.0045674	0.000236753	0	-2.88865e-05	-9.4703e-05	3.04543e-06	75.6814	0.0128633	0.00318128	-0.0124637	-4.36335	19.2941	19.2381	1.46791	0.0516826	0.00397764	0.0518354	4.40097	633021	8.22501e+06	8.24933e+06	-85.599	0.0000000E+000	0.0000000E+000	0.0000000E+000	85.599	0.0000000E+000	0.0000000E+000	0.0000000E+000	-85.599	0.0000000E+000	0.0000000E+000	0.0000000E+000	-4.40097	0.0000000E+000	0.0000000E+000	0.0000000E+000	4.40097	12.9933	85.599	-1.95408e-05	-3.12803e-06	1.25895e-09	-3.12929e-06	0.235397	17700.2	7.1239	17707.4
0.316193	19.9869	1.61462	20.052	-4.61854	34.248	0.235303	-0.0132344	311744	2021.25	1	12	0.00456888	0.000227851	0	-8.11301e-05	0.00036365	5.50748e-07	-160.606	0.00241714	-0.00227999	0.000802625	-4.62135	20.0498	19.9846	1.61542	0.0497084	0.00401563	0.0498703	4.61854	2.02126e+06	2.50206e+07	2.51021e+07	-85.3815	0.0000000E+000	0.0000000E+000	0.0000000E+000	85.3815	0.0000000E+000	0.0000000E+000	0.0000000E+000	-85.3815	0.0000000E+000	0.0000000E+000	0.0000000E+000	-4.61854	0.0000000E+000	0.0000000E+000	0.0000000E+000	4.61854	12.3787	85.3815	-1.37263e-05	-3.1141e-06	-4.8127e-09	-3.10928e-06	0.234939	17779.6	27.4776	17752.1
0.0999041	20.8304	2.7651	21.0132	-7.56141	79.4561	0.235299	-0.00861439	576138	9976.17	1	12	0.00455985	0.000217	0	-0.000113491	0.00017267	1.09407e-06	-29.7565	0.00504181	0.00437701	0.00250232	-7.5666	21.0178	20.8348	2.7676	0.0471754	0.0062622	0.0475892	7.56141	9.97616e+06	7.5154e+07	7.58133e+07	-82.4386	0.0000000E+000	0.0000000E+000	0.0000000E+000	82.4386	0.0000000E+000	0.0000000E+000	0.0000000E+000	-82.4386	0.0000000E+000	0.0000000E+000	0.0000000E+000	-7.56141	0.0000000E+000	0.0000000E+000	0.0000000E+000	7.56141	7.53336	82.4386	-2.17395e-05	-2.02696e-06	-1.48744e-09	-2.02547e-06	0.235127	27314.7	20.0443	27294.6
0.0315922	22.5348	6.0801	23.3407	-15.0994	222.339	0.235289	-0.00806432	828570	56224.4	1	12	0.00456911	0.000195758	0	-0.000696819	0.00017267	2.35033e-06	37.9091	0.0120063	0.00947283	-0.0073768	-15.0758	23.3479	22.5443	6.07272	0.0413645	0.0111605	0.0428437	15.0994	5.62244e+07	2.08386e+08	2.15838e+08	-74.9006	0.0000000E+000	0.0000000E+000	0.0000000E+000	74.9006	0.0000000E+000	0.0000000E+000	0.0000000E+000	-74.9006	0.0000000E+000	0.0000000E+000	0.0000000E+000	-15.0994	0.0000000E+000	0.0000000E+000	0.0000000E+000	15.0994	3.70633	74.9006	-0.000327532	-1.89745e-06	-1.39246e-09	-1.89605e-06	0.235116	29176.6	21.4115	29155.2
0.0100092	27.1201	13.7456	30.4047	-26.8777	673.561	0.235288	-0.0103717	1.1568e+06	236431	1	12	0.00457049	0.000150322	0	-0.00198919	0.00017267	1.50561e-06	27.1789	0.0100159	0.00891	-0.00457496	-26.8624	30.4105	27.1291	13.741	0.0293367	0.014869	0.0328897	26.8777	2.36431e+08	4.66481e+08	5.22976e+08	-63.1223	0.0000000E+000	0.0000000E+000	0.0000000E+000	63.1223	0.0000000E+000	0.0000000E+000	0.0000000E+000	-63.1223	0.0000000E+000	0.0000000E+000	0.0000000E+000	-26.8777	0.0000000E+000	0.0000000E+000	0.0000000E+000	26.8777	1.97301	63.1223	-0.000380057	-2.44033e-06	-1.79088e-09	-2.43854e-06	0.235115	22685.6	16.6481	22668.9