File: txt/18398_R277_UA690_SOC00_C07.mpt
EC-Lab ASCII FILE
Nb header lines : 65

Potentio Electrochemical Impedance Spectroscopy

Run on channel : 7 (SN 66126)
User :
CE vs. WE compliance from -10 V to 10 V
Electrode connection : standard
Potential control : Ewe
Ewe ctrl range : min = -10.00 V, max = 10.00 V
Safety Limits :
	Do not start on E overload
Acquisition started on : 10/13/2025 14:56:44.937
Technique started on : 10/13/2025 14:56:46.592
Loaded Setting File :  C:\Users\Celltest\OneDrive - store-dot.com\Documents\EC-Lab\Data\@Biologic Test Protocols\anode half cell EIS SOC00.mps
Saved on :
	File : 18398_R277_UA690_SOC00_C07.mpr
	Directory : C:\Users\Celltest\OneDrive - store-dot.com\Documents\EC-Lab\Data\Gyutae\
	Host : 169.254.61.224
Device : VMP-3e (SN .003165)
Address : USB
EC-LAB for windows v11.62 (software)
Internet server v27.00 (firmware)
Command interpretor v12.03 (firmware)
Electrode material :
Initial state :
Electrolyte :
Comments :
Electrode surface area : 0.001 cm²
Characteristic mass : 0.001 g
Equivalent Weight : 0.000 g/eq.
Density : 0.000 g/cm3
Volume (V) : 0.001 cm³
Record Ece
Cycle Definition : Charge/Discharge alternance
Mode                Single sine
E (V)               0.0000
vs.                 Eoc
tE (h:m:s)          0:00:0.0000
record              0
dI                  0.000
unit dI             mA
dt (s)              0.000
fi                  100.000
unit fi             kHz
ff                  10.000
unit ff             mHz
Nd                  6
Points              per decade
spacing             Logarithmic
Va (mV)             5.0
pw                  0.10
Na                  2
corr                0
E range min (V)     -10.000
E range max (V)     10.000
I Range             Auto
Bandwidth           5
nc cycles           0
goto Ns'            0
nr cycles           0
inc. cycle          0

freq/Hz	Re(Z)/Ohm	-Im(Z)/Ohm	|Z|/Ohm	Phase(Z)/deg	time/s	<Ewe>/V	<I>/mA	Cs/µF	Cp/µF	cycle number	I Range	|Ewe|/V	|I|/A	Ns	(Q-Qo)/mA.h	<Ece>/V	|Ece|/V	Phase(Zce)/deg	|Zce|/Ohm	Re(Zce)/Ohm	-Im(Zce)/Ohm	Phase(Zwe-ce)/deg	|Zwe-ce|/Ohm	Re(Zwe-ce)/Ohm	-Im(Zwe-ce)/Ohm	Re(Y)/Ohm-1	Im(Y)/Ohm-1	|Y|/Ohm-1	Phase(Y)/deg	Re(C)/nF	Im(C)/nF	|C|/nF	Phase(C)/deg	Re(M)	Im(M)	|M|	Phase(M)/deg	Re(Permittivity)	Im(Permittivity)	|Permittivity|	Phase(Permittivity)/deg	Re(Resistivity)/Ohm.cm	Im(Resistivity)/Ohm.cm	|Resistivity|/Ohm.cm	Phase(Resistivity)/deg	Re(Conductivity)/mS/cm	Im(Conductivity)/mS/cm	|Conductivity|/mS/cm	Phase(Conductivity)/deg	Tan(Delta)	Loss Angle(Delta)/deg	dq/mA.h	Pwe/W	Pce/W	Pwe-ce/W	<Ewe-Ece>/V	Rwe/Ohm	Rce/Ohm	Rwe-ce/Ohm		Ewe-Ece/V
100004	-0.156333	-0.0255795	0.158412	170.708	1.6546	0.24096	0.0771232	-62.2174	-1.62225	1	9	3.83994e-05	0.000242402	0	9.34872e-06	1.67614e-05	3.16028e-05	162.679	0.130374	-0.124462	-0.0388158	167.084	0.288084	-0.280795	-0.0643953	-6.2298	-1.01933	6.31265	-170.708	-1622.25	-9914.67	10046.5	99.2925	0.0000000E+000	0.0000000E+000	0.0000000E+000	-99.2925	0.0000000E+000	0.0000000E+000	0.0000000E+000	99.2925	0.0000000E+000	0.0000000E+000	0.0000000E+000	170.708	0.0000000E+000	0.0000000E+000	0.0000000E+000	-170.708	6.11166	80.7075	9.34872e-06	1.85836e-05	1.29269e-09	1.85823e-05	0.240943	3124.35	0.217332	3124.13
31621.1	1.71223	0.704258	1.85141	-22.3579	3.40956	0.241071	0.0696388	7.14679	1.03412	1	9	0.00502241	0.00271275	0	5.67546e-05	-0.000555501	1.47373e-05	11.6803	0.00543261	0.00532011	-0.00109984	-22.264	1.85591	1.71755	0.703158	0.499526	0.205461	0.54013	22.3579	1034.12	2514.21	2718.57	-67.6421	0.0000000E+000	0.0000000E+000	0.0000000E+000	67.6421	0.0000000E+000	0.0000000E+000	0.0000000E+000	-67.6421	0.0000000E+000	0.0000000E+000	0.0000000E+000	-22.3579	0.0000000E+000	0.0000000E+000	0.0000000E+000	22.3579	2.43125	67.6421	1.27851e-05	1.67879e-05	-3.86844e-08	1.68266e-05	0.241626	3461.73	7.9769	3469.71
10002.2	2.27959	0.982991	2.48249	-23.3264	4.43655	0.241085	0.0579839	16.1873	2.53803	1	9	0.00491509	0.0019799	0	7.89104e-05	-0.000326596	6.46526e-06	-46.2934	0.00326545	0.00225631	0.00236056	-23.3558	2.4855	2.28184	0.985352	0.369896	0.159504	0.402821	23.3264	2538.03	5885.76	6409.66	-66.6736	0.0000000E+000	0.0000000E+000	0.0000000E+000	66.6736	0.0000000E+000	0.0000000E+000	0.0000000E+000	-66.6736	0.0000000E+000	0.0000000E+000	0.0000000E+000	-23.3264	0.0000000E+000	0.0000000E+000	0.0000000E+000	23.3264	2.31903	66.6736	5.71269e-06	1.3979e-05	-1.89373e-08	1.3998e-05	0.241412	4157.8	5.63254	4163.43
3163.08	3.0303	1.41476	3.34429	-25.0264	5.51063	0.240895	-0.00308332	35.5655	6.36478	1	9	0.00497899	0.0014888	0	8.86915e-05	1.67614e-05	7.34174e-06	-38.4612	0.0049313	0.00386136	0.00306719	-25.046	3.34909	3.03417	1.41782	0.270943	0.126495	0.299017	25.0264	6364.78	13632.9	15045.5	-64.9736	0.0000000E+000	0.0000000E+000	0.0000000E+000	64.9736	0.0000000E+000	0.0000000E+000	0.0000000E+000	-64.9736	0.0000000E+000	0.0000000E+000	0.0000000E+000	-25.0264	0.0000000E+000	0.0000000E+000	0.0000000E+000	25.0264	2.14193	64.9736	1.252e-06	-7.42757e-07	-5.16806e-11	-7.42705e-07	0.240879	78128.7	5.43615	78123.2
1000.32	4.11553	2.17593	4.65534	-27.8659	7.10882	0.240998	-0.00741126	73.1201	15.9743	1	10	0.00497404	0.00106846	0	9.08549e-05	-0.000383823	1.31107e-05	-27.3011	0.0122707	0.0109039	0.00562816	-27.8644	4.66761	4.12643	2.18155	0.189899	0.100402	0.214807	27.8659	15974.3	30213.7	34176.7	-62.1341	0.0000000E+000	0.0000000E+000	0.0000000E+000	62.1341	0.0000000E+000	0.0000000E+000	0.0000000E+000	-62.1341	0.0000000E+000	0.0000000E+000	0.0000000E+000	-27.8659	0.0000000E+000	0.0000000E+000	0.0000000E+000	27.8659	1.89139	62.1341	-4.47092e-07	-1.7861e-06	2.84461e-09	-1.78894e-06	0.241382	32517.8	51.7891	32569.6
316.316	5.76711	3.80546	6.90949	-33.4191	8.45903	0.240991	-0.00816326	132.218	40.1064	1	10	0.00489095	0.00070786	0	8.88214e-05	-0.000364747	1.33671e-05	45.7152	0.0188838	0.0131852	-0.0135185	-33.2654	6.91308	5.78029	3.79194	0.1208	0.0797104	0.144728	33.4191	40106.4	60780.6	72820.4	-56.5809	0.0000000E+000	0.0000000E+000	0.0000000E+000	56.5809	0.0000000E+000	0.0000000E+000	0.0000000E+000	-56.5809	0.0000000E+000	0.0000000E+000	0.0000000E+000	-33.4191	0.0000000E+000	0.0000000E+000	0.0000000E+000	33.4191	1.51548	56.5809	-5.07847e-07	-1.96727e-06	2.97753e-09	-1.97025e-06	0.241356	29521.4	44.6815	29566.1
100.032	9.78863	6.19774	11.5857	-32.3402	9.80585	0.240998	-0.00798086	256.713	73.4628	1	10	0.00485755	0.00041927	0	8.68672e-05	-7.86157e-05	6.35874e-06	-12.873	0.0151662	0.014785	0.00337888	-32.3153	11.6	9.80341	6.20112	0.0729247	0.0461728	0.0863131	32.3402	73462.8	116026	137328	-57.6598	0.0000000E+000	0.0000000E+000	0.0000000E+000	57.6598	0.0000000E+000	0.0000000E+000	0.0000000E+000	-57.6598	0.0000000E+000	0.0000000E+000	0.0000000E+000	-32.3402	0.0000000E+000	0.0000000E+000	0.0000000E+000	32.3402	1.57939	57.6598	-1.53177e-06	-1.92337e-06	6.27421e-10	-1.924e-06	0.241077	30197.1	9.85054	30206.9
31.6296	15.772	5.86213	16.8262	-20.3891	11.1346	0.240995	-0.0129954	858.365	104.187	1	10	0.00485803	0.000288719	0	8.33416e-05	-0.000364747	4.5819e-06	-4.47904	0.0158698	0.0158213	0.00123934	-20.3743	16.8414	15.7878	5.86336	0.0557078	0.0207054	0.0594312	20.3891	104187	280313	299049	-69.6109	0.0000000E+000	0.0000000E+000	0.0000000E+000	69.6109	0.0000000E+000	0.0000000E+000	0.0000000E+000	-69.6109	0.0000000E+000	0.0000000E+000	0.0000000E+000	-20.3891	0.0000000E+000	0.0000000E+000	0.0000000E+000	20.3891	2.69049	69.6109	-1.45718e-06	-3.13184e-06	4.74004e-09	-3.13658e-06	0.24136	18544.7	28.0674	18572.7
10.0032	19.3385	3.65953	19.6817	-10.7157	12.6988	0.24104	0.000997895	4347.67	150.307	1	11	0.00484557	0.000246196	0	8.15447e-05	-0.000116767	9.31947e-06	8.63721	0.0378538	0.0374245	-0.00568479	-10.6792	19.7174	19.3759	3.65384	0.0499226	0.00944711	0.0508086	10.7157	150307	794288	808385	-79.2843	0.0000000E+000	0.0000000E+000	0.0000000E+000	79.2843	0.0000000E+000	0.0000000E+000	0.0000000E+000	-79.2843	0.0000000E+000	0.0000000E+000	0.0000000E+000	-10.7157	0.0000000E+000	0.0000000E+000	0.0000000E+000	10.7157	5.28443	79.2843	3.48031e-07	2.40533e-07	-1.16521e-10	2.4065e-07	0.241157	241549	117.013	241666
3.1604	21.1558	2.3097	21.2815	-6.23064	14.2154	0.241053	0.00180543	21803.3	256.821	1	11	0.00485566	0.000228164	0	8.47814e-05	7.39876e-05	3.09597e-06	81.4429	0.0135691	0.002019	-0.013418	-6.19414	21.282	21.1578	2.29628	0.0467117	0.00509979	0.0469892	6.23064	256821	2.35236e+06	2.36634e+06	-83.7694	0.0000000E+000	0.0000000E+000	0.0000000E+000	83.7694	0.0000000E+000	0.0000000E+000	0.0000000E+000	-83.7694	0.0000000E+000	0.0000000E+000	0.0000000E+000	-6.23064	0.0000000E+000	0.0000000E+000	0.0000000E+000	6.23064	9.15953	83.7694	1.70943e-06	4.35204e-07	1.33579e-10	4.35071e-07	0.240979	133516	40.9806	133475
1.00006	22.3154	1.73574	22.3828	-4.44762	19.8538	0.241048	0.000974189	91687.2	551.375	1	12	0.00485671	0.000216984	0	7.61499e-05	-0.000326596	3.51349e-06	20.7881	0.0161924	0.0151382	-0.00574689	-4.42996	22.3974	22.3305	1.72999	0.0445426	0.00346461	0.0446772	4.44762	551375	7.08873e+06	7.11014e+06	-85.5524	0.0000000E+000	0.0000000E+000	0.0000000E+000	85.5524	0.0000000E+000	0.0000000E+000	0.0000000E+000	-85.5524	0.0000000E+000	0.0000000E+000	0.0000000E+000	-4.44762	0.0000000E+000	0.0000000E+000	0.0000000E+000	4.44762	12.8564	85.5524	-2.39293e-06	2.34827e-07	-3.18166e-10	2.35145e-07	0.241375	247435	335.249	247770
0.316193	23.2082	1.75723	23.2747	-4.32993	34.1971	0.241049	-0.000272206	286444	1632.78	1	12	0.00485629	0.000208651	0	0.000109931	-0.000116767	1.01777e-06	-0.918663	0.00487784	0.00487721	7.82064e-05	-4.32922	23.2795	23.2131	1.75731	0.0428425	0.00324385	0.0429652	4.32993	1.63279e+06	2.15647e+07	2.16264e+07	-85.6701	0.0000000E+000	0.0000000E+000	0.0000000E+000	85.6701	0.0000000E+000	0.0000000E+000	0.0000000E+000	-85.6701	0.0000000E+000	0.0000000E+000	0.0000000E+000	-4.32993	0.0000000E+000	0.0000000E+000	0.0000000E+000	4.32993	13.2073	85.6701	1.72169e-05	-6.5615e-08	3.17846e-11	-6.56468e-08	0.241166	885538	428.964	885967
0.0999041	24.1659	3.03661	24.3559	-7.16206	79.4061	0.241058	-0.000445385	524624	8154.86	1	12	0.00485512	0.000199341	0	7.77309e-05	-0.000421973	2.34643e-06	28.4649	0.011771	0.010348	-0.00561028	-7.14594	24.3655	24.1762	3.031	0.0407374	0.00511893	0.0410578	7.16206	8.15486e+06	6.48979e+07	6.54082e+07	-82.8379	0.0000000E+000	0.0000000E+000	0.0000000E+000	82.8379	0.0000000E+000	0.0000000E+000	0.0000000E+000	-82.8379	0.0000000E+000	0.0000000E+000	0.0000000E+000	-7.16206	0.0000000E+000	0.0000000E+000	0.0000000E+000	7.16206	7.95819	82.8379	-4.52754e-05	-1.07364e-07	1.87941e-10	-1.07552e-07	0.24148	541235	947.434	542182
0.0315922	26.1605	6.5135	26.9592	-13.9813	222.29	0.241058	-0.00526724	773439	45148.3	1	12	0.00485686	0.000180156	0	-0.000282733	-0.000116767	2.50336e-06	14.4942	0.0138955	0.0134533	-0.0034778	-13.9673	26.9714	26.1739	6.51002	0.0359942	0.00896192	0.0370931	13.9813	4.51483e+07	1.81331e+08	1.86867e+08	-76.0187	0.0000000E+000	0.0000000E+000	0.0000000E+000	76.0187	0.0000000E+000	0.0000000E+000	0.0000000E+000	-76.0187	0.0000000E+000	0.0000000E+000	0.0000000E+000	-13.9813	0.0000000E+000	0.0000000E+000	0.0000000E+000	13.9813	4.01635	76.0187	-0.000139851	-1.26971e-06	6.15038e-10	-1.27033e-06	0.241175	45765.6	22.1685	45787.8
0.0100092	30.8928	14.7682	34.2413	-25.55	673.513	0.24106	-0.00705186	1.0767e+06	200286	1	12	0.00485621	0.000141823	0	-0.000332908	-0.000250295	3.44763e-06	-11.8176	0.0243094	0.0237941	0.0049785	-25.5403	34.2649	30.9166	14.7732	0.0263486	0.0125959	0.0292045	25.55	2.00286e+08	4.18967e+08	4.64378e+08	-64.45	0.0000000E+000	0.0000000E+000	0.0000000E+000	64.45	0.0000000E+000	0.0000000E+000	0.0000000E+000	-64.45	0.0000000E+000	0.0000000E+000	0.0000000E+000	-25.55	0.0000000E+000	0.0000000E+000	0.0000000E+000	25.55	2.09184	64.45	-1.80724e-06	-1.69992e-06	1.76504e-09	-1.70169e-06	0.24131	34183.9	35.4934	34219.3