File: txt/18403_R288_UA691_SOC00_C03.mpt
EC-Lab ASCII FILE
Nb header lines : 65

Potentio Electrochemical Impedance Spectroscopy

Run on channel : 3 (SN 65921)
User :
CE vs. WE compliance from -10 V to 10 V
Electrode connection : standard
Potential control : Ewe
Ewe ctrl range : min = -10.00 V, max = 10.00 V
Safety Limits :
	Do not start on E overload
Acquisition started on : 10/14/2025 16:30:19.060
Technique started on : 10/14/2025 16:30:20.786
Loaded Setting File :  NONE
Saved on :
	File : 18403_R288_UA691_SOC00_C03.mpr
	Directory : C:\Users\Celltest\OneDrive - store-dot.com\Documents\EC-Lab\Data\Charmaine\
	Host : 169.254.61.224
Device : VMP-3e (SN .003165)
Address : USB
EC-LAB for windows v11.62 (software)
Internet server v27.00 (firmware)
Command interpretor v12.03 (firmware)
Electrode material :
Initial state :
Electrolyte :
Comments :
Electrode surface area : 0.001 cm²
Characteristic mass : 0.001 g
Equivalent Weight : 0.000 g/eq.
Density : 0.000 g/cm3
Volume (V) : 0.001 cm³
Record Ece
Cycle Definition : Charge/Discharge alternance
Mode                Single sine
E (V)               0.0000
vs.                 Eoc
tE (h:m:s)          0:00:0.0000
record              0
dI                  0.000
unit dI             mA
dt (s)              0.000
fi                  100.000
unit fi             kHz
ff                  10.000
unit ff             mHz
Nd                  6
Points              per decade
spacing             Logarithmic
Va (mV)             5.0
pw                  0.10
Na                  2
corr                0
E range min (V)     -10.000
E range max (V)     10.000
I Range             Auto
Bandwidth           5
nc cycles           0
goto Ns'            0
nr cycles           0
inc. cycle          0

freq/Hz	Re(Z)/Ohm	-Im(Z)/Ohm	|Z|/Ohm	Phase(Z)/deg	time/s	<Ewe>/V	<I>/mA	Cs/µF	Cp/µF	cycle number	I Range	|Ewe|/V	|I|/A	Ns	(Q-Qo)/mA.h	<Ece>/V	|Ece|/V	Phase(Zce)/deg	|Zce|/Ohm	Re(Zce)/Ohm	-Im(Zce)/Ohm	Phase(Zwe-ce)/deg	|Zwe-ce|/Ohm	Re(Zwe-ce)/Ohm	-Im(Zwe-ce)/Ohm	Re(Y)/Ohm-1	Im(Y)/Ohm-1	|Y|/Ohm-1	Phase(Y)/deg	Re(C)/nF	Im(C)/nF	|C|/nF	Phase(C)/deg	Re(M)	Im(M)	|M|	Phase(M)/deg	Re(Permittivity)	Im(Permittivity)	|Permittivity|	Phase(Permittivity)/deg	Re(Resistivity)/Ohm.cm	Im(Resistivity)/Ohm.cm	|Resistivity|/Ohm.cm	Phase(Resistivity)/deg	Re(Conductivity)/mS/cm	Im(Conductivity)/mS/cm	|Conductivity|/mS/cm	Phase(Conductivity)/deg	Tan(Delta)	Loss Angle(Delta)/deg	dq/mA.h	Pwe/W	Pce/W	Pwe-ce/W	<Ewe-Ece>/V	Rwe/Ohm	Rce/Ohm	Rwe-ce/Ohm		Ewe-Ece/V
100004	1.32426	0.426129	1.39114	-17.8374	1.72551	0.260473	0.0109952	3.73476	0.350434	1	9	0.00463779	0.00333381	0	4.65577e-06	-2.32329e-05	3.63398e-05	85.1072	0.0109004	0.000929704	-0.0108606	-17.3991	1.38874	1.32519	0.415269	0.684282	0.220192	0.718837	17.8374	350.434	1089.03	1144.02	-72.1626	0.0000000E+000	0.0000000E+000	0.0000000E+000	72.1626	0.0000000E+000	0.0000000E+000	0.0000000E+000	-72.1626	0.0000000E+000	0.0000000E+000	0.0000000E+000	-17.8374	0.0000000E+000	0.0000000E+000	0.0000000E+000	17.8374	3.10766	72.1626	4.65577e-06	2.86396e-06	-2.55451e-10	2.86422e-06	0.260497	23689.7	2.113	23691.8
31621.1	1.69768	0.594165	1.79865	-19.2894	3.24652	0.260465	-0.002244	8.47101	0.92439	1	9	0.00516196	0.0028699	0	-8.27549e-06	-6.1421e-05	1.41469e-05	-1.37336	0.00492939	0.00492797	0.000118144	-19.2412	1.80334	1.70261	0.594284	0.524761	0.183659	0.555972	19.2894	924.39	2641.22	2798.31	-70.7106	0.0000000E+000	0.0000000E+000	0.0000000E+000	70.7106	0.0000000E+000	0.0000000E+000	0.0000000E+000	-70.7106	0.0000000E+000	0.0000000E+000	0.0000000E+000	-19.2894	0.0000000E+000	0.0000000E+000	0.0000000E+000	19.2894	2.85725	70.7106	-9.92525e-06	-5.84484e-07	1.37829e-10	-5.84622e-07	0.260526	116071	27.3712	116099
10002.2	2.15918	0.805839	2.30465	-20.4664	4.39553	0.260458	0.003984	19.7458	2.41413	1	9	0.00498872	0.00216463	0	-3.13893e-06	0.00012952	1.06313e-05	-112.254	0.00491139	-0.00185999	0.00454557	-20.5884	2.30451	2.15732	0.810385	0.406516	0.151718	0.433905	20.4664	2414.13	6468.46	6904.27	-69.5336	0.0000000E+000	0.0000000E+000	0.0000000E+000	69.5336	0.0000000E+000	0.0000000E+000	0.0000000E+000	-69.5336	0.0000000E+000	0.0000000E+000	0.0000000E+000	-20.4664	0.0000000E+000	0.0000000E+000	0.0000000E+000	20.4664	2.67942	69.5336	8.02333e-07	1.03767e-06	5.16006e-10	1.03715e-06	0.260329	65376.1	32.51	65343.6
3163.08	2.7939	1.17215	3.02982	-22.7599	5.29461	0.26024	-0.0471455	42.9267	6.42477	1	9	0.00457738	0.00151078	0	-8.55499e-06	9.13315e-05	7.2866e-06	-91.034	0.00482308	-8.70318e-05	0.0048223	-22.8446	3.03161	2.79382	1.17697	0.304353	0.127687	0.330052	22.7599	6424.77	15313.9	16607.1	-67.2401	0.0000000E+000	0.0000000E+000	0.0000000E+000	67.2401	0.0000000E+000	0.0000000E+000	0.0000000E+000	-67.2401	0.0000000E+000	0.0000000E+000	0.0000000E+000	-22.7599	0.0000000E+000	0.0000000E+000	0.0000000E+000	22.7599	2.38358	67.2401	-4.75016e-06	-1.22691e-05	-4.30587e-09	-1.22648e-05	0.260148	5519.93	1.93723	5517.99
1000.32	3.57858	1.85346	4.03008	-27.3811	6.89384	0.260411	-0.0219936	85.8414	18.1567	1	10	0.00459296	0.00113967	0	2.14425e-06	-0.000214174	9.01107e-06	77.9074	0.00790676	0.00165641	-0.00773131	-27.2726	4.02801	3.58024	1.84573	0.220335	0.114118	0.248134	27.3811	18156.7	35056.1	39479.1	-62.6189	0.0000000E+000	0.0000000E+000	0.0000000E+000	62.6189	0.0000000E+000	0.0000000E+000	0.0000000E+000	-62.6189	0.0000000E+000	0.0000000E+000	0.0000000E+000	-27.3811	0.0000000E+000	0.0000000E+000	0.0000000E+000	27.3811	1.93075	62.6189	-2.28835e-06	-5.72738e-06	4.71044e-09	-5.73209e-06	0.260626	11840.3	9.73801	11850.1
316.316	4.98616	3.46835	6.07381	-34.8223	8.24308	0.260401	-0.0222285	145.07	47.3042	1	10	0.0045046	0.000741642	0	-6.25973e-06	-0.000252362	5.16265e-06	80.1667	0.00696111	0.00118884	-0.00685884	-34.7628	6.07087	4.98734	3.46149	0.135158	0.0940157	0.164641	34.8223	47304.2	68005.2	82839.6	-55.1777	0.0000000E+000	0.0000000E+000	0.0000000E+000	55.1777	0.0000000E+000	0.0000000E+000	0.0000000E+000	-55.1777	0.0000000E+000	0.0000000E+000	0.0000000E+000	-34.8223	0.0000000E+000	0.0000000E+000	0.0000000E+000	34.8223	1.43762	55.1777	-2.30435e-06	-5.78832e-06	5.60962e-09	-5.79393e-06	0.260653	11714.7	11.3531	11726.1
100.032	8.54014	5.86697	10.3612	-34.4886	9.80479	0.260406	-0.0213709	271.186	86.9504	1	10	0.00485811	0.000468873	0	-1.38556e-05	-0.000443302	1.0439e-05	26.6514	0.0222641	0.0198986	-0.00998684	-34.3809	10.372	8.56004	5.85699	0.0795502	0.05465	0.0965135	34.4886	86950.4	126568	153557	-55.5114	0.0000000E+000	0.0000000E+000	0.0000000E+000	55.5114	0.0000000E+000	0.0000000E+000	0.0000000E+000	-55.5114	0.0000000E+000	0.0000000E+000	0.0000000E+000	-34.4886	0.0000000E+000	0.0000000E+000	0.0000000E+000	34.4886	1.45563	55.5114	-3.40821e-06	-5.5651e-06	9.47375e-09	-5.57457e-06	0.260849	12185.1	20.7433	12205.8
31.6296	14.2833	6.60261	15.7355	-24.8093	11.1335	0.26039	-0.0268859	762.099	134.177	1	10	0.00484533	0.000307922	0	-2.20514e-05	-2.32329e-05	6.06197e-06	47.783	0.0196867	0.0132283	-0.0145801	-24.7409	15.7414	14.2965	6.58803	0.0576853	0.0266657	0.0635504	24.8093	134177	290263	319776	-65.1907	0.0000000E+000	0.0000000E+000	0.0000000E+000	65.1907	0.0000000E+000	0.0000000E+000	0.0000000E+000	-65.1907	0.0000000E+000	0.0000000E+000	0.0000000E+000	-24.8093	0.0000000E+000	0.0000000E+000	0.0000000E+000	24.8093	2.16328	65.1907	-3.33007e-06	-7.00081e-06	6.24636e-10	-7.00144e-06	0.260413	9685.01	0.864129	9685.87
10.0032	19.2319	5.28678	19.9454	-15.3707	12.6968	0.26044	-0.0131411	3009.47	211.441	1	11	0.00485499	0.000243415	0	-2.71479e-05	-0.000137797	7.06799e-06	25.3113	0.0290368	0.0262492	-0.0124143	-15.3164	19.9674	19.2582	5.27436	0.0483436	0.0132895	0.050137	15.3707	211441	769167	797700	-74.6293	0.0000000E+000	0.0000000E+000	0.0000000E+000	74.6293	0.0000000E+000	0.0000000E+000	0.0000000E+000	-74.6293	0.0000000E+000	0.0000000E+000	0.0000000E+000	-15.3707	0.0000000E+000	0.0000000E+000	0.0000000E+000	15.3707	3.63774	74.6293	-8.99879e-07	-3.42247e-06	1.81081e-09	-3.42428e-06	0.260578	19818.7	10.486	19829.2
3.1604	22.4984	3.90275	22.8344	-9.84106	14.2135	0.260433	-0.0126178	12903.5	376.939	1	11	0.00485245	0.000212506	0	-3.46043e-05	0.000148614	5.39901e-06	-10.3885	0.0254064	0.0249899	0.00458134	-9.84167	22.8598	22.5234	3.90734	0.0431492	0.00748501	0.0437936	9.84106	376939	2.17296e+06	2.20541e+06	-80.1589	0.0000000E+000	0.0000000E+000	0.0000000E+000	80.1589	0.0000000E+000	0.0000000E+000	0.0000000E+000	-80.1589	0.0000000E+000	0.0000000E+000	0.0000000E+000	-9.84106	0.0000000E+000	0.0000000E+000	0.0000000E+000	9.84106	5.76475	80.1589	-2.39714e-06	-3.28607e-06	-1.87517e-09	-3.2842e-06	0.260284	20640.2	11.7781	20628.4
1.00006	24.8418	2.99964	25.0222	-6.88513	19.853	0.260442	-0.010551	53054.6	762.448	1	12	0.00485781	0.00019414	0	-4.36898e-05	-0.000214174	3.25358e-06	-10.6954	0.0167589	0.0164678	0.00311025	-6.88768	25.0389	24.8582	3.00275	0.0396763	0.00479091	0.0399645	6.88513	762449	6.31427e+06	6.36014e+06	-83.1149	0.0000000E+000	0.0000000E+000	0.0000000E+000	83.1149	0.0000000E+000	0.0000000E+000	0.0000000E+000	-83.1149	0.0000000E+000	0.0000000E+000	0.0000000E+000	-6.88513	0.0000000E+000	0.0000000E+000	0.0000000E+000	6.88513	8.28158	83.1149	-8.69767e-06	-2.74794e-06	2.25975e-09	-2.7502e-06	0.260657	24684.1	20.2988	24704.3
0.316193	26.8123	2.90485	26.9692	-6.18332	34.1959	0.260443	-0.00907632	173278	2010.27	1	12	0.00485838	0.000180145	0	-0.000110456	1.49552e-05	4.02917e-06	20.6078	0.0223662	0.0209351	-0.00787221	-6.16192	26.9892	26.8332	2.89698	0.0368636	0.00399381	0.0370793	6.18332	2.01027e+06	1.85552e+07	1.86638e+07	-83.8167	0.0000000E+000	0.0000000E+000	0.0000000E+000	83.8167	0.0000000E+000	0.0000000E+000	0.0000000E+000	-83.8167	0.0000000E+000	0.0000000E+000	0.0000000E+000	-6.18332	0.0000000E+000	0.0000000E+000	0.0000000E+000	6.18332	9.23018	83.8167	-2.85206e-05	-2.36387e-06	-1.35739e-10	-2.36373e-06	0.260428	28694.8	1.64772	28693.2
0.0999041	29.3573	4.41081	29.6868	-8.54454	79.4038	0.260452	-0.00754646	361176	7973.13	1	12	0.00485539	0.000163554	0	-0.00015359	0.000110426	2.87235e-06	12.6103	0.0175621	0.0171384	-0.00383413	-8.53232	29.7032	29.3744	4.40698	0.0333111	0.00500486	0.033685	8.54454	7.97313e+06	5.30672e+07	5.36628e+07	-81.4555	0.0000000E+000	0.0000000E+000	0.0000000E+000	81.4555	0.0000000E+000	0.0000000E+000	0.0000000E+000	-81.4555	0.0000000E+000	0.0000000E+000	0.0000000E+000	-8.54454	0.0000000E+000	0.0000000E+000	0.0000000E+000	8.54454	6.65576	81.4555	-7.53471e-07	-1.96549e-06	-8.33322e-10	-1.96466e-06	0.260342	34513.2	14.6328	34498.5
0.0315922	34.0711	8.22917	35.0508	-13.5786	222.287	0.260454	-0.00340294	612187	33744.4	1	12	0.0048567	0.000138562	0	-0.000247537	-6.1421e-05	3.32729e-06	-1.09234	0.024013	0.0240087	0.000457779	-13.5701	35.0742	34.0951	8.22963	0.0277326	0.00669825	0.0285301	13.5786	3.37444e+07	1.39711e+08	1.43728e+08	-76.4214	0.0000000E+000	0.0000000E+000	0.0000000E+000	76.4214	0.0000000E+000	0.0000000E+000	0.0000000E+000	-76.4214	0.0000000E+000	0.0000000E+000	0.0000000E+000	-13.5786	0.0000000E+000	0.0000000E+000	0.0000000E+000	13.5786	4.14028	76.4214	-8.26391e-05	-8.8631e-07	2.09012e-10	-8.86519e-07	0.260515	76537.8	18.0494	76555.9
0.0100092	41.1305	16.1403	44.184	-21.4259	673.506	0.260448	-0.00391165	985167	131463	1	12	0.00485655	0.000109916	0	-0.00131127	3.40493e-05	2.12216e-06	-20.5734	0.019307	0.0180757	0.0067846	-21.4256	44.2033	41.1485	16.1471	0.0210685	0.00826766	0.0226326	21.4259	1.31463e+08	3.35009e+08	3.5988e+08	-68.5741	0.0000000E+000	0.0000000E+000	0.0000000E+000	68.5741	0.0000000E+000	0.0000000E+000	0.0000000E+000	-68.5741	0.0000000E+000	0.0000000E+000	0.0000000E+000	-21.4259	0.0000000E+000	0.0000000E+000	0.0000000E+000	21.4259	2.5483	68.5741	-0.000482306	-1.01878e-06	-1.33189e-10	-1.01865e-06	0.260414	66582.7	8.7046	66574