File: txt/18404_R288_UA691_SOC00_C04.mpt
EC-Lab ASCII FILE
Nb header lines : 65

Potentio Electrochemical Impedance Spectroscopy

Run on channel : 4 (SN 66756)
User :
CE vs. WE compliance from -10 V to 10 V
Electrode connection : standard
Potential control : Ewe
Ewe ctrl range : min = -10.00 V, max = 10.00 V
Safety Limits :
	Do not start on E overload
Acquisition started on : 10/14/2025 16:30:35.389
Technique started on : 10/14/2025 16:30:37.300
Loaded Setting File :  NONE
Saved on :
	File : 18404_R288_UA691_SOC00_C04.mpr
	Directory : C:\Users\Celltest\OneDrive - store-dot.com\Documents\EC-Lab\Data\Charmaine\
	Host : 169.254.61.224
Device : VMP-3e (SN .003165)
Address : USB
EC-LAB for windows v11.62 (software)
Internet server v27.00 (firmware)
Command interpretor v12.03 (firmware)
Electrode material :
Initial state :
Electrolyte :
Comments :
Electrode surface area : 0.001 cm²
Characteristic mass : 0.001 g
Equivalent Weight : 0.000 g/eq.
Density : 0.000 g/cm3
Volume (V) : 0.001 cm³
Record Ece
Cycle Definition : Charge/Discharge alternance
Mode                Single sine
E (V)               0.0000
vs.                 Eoc
tE (h:m:s)          0:00:0.0000
record              0
dI                  0.000
unit dI             mA
dt (s)              0.000
fi                  100.000
unit fi             kHz
ff                  10.000
unit ff             mHz
Nd                  6
Points              per decade
spacing             Logarithmic
Va (mV)             5.0
pw                  0.10
Na                  2
corr                0
E range min (V)     -10.000
E range max (V)     10.000
I Range             Auto
Bandwidth           5
nc cycles           0
goto Ns'            0
nr cycles           0
inc. cycle          0

freq/Hz	Re(Z)/Ohm	-Im(Z)/Ohm	|Z|/Ohm	Phase(Z)/deg	time/s	<Ewe>/V	<I>/mA	Cs/µF	Cp/µF	cycle number	I Range	|Ewe|/V	|I|/A	Ns	(Q-Qo)/mA.h	<Ece>/V	|Ece|/V	Phase(Zce)/deg	|Zce|/Ohm	Re(Zce)/Ohm	-Im(Zce)/Ohm	Phase(Zwe-ce)/deg	|Zwe-ce|/Ohm	Re(Zwe-ce)/Ohm	-Im(Zwe-ce)/Ohm	Re(Y)/Ohm-1	Im(Y)/Ohm-1	|Y|/Ohm-1	Phase(Y)/deg	Re(C)/nF	Im(C)/nF	|C|/nF	Phase(C)/deg	Re(M)	Im(M)	|M|	Phase(M)/deg	Re(Permittivity)	Im(Permittivity)	|Permittivity|	Phase(Permittivity)/deg	Re(Resistivity)/Ohm.cm	Im(Resistivity)/Ohm.cm	|Resistivity|/Ohm.cm	Phase(Resistivity)/deg	Re(Conductivity)/mS/cm	Im(Conductivity)/mS/cm	|Conductivity|/mS/cm	Phase(Conductivity)/deg	Tan(Delta)	Loss Angle(Delta)/deg	dq/mA.h	Pwe/W	Pce/W	Pwe-ce/W	<Ewe-Ece>/V	Rwe/Ohm	Rce/Ohm	Rwe-ce/Ohm		Ewe-Ece/V
100004	1.27813	0.416298	1.34422	-18.0409	1.91055	0.26088	-0.0232588	3.82296	0.366664	1	9	0.00460729	0.00342748	0	-8.59386e-06	3.60827e-06	4.04796e-05	91.5579	0.0118103	-0.000321089	-0.011806	-17.5652	1.34031	1.27781	0.404492	0.707351	0.23039	0.743926	18.0409	366.663	1125.74	1183.95	-71.9592	0.0000000E+000	0.0000000E+000	0.0000000E+000	71.9592	0.0000000E+000	0.0000000E+000	0.0000000E+000	-71.9592	0.0000000E+000	0.0000000E+000	0.0000000E+000	-18.0409	0.0000000E+000	0.0000000E+000	0.0000000E+000	18.0409	3.07023	71.9592	-8.59386e-06	-6.06775e-06	-8.39241e-11	-6.06766e-06	0.260876	11216.4	0.155136	11216.2
31621.1	1.65153	0.581501	1.75091	-19.3971	3.30953	0.260861	-0.0284431	8.6555	0.954695	1	9	0.0054913	0.00313625	0	-1.57755e-05	-0.000244821	1.04242e-05	14.4226	0.00332378	0.00321903	-0.000827861	-19.3367	1.75367	1.65475	0.580673	0.538713	0.18968	0.571131	19.3971	954.695	2711.44	2874.61	-70.6029	0.0000000E+000	0.0000000E+000	0.0000000E+000	70.6029	0.0000000E+000	0.0000000E+000	0.0000000E+000	-70.6029	0.0000000E+000	0.0000000E+000	0.0000000E+000	-19.3971	0.0000000E+000	0.0000000E+000	0.0000000E+000	19.3971	2.84011	70.6029	1.45953e-06	-7.41972e-06	6.96348e-09	-7.42668e-06	0.261106	9171.33	8.60739	9179.94
10002.2	2.10439	0.782343	2.24511	-20.3935	4.33456	0.260853	-0.024788	20.3388	2.46971	1	9	0.00528862	0.00235562	0	-1.35526e-05	0.000194708	8.06302e-06	65.5332	0.00342289	0.00141764	-0.00311552	-20.3064	2.24535	2.10581	0.779228	0.417495	0.155211	0.445413	20.3935	2469.71	6643.16	7087.39	-69.6065	0.0000000E+000	0.0000000E+000	0.0000000E+000	69.6065	0.0000000E+000	0.0000000E+000	0.0000000E+000	-69.6065	0.0000000E+000	0.0000000E+000	0.0000000E+000	-20.3935	0.0000000E+000	0.0000000E+000	0.0000000E+000	20.3935	2.68985	69.6065	-2.06981e-06	-6.46603e-06	-4.82642e-09	-6.4612e-06	0.260658	10523.4	7.85492	10515.5
3163.08	2.67101	1.10763	2.89157	-22.5231	5.23267	0.2607	-0.0680529	45.427	6.66561	1	9	0.00503079	0.00173982	0	-2.53245e-05	2.27182e-05	6.333e-06	-95.081	0.00364004	-0.000322375	0.00362574	-22.5919	2.89266	2.67069	1.11126	0.319455	0.132474	0.345833	22.5231	6665.61	16073.8	17401.1	-67.4769	0.0000000E+000	0.0000000E+000	0.0000000E+000	67.4769	0.0000000E+000	0.0000000E+000	0.0000000E+000	-67.4769	0.0000000E+000	0.0000000E+000	0.0000000E+000	-22.5231	0.0000000E+000	0.0000000E+000	0.0000000E+000	22.5231	2.41146	67.4769	-5.41042e-06	-1.77414e-05	-1.54604e-09	-1.77399e-05	0.260678	3830.85	0.333832	3830.51
1000.32	3.4806	1.78928	3.91358	-27.2065	6.83179	0.260762	-0.0226668	88.9206	18.5871	1	10	0.0050047	0.00127881	0	-3.80355e-05	-5.37216e-05	4.2213e-06	-64.1389	0.00330097	0.00143985	0.00297039	-27.2355	3.91621	3.48203	1.79225	0.227251	0.116824	0.255521	27.2065	18587.1	36156.6	40654.4	-62.7935	0.0000000E+000	0.0000000E+000	0.0000000E+000	62.7935	0.0000000E+000	0.0000000E+000	0.0000000E+000	-62.7935	0.0000000E+000	0.0000000E+000	0.0000000E+000	-27.2065	0.0000000E+000	0.0000000E+000	0.0000000E+000	27.2065	1.94525	62.7935	-3.78479e-06	-5.91064e-06	1.2177e-09	-5.91185e-06	0.260816	11504.1	2.37006	11506.5
316.316	4.89467	3.30788	5.90761	-34.0514	8.18201	0.260777	-0.0227302	152.107	47.6898	1	10	0.00490873	0.000830917	0	-4.5468e-05	-5.37216e-05	7.98342e-06	14.6004	0.00960797	0.0092977	-0.00242195	-33.9815	5.91396	4.90396	3.30546	0.140249	0.0947821	0.169273	34.0514	47689.8	70566.6	85170.2	-55.9486	0.0000000E+000	0.0000000E+000	0.0000000E+000	55.9486	0.0000000E+000	0.0000000E+000	0.0000000E+000	-55.9486	0.0000000E+000	0.0000000E+000	0.0000000E+000	-34.0514	0.0000000E+000	0.0000000E+000	0.0000000E+000	34.0514	1.4797	55.9486	-2.37078e-06	-5.92751e-06	1.2211e-09	-5.92873e-06	0.26083	11472.7	2.36345	11475.1
100.032	8.28369	5.39939	9.88802	-33.0967	9.52982	0.260777	-0.0219954	294.67	87.8632	1	10	0.00486926	0.00049244	0	-5.40499e-05	2.27182e-05	5.54012e-06	20.1701	0.0112503	0.0105604	-0.00387922	-33.0445	9.89475	8.29425	5.39551	0.0847237	0.0552238	0.101132	33.0967	87863.2	134799	160906	-56.9033	0.0000000E+000	0.0000000E+000	0.0000000E+000	56.9033	0.0000000E+000	0.0000000E+000	0.0000000E+000	-56.9033	0.0000000E+000	0.0000000E+000	0.0000000E+000	-33.0967	0.0000000E+000	0.0000000E+000	0.0000000E+000	33.0967	1.53419	56.9033	-1.91714e-06	-5.73588e-06	-4.99696e-10	-5.73538e-06	0.260754	11856	1.03286	11854.9
31.6296	13.4681	5.91987	14.7117	-23.7278	10.8586	0.260773	-0.0252071	849.992	137.631	1	10	0.00487076	0.000331082	0	-6.22874e-05	-0.000149271	2.03189e-06	8.72261	0.00613713	0.00606615	-0.000930701	-23.715	14.7169	13.4741	5.91894	0.0622272	0.0273519	0.0679732	23.7278	137631	313118	342030	-66.2722	0.0000000E+000	0.0000000E+000	0.0000000E+000	66.2722	0.0000000E+000	0.0000000E+000	0.0000000E+000	-66.2722	0.0000000E+000	0.0000000E+000	0.0000000E+000	-23.7278	0.0000000E+000	0.0000000E+000	0.0000000E+000	23.7278	2.27506	66.2722	-3.29242e-06	-6.57332e-06	3.76269e-09	-6.57708e-06	0.260922	10345.2	5.92181	10351.2
10.0032	17.8496	4.77113	18.4762	-14.9651	12.4228	0.260802	-0.00779606	3334.72	222.37	1	11	0.00486481	0.000263301	0	-6.50764e-05	-0.000263931	9.05013e-06	31.1737	0.0343718	0.0294086	-0.0177921	-14.8884	18.5001	17.879	4.75334	0.0522879	0.0139764	0.0541236	14.9651	222370	831921	861128	-75.0349	0.0000000E+000	0.0000000E+000	0.0000000E+000	75.0349	0.0000000E+000	0.0000000E+000	0.0000000E+000	-75.0349	0.0000000E+000	0.0000000E+000	0.0000000E+000	-14.9651	0.0000000E+000	0.0000000E+000	0.0000000E+000	14.9651	3.74116	75.0349	2.53778e-07	-2.03323e-06	2.05762e-09	-2.03529e-06	0.261066	33453.1	33.8544	33486.9
3.1604	20.8069	3.4488	21.0908	-9.41137	13.9404	0.260815	-0.00670201	14601.9	390.446	1	11	0.00486831	0.000230826	0	-6.98504e-05	-0.000455031	2.53223e-06	-23.3899	0.0109703	0.0100688	0.00435506	-9.41856	21.1014	20.817	3.45316	0.0467758	0.00775322	0.047414	9.41137	390446	2.35559e+06	2.38773e+06	-80.5886	0.0000000E+000	0.0000000E+000	0.0000000E+000	80.5886	0.0000000E+000	0.0000000E+000	0.0000000E+000	-80.5886	0.0000000E+000	0.0000000E+000	0.0000000E+000	-9.41137	0.0000000E+000	0.0000000E+000	0.0000000E+000	9.41137	6.03308	80.5886	-5.30592e-07	-1.74799e-06	3.04962e-09	-1.75104e-06	0.26127	38916	67.8946	38983.9
1.00006	22.7893	2.65375	22.9433	-6.64201	19.5788	0.260807	-0.0052641	59969.8	802.305	1	12	0.00486643	0.000212106	0	-7.20752e-05	-0.000149271	3.10624e-06	-34.7419	0.0146447	0.012034	0.00834574	-6.65922	22.9562	22.8014	2.66209	0.0432931	0.00504135	0.0435857	6.64201	802305	6.88987e+06	6.93643e+06	-83.358	0.0000000E+000	0.0000000E+000	0.0000000E+000	83.358	0.0000000E+000	0.0000000E+000	0.0000000E+000	-83.358	0.0000000E+000	0.0000000E+000	0.0000000E+000	-6.64201	0.0000000E+000	0.0000000E+000	0.0000000E+000	6.64201	8.5876	83.358	-5.72568e-06	-1.37291e-06	7.85779e-10	-1.3737e-06	0.260956	49544.5	28.3565	49572.8
0.316193	24.4177	2.64134	24.5601	-6.17386	33.9219	0.26082	-0.00506661	190565	2204.1	1	12	0.00486497	0.000198084	0	-0.000120851	-0.000149271	2.74341e-06	49.5144	0.0138497	0.00899203	-0.0105337	-6.14718	24.5679	24.4267	2.6308	0.0404803	0.00437888	0.0407164	6.17386	2.2041e+06	2.03756e+07	2.04945e+07	-83.8261	0.0000000E+000	0.0000000E+000	0.0000000E+000	83.8261	0.0000000E+000	0.0000000E+000	0.0000000E+000	-83.8261	0.0000000E+000	0.0000000E+000	0.0000000E+000	-6.17386	0.0000000E+000	0.0000000E+000	0.0000000E+000	6.17386	9.24444	83.8261	-1.86204e-05	-1.32147e-06	7.563e-10	-1.32223e-06	0.260969	51478.1	29.4618	51507.6
0.0999041	26.6146	4.09345	26.9276	-8.74385	79.1311	0.260816	-0.00503314	389177	8993.58	1	12	0.00486734	0.000180757	0	-0.000105962	-0.000283041	2.88779e-06	-23.6584	0.0159761	0.0146333	0.00641093	-8.75259	26.943	26.6292	4.09987	0.0367051	0.00564542	0.0371367	8.74385	8.99359e+06	5.8474e+07	5.91616e+07	-81.2561	0.0000000E+000	0.0000000E+000	0.0000000E+000	81.2561	0.0000000E+000	0.0000000E+000	0.0000000E+000	-81.2561	0.0000000E+000	0.0000000E+000	0.0000000E+000	-8.74385	0.0000000E+000	0.0000000E+000	0.0000000E+000	8.74385	6.50175	81.2561	2.13429e-05	-1.31272e-06	1.42458e-09	-1.31415e-06	0.261099	51819.7	56.2355	51875.9
0.0315922	30.6604	7.81865	31.6416	-14.306	222.016	0.260816	-0.00239586	644330	39341.8	1	12	0.00486899	0.000153879	0	-0.000184743	-0.000111051	2.70761e-06	5.10243	0.0175957	0.017526	-0.0015649	-14.2954	31.6582	30.678	7.81708	0.0306239	0.00780933	0.0316039	14.306	3.93418e+07	1.54277e+08	1.59214e+08	-75.694	0.0000000E+000	0.0000000E+000	0.0000000E+000	75.694	0.0000000E+000	0.0000000E+000	0.0000000E+000	-75.694	0.0000000E+000	0.0000000E+000	0.0000000E+000	-14.306	0.0000000E+000	0.0000000E+000	0.0000000E+000	14.306	3.92145	75.694	-9.64817e-05	-6.24877e-07	2.66063e-10	-6.25143e-07	0.260927	108861	46.3515	108907
0.0100092	37.0926	15.4342	40.1756	-22.5922	673.238	0.26081	-0.00378224	1.03024e+06	152049	1	12	0.00486356	0.000121058	0	-0.00123512	0.000271148	4.23654e-06	64.762	0.034996	0.0149216	-0.0316555	-22.5423	40.1772	37.1076	15.4026	0.0229807	0.00956226	0.0248907	22.5922	1.52049e+08	3.65414e+08	3.95785e+08	-67.4078	0.0000000E+000	0.0000000E+000	0.0000000E+000	67.4078	0.0000000E+000	0.0000000E+000	0.0000000E+000	-67.4078	0.0000000E+000	0.0000000E+000	0.0000000E+000	-22.5922	0.0000000E+000	0.0000000E+000	0.0000000E+000	22.5922	2.40327	67.4078	-0.000435955	-9.86445e-07	-1.02554e-09	-9.8542e-07	0.260539	68956.6	71.6898	68884.9