File: txt/18402_R288_UA691_SOC00_C02.mpt
EC-Lab ASCII FILE
Nb header lines : 65

Potentio Electrochemical Impedance Spectroscopy

Run on channel : 2 (SN 66139)
User :
CE vs. WE compliance from -10 V to 10 V
Electrode connection : standard
Potential control : Ewe
Ewe ctrl range : min = -10.00 V, max = 10.00 V
Safety Limits :
	Do not start on E overload
Acquisition started on : 10/14/2025 16:30:08.341
Technique started on : 10/14/2025 16:30:10.210
Loaded Setting File :  NONE
Saved on :
	File : 18402_R288_UA691_SOC00_C02.mpr
	Directory : C:\Users\Celltest\OneDrive - store-dot.com\Documents\EC-Lab\Data\Charmaine\
	Host : 169.254.61.224
Device : VMP-3e (SN .003165)
Address : USB
EC-LAB for windows v11.62 (software)
Internet server v27.00 (firmware)
Command interpretor v12.03 (firmware)
Electrode material :
Initial state :
Electrolyte :
Comments :
Electrode surface area : 0.001 cm²
Characteristic mass : 0.001 g
Equivalent Weight : 0.000 g/eq.
Density : 0.000 g/cm3
Volume (V) : 0.001 cm³
Record Ece
Cycle Definition : Charge/Discharge alternance
Mode                Single sine
E (V)               0.0000
vs.                 Eoc
tE (h:m:s)          0:00:0.0000
record              0
dI                  0.000
unit dI             mA
dt (s)              0.000
fi                  100.000
unit fi             kHz
ff                  10.000
unit ff             mHz
Nd                  6
Points              per decade
spacing             Logarithmic
Va (mV)             5.0
pw                  0.10
Na                  2
corr                0
E range min (V)     -10.000
E range max (V)     10.000
I Range             Auto
Bandwidth           5
nc cycles           0
goto Ns'            0
nr cycles           0
inc. cycle          0

freq/Hz	Re(Z)/Ohm	-Im(Z)/Ohm	|Z|/Ohm	Phase(Z)/deg	time/s	<Ewe>/V	<I>/mA	Cs/µF	Cp/µF	cycle number	I Range	|Ewe|/V	|I|/A	Ns	(Q-Qo)/mA.h	<Ece>/V	|Ece|/V	Phase(Zce)/deg	|Zce|/Ohm	Re(Zce)/Ohm	-Im(Zce)/Ohm	Phase(Zwe-ce)/deg	|Zwe-ce|/Ohm	Re(Zwe-ce)/Ohm	-Im(Zwe-ce)/Ohm	Re(Y)/Ohm-1	Im(Y)/Ohm-1	|Y|/Ohm-1	Phase(Y)/deg	Re(C)/nF	Im(C)/nF	|C|/nF	Phase(C)/deg	Re(M)	Im(M)	|M|	Phase(M)/deg	Re(Permittivity)	Im(Permittivity)	|Permittivity|	Phase(Permittivity)/deg	Re(Resistivity)/Ohm.cm	Im(Resistivity)/Ohm.cm	|Resistivity|/Ohm.cm	Phase(Resistivity)/deg	Re(Conductivity)/mS/cm	Im(Conductivity)/mS/cm	|Conductivity|/mS/cm	Phase(Conductivity)/deg	Tan(Delta)	Loss Angle(Delta)/deg	dq/mA.h	Pwe/W	Pce/W	Pwe-ce/W	<Ewe-Ece>/V	Rwe/Ohm	Rce/Ohm	Rwe-ce/Ohm		Ewe-Ece/V
100004	1.23232	0.384698	1.29097	-17.3369	1.86853	0.263732	0.0115113	4.13699	0.367358	1	9	0.00489891	0.00379475	0	-4.26949e-06	3.85242e-05	2.59495e-05	31.6126	0.00683826	0.00582355	-0.00358443	-17.1089	1.29547	1.23815	0.381113	0.739418	0.230826	0.77461	17.3369	367.358	1176.78	1232.78	-72.6631	0.0000000E+000	0.0000000E+000	0.0000000E+000	72.6631	0.0000000E+000	0.0000000E+000	0.0000000E+000	-72.6631	0.0000000E+000	0.0000000E+000	0.0000000E+000	-17.3369	0.0000000E+000	0.0000000E+000	0.0000000E+000	17.3369	3.20335	72.6631	-4.26949e-06	3.0359e-06	4.43463e-10	3.03546e-06	0.263694	22910.8	3.34664	22907.4
31621.1	1.57508	0.565886	1.67365	-19.762	3.14353	0.263716	0.0130384	8.89434	1.01681	1	9	0.00537969	0.00321434	0	7.67483e-09	7.67059e-05	1.90317e-05	19.6188	0.00592088	0.00557716	-0.001988	-19.6338	1.67823	1.58066	0.563898	0.562306	0.202021	0.597495	19.762	1016.81	2830.19	3007.3	-70.238	0.0000000E+000	0.0000000E+000	0.0000000E+000	70.238	0.0000000E+000	0.0000000E+000	0.0000000E+000	-70.238	0.0000000E+000	0.0000000E+000	0.0000000E+000	-19.762	0.0000000E+000	0.0000000E+000	0.0000000E+000	19.762	2.7834	70.238	1.9211e-06	3.43842e-06	1.00012e-09	3.43742e-06	0.263639	20226.1	5.88309	20220.3
10002.2	2.0226	0.76861	2.16372	-20.8073	4.29456	0.263704	0.00998419	20.7022	2.61233	1	9	0.00540933	0.00250002	0	5.12944e-07	3.85242e-05	9.01977e-06	-84.9111	0.00360788	0.000320021	0.00359366	-20.8932	2.16529	2.02292	0.772204	0.432025	0.164174	0.462168	20.8073	2612.33	6874.36	7353.99	-69.1927	0.0000000E+000	0.0000000E+000	0.0000000E+000	69.1927	0.0000000E+000	0.0000000E+000	0.0000000E+000	-69.1927	0.0000000E+000	0.0000000E+000	0.0000000E+000	-20.8073	0.0000000E+000	0.0000000E+000	0.0000000E+000	20.8073	2.6315	69.1927	-6.79919e-07	2.63287e-06	3.84633e-10	2.63249e-06	0.263666	26412.2	3.85852	26408.3
3163.08	2.60094	1.11633	2.83039	-23.2292	5.44563	0.263673	-0.00476522	45.0729	7.01152	1	9	0.00538846	0.00190379	0	7.03618e-06	3.42479e-07	7.38206e-06	67.1569	0.00387757	0.0015053	-0.00357346	-23.1507	2.83037	2.60245	1.11276	0.324667	0.139348	0.353308	23.2292	7011.52	16336.1	17777.2	-66.7708	0.0000000E+000	0.0000000E+000	0.0000000E+000	66.7708	0.0000000E+000	0.0000000E+000	0.0000000E+000	-66.7708	0.0000000E+000	0.0000000E+000	0.0000000E+000	-23.2292	0.0000000E+000	0.0000000E+000	0.0000000E+000	23.2292	2.3299	66.7708	-2.10193e-06	-1.25646e-06	-1.63199e-12	-1.25646e-06	0.263673	55332.8	0.0718707	55332.8
1000.32	3.38714	1.78723	3.82974	-27.8185	7.04478	0.26369	-0.0141854	89.0225	19.3875	1	10	0.00532884	0.00139144	0	2.6533e-06	-0.000152384	6.95176e-06	-0.970689	0.0049961	0.00499538	8.46385e-05	-27.7848	3.8342	3.39214	1.78732	0.230937	0.121855	0.261114	27.8185	19387.6	36743	41544.3	-62.1815	0.0000000E+000	0.0000000E+000	0.0000000E+000	62.1815	0.0000000E+000	0.0000000E+000	0.0000000E+000	-62.1815	0.0000000E+000	0.0000000E+000	0.0000000E+000	-27.8185	0.0000000E+000	0.0000000E+000	0.0000000E+000	27.8185	1.89519	62.1815	-1.24815e-06	-3.74054e-06	2.16163e-09	-3.7427e-06	0.263842	18588.9	10.7424	18599.6
316.316	4.76127	3.32676	5.80836	-34.9425	8.39509	0.263678	-0.0136974	151.244	49.6151	1	10	0.00511969	0.000881434	0	-1.8058e-06	0.000153069	3.83978e-06	80.7993	0.00435628	0.000696542	-0.00430024	-34.9038	5.80647	4.76197	3.32246	0.141129	0.0986085	0.172166	34.9425	49615.1	71009.2	86625.4	-55.0575	0.0000000E+000	0.0000000E+000	0.0000000E+000	55.0575	0.0000000E+000	0.0000000E+000	0.0000000E+000	-55.0575	0.0000000E+000	0.0000000E+000	0.0000000E+000	-34.9425	0.0000000E+000	0.0000000E+000	0.0000000E+000	34.9425	1.4312	55.0575	-1.23755e-06	-3.6117e-06	-2.09665e-09	-3.6096e-06	0.263525	19250.2	11.1751	19239.1
100.032	8.15233	5.69272	9.94321	-34.9264	9.74286	0.263685	-0.012971	279.487	91.611	1	10	0.00505217	0.000508102	0	-6.08228e-06	0.000114888	8.36056e-06	26.7933	0.0164545	0.0146879	-0.00741725	-34.8429	9.95102	8.16701	5.6853	0.0824571	0.0575793	0.100571	34.9264	91611	131193	160013	-55.0736	0.0000000E+000	0.0000000E+000	0.0000000E+000	55.0736	0.0000000E+000	0.0000000E+000	0.0000000E+000	-55.0736	0.0000000E+000	0.0000000E+000	0.0000000E+000	-34.9264	0.0000000E+000	0.0000000E+000	0.0000000E+000	34.9264	1.43206	55.0736	-1.68778e-06	-3.42025e-06	-1.4902e-09	-3.41876e-06	0.26357	20328.8	8.85728	20320
31.6296	13.7689	6.56172	15.2525	-25.4807	11.0716	0.263675	-0.0150981	766.848	141.927	1	10	0.00503775	0.000330291	0	-1.0486e-05	-1.87484e-05	6.21805e-06	10.2169	0.018826	0.0185275	-0.00333926	-25.4395	15.2678	13.7874	6.55838	0.0591859	0.0282058	0.0655632	25.4807	141927	297814	329904	-64.5193	0.0000000E+000	0.0000000E+000	0.0000000E+000	64.5193	0.0000000E+000	0.0000000E+000	0.0000000E+000	-64.5193	0.0000000E+000	0.0000000E+000	0.0000000E+000	-25.4807	0.0000000E+000	0.0000000E+000	0.0000000E+000	25.4807	2.09836	64.5193	-1.06201e-06	-3.98098e-06	2.83064e-10	-3.98126e-06	0.263693	17464.1	1.24177	17465.4
10.0032	18.6963	5.40302	19.4613	-16.1187	12.6348	0.263692	-0.00953677	2944.72	226.972	1	11	0.0050334	0.000258636	0	-1.55534e-05	-0.000114203	9.16065e-06	118.876	0.0354191	-0.0171042	-0.0310154	-16.0449	19.4363	18.6792	5.372	0.049364	0.0142656	0.0513839	16.1187	226972	785400	817539	-73.8813	0.0000000E+000	0.0000000E+000	0.0000000E+000	73.8813	0.0000000E+000	0.0000000E+000	0.0000000E+000	-73.8813	0.0000000E+000	0.0000000E+000	0.0000000E+000	-16.1187	0.0000000E+000	0.0000000E+000	0.0000000E+000	16.1187	3.46034	73.8813	-3.26578e-06	-2.51477e-06	1.08912e-09	-2.51586e-06	0.263807	27650.1	11.975	27662
3.1604	22.1199	4.02821	22.4837	-10.3209	14.1525	0.263697	-0.0082715	12501.6	401.289	1	11	0.00503428	0.000223909	0	-1.89912e-05	0.000153069	3.10349e-06	19.1056	0.0138605	0.013097	-0.0045367	-10.3036	22.4957	22.133	4.02368	0.0437571	0.00796854	0.0444768	10.3209	401289	2.20357e+06	2.23981e+06	-79.6791	0.0000000E+000	0.0000000E+000	0.0000000E+000	79.6791	0.0000000E+000	0.0000000E+000	0.0000000E+000	-79.6791	0.0000000E+000	0.0000000E+000	0.0000000E+000	-10.3209	0.0000000E+000	0.0000000E+000	0.0000000E+000	10.3209	5.49123	79.6791	-4.21427e-06	-2.18117e-06	-1.26611e-09	-2.1799e-06	0.263544	31880.2	18.5056	31861.7
1.00006	24.4875	2.98985	24.6693	-6.96121	19.793	0.263698	-0.00820076	53228.3	781.859	1	12	0.00503434	0.000204073	0	-2.93711e-05	-3.78392e-05	4.03804e-06	-17.2498	0.0197872	0.0188972	0.00586766	-6.96941	24.6888	24.5064	2.99572	0.0402374	0.00491288	0.0405362	6.96121	781859	6.40357e+06	6.45112e+06	-83.0388	0.0000000E+000	0.0000000E+000	0.0000000E+000	83.0388	0.0000000E+000	0.0000000E+000	0.0000000E+000	-83.0388	0.0000000E+000	0.0000000E+000	0.0000000E+000	-6.96121	0.0000000E+000	0.0000000E+000	0.0000000E+000	6.96121	8.19018	83.0388	-1.47866e-06	-2.16253e-06	3.1031e-10	-2.16284e-06	0.263736	32155.3	4.61411	32159.9
0.316193	26.3767	2.91798	26.5376	-6.3128	34.1351	0.263697	-0.00573159	172499	2085.57	1	12	0.00503407	0.000189695	0	-4.52475e-05	0.000153069	2.68063e-06	-11.6232	0.0141312	0.0138414	0.00284708	-6.31562	26.5517	26.3906	2.92083	0.0374538	0.00414341	0.0376823	6.3128	2.08557e+06	1.88523e+07	1.89673e+07	-83.6872	0.0000000E+000	0.0000000E+000	0.0000000E+000	83.6872	0.0000000E+000	0.0000000E+000	0.0000000E+000	-83.6872	0.0000000E+000	0.0000000E+000	0.0000000E+000	-6.3128	0.0000000E+000	0.0000000E+000	0.0000000E+000	6.3128	9.03938	83.6872	-1.47526e-05	-1.5114e-06	-8.7733e-10	-1.51053e-06	0.263544	46007.7	26.7063	45981
0.0999041	29.0415	4.38878	29.3712	-8.59357	79.3431	0.263693	-0.00531598	362989	8104.68	1	12	0.0050368	0.000171487	0	-0.000202211	0.000191251	3.19984e-06	-5.93336	0.0186593	0.0185593	0.00192884	-8.59188	29.3899	29.0601	4.39071	0.0336647	0.00508744	0.0340469	8.59357	8.10468e+06	5.36304e+07	5.42394e+07	-81.4064	0.0000000E+000	0.0000000E+000	0.0000000E+000	81.4064	0.0000000E+000	0.0000000E+000	0.0000000E+000	-81.4064	0.0000000E+000	0.0000000E+000	0.0000000E+000	-8.59357	0.0000000E+000	0.0000000E+000	0.0000000E+000	8.59357	6.61722	81.4064	-6.82814e-05	-1.40179e-06	-1.01669e-09	-1.40077e-06	0.263502	49603.8	35.9766	49567.9
0.0315922	33.5982	8.26931	34.6008	-13.827	222.227	0.263688	-0.00507592	609216	34796.6	1	12	0.00503314	0.000145463	0	-0.000274939	0.000343978	3.09472e-06	13.9936	0.0212749	0.0206436	-0.00514456	-13.8106	34.6197	33.6188	8.26417	0.0280635	0.00690711	0.028901	13.827	3.47966e+07	1.41378e+08	1.45597e+08	-76.173	0.0000000E+000	0.0000000E+000	0.0000000E+000	76.173	0.0000000E+000	0.0000000E+000	0.0000000E+000	-76.173	0.0000000E+000	0.0000000E+000	0.0000000E+000	-13.827	0.0000000E+000	0.0000000E+000	0.0000000E+000	13.827	4.06299	76.173	2.36279e-05	-1.33846e-06	-1.746e-09	-1.33671e-06	0.263344	51948.8	67.7666	51881.1
0.0100092	40.7027	16.5756	43.9484	-22.1579	673.45	0.263685	-0.00300601	959298	136460	1	12	0.00503342	0.00011453	0	-0.000390084	-0.000114203	2.35015e-06	-10.1407	0.0205199	0.0201994	0.00361287	-22.1523	43.9685	40.7229	16.5792	0.0210735	0.00858188	0.022754	22.1579	1.3646e+08	3.35089e+08	3.61809e+08	-67.8421	0.0000000E+000	0.0000000E+000	0.0000000E+000	67.8421	0.0000000E+000	0.0000000E+000	0.0000000E+000	-67.8421	0.0000000E+000	0.0000000E+000	0.0000000E+000	-22.1579	0.0000000E+000	0.0000000E+000	0.0000000E+000	22.1579	2.45558	67.8421	-0.000194423	-7.92639e-07	3.43294e-10	-7.92982e-07	0.263799	87719.3	37.9914	87757.3