File: txt/18401_R288_UA691_SOC00_C01.mpt
EC-Lab ASCII FILE
Nb header lines : 65

Potentio Electrochemical Impedance Spectroscopy

Run on channel : 1 (SN 66354)
User :
CE vs. WE compliance from -10 V to 10 V
Electrode connection : standard
Potential control : Ewe
Ewe ctrl range : min = -10.00 V, max = 10.00 V
Safety Limits :
	Do not start on E overload
Acquisition started on : 10/14/2025 16:29:59.404
Technique started on : 10/14/2025 16:30:01.326
Loaded Setting File :  NONE
Saved on :
	File : 18401_R288_UA691_SOC00_C01.mpr
	Directory : C:\Users\Celltest\OneDrive - store-dot.com\Documents\EC-Lab\Data\Charmaine\
	Host : 169.254.61.224
Device : VMP-3e (SN .003165)
Address : USB
EC-LAB for windows v11.62 (software)
Internet server v27.00 (firmware)
Command interpretor v12.03 (firmware)
Electrode material :
Initial state :
Electrolyte :
Comments :
Electrode surface area : 0.001 cm²
Characteristic mass : 0.001 g
Equivalent Weight : 0.000 g/eq.
Density : 0.000 g/cm3
Volume (V) : 0.001 cm³
Record Ece
Cycle Definition : Charge/Discharge alternance
Mode                Single sine
E (V)               0.0000
vs.                 Eoc
tE (h:m:s)          0:00:0.0000
record              0
dI                  0.000
unit dI             mA
dt (s)              0.000
fi                  100.000
unit fi             kHz
ff                  10.000
unit ff             mHz
Nd                  6
Points              per decade
spacing             Logarithmic
Va (mV)             5.0
pw                  0.10
Na                  2
corr                0
E range min (V)     -10.000
E range max (V)     10.000
I Range             Auto
Bandwidth           5
nc cycles           0
goto Ns'            0
nr cycles           0
inc. cycle          0

freq/Hz	Re(Z)/Ohm	-Im(Z)/Ohm	|Z|/Ohm	Phase(Z)/deg	time/s	<Ewe>/V	<I>/mA	Cs/µF	Cp/µF	cycle number	I Range	|Ewe|/V	|I|/A	Ns	(Q-Qo)/mA.h	<Ece>/V	|Ece|/V	Phase(Zce)/deg	|Zce|/Ohm	Re(Zce)/Ohm	-Im(Zce)/Ohm	Phase(Zwe-ce)/deg	|Zwe-ce|/Ohm	Re(Zwe-ce)/Ohm	-Im(Zwe-ce)/Ohm	Re(Y)/Ohm-1	Im(Y)/Ohm-1	|Y|/Ohm-1	Phase(Y)/deg	Re(C)/nF	Im(C)/nF	|C|/nF	Phase(C)/deg	Re(M)	Im(M)	|M|	Phase(M)/deg	Re(Permittivity)	Im(Permittivity)	|Permittivity|	Phase(Permittivity)/deg	Re(Resistivity)/Ohm.cm	Im(Resistivity)/Ohm.cm	|Resistivity|/Ohm.cm	Phase(Resistivity)/deg	Re(Conductivity)/mS/cm	Im(Conductivity)/mS/cm	|Conductivity|/mS/cm	Phase(Conductivity)/deg	Tan(Delta)	Loss Angle(Delta)/deg	dq/mA.h	Pwe/W	Pce/W	Pwe-ce/W	<Ewe-Ece>/V	Rwe/Ohm	Rce/Ohm	Rwe-ce/Ohm		Ewe-Ece/V
100004	1.10168	0.356517	1.15793	-17.9321	1.92156	0.261152	0.0827001	4.464	0.423171	1	9	0.00512892	0.00442937	0	1.19287e-05	0.000269422	3.39339e-05	58.7648	0.00766111	0.00397268	-0.0065506	-17.5638	1.15972	1.10566	0.349966	0.821654	0.265896	0.863607	17.9321	423.171	1307.65	1374.42	-72.0679	0.0000000E+000	0.0000000E+000	0.0000000E+000	72.0679	0.0000000E+000	0.0000000E+000	0.0000000E+000	-72.0679	0.0000000E+000	0.0000000E+000	0.0000000E+000	-17.9321	0.0000000E+000	0.0000000E+000	0.0000000E+000	17.9321	3.09013	72.0679	1.19287e-05	2.15973e-05	2.22812e-08	2.1575e-05	0.260883	3157.82	3.25782	3154.56
31621.1	1.41326	0.532814	1.51037	-20.6569	3.07052	0.261075	-0.0362852	9.44642	1.17559	1	9	0.279399	0.184988	0	2.13874e-05	0.000441118	0.00021314	78.7846	0.00115219	0.000224098	-0.00113018	-20.6138	1.51018	1.41349	0.531684	0.619525	0.233567	0.662091	20.6569	1175.59	3118.18	3332.43	-69.3431	0.0000000E+000	0.0000000E+000	0.0000000E+000	69.3431	0.0000000E+000	0.0000000E+000	0.0000000E+000	-69.3431	0.0000000E+000	0.0000000E+000	0.0000000E+000	-20.6569	0.0000000E+000	0.0000000E+000	0.0000000E+000	20.6569	2.65245	69.3431	1.75139e-06	-9.47314e-06	-1.6006e-08	-9.45714e-06	0.260633	7195.07	12.157	7182.91
10002.2	1.81701	0.702958	1.94825	-21.1503	4.34554	0.261218	0.0899274	22.6357	2.9469	1	9	0.00459142	0.00235669	0	-0.000306747	2.1417e-05	7.16906e-06	36.8609	0.003042	0.00243389	-0.00182482	-21.0745	1.94986	1.81944	0.701133	0.478706	0.185201	0.513282	21.1503	2946.9	7617.15	8167.33	-68.8497	0.0000000E+000	0.0000000E+000	0.0000000E+000	68.8497	0.0000000E+000	0.0000000E+000	0.0000000E+000	-68.8497	0.0000000E+000	0.0000000E+000	0.0000000E+000	-21.1503	0.0000000E+000	0.0000000E+000	0.0000000E+000	21.1503	2.5848	68.8497	7.20699e-06	2.34906e-05	1.92597e-09	2.34887e-05	0.261196	2904.76	0.238158	2904.53
3163.08	2.33504	1.01571	2.54639	-23.5083	5.36767	0.260996	0.00774431	49.5384	7.88188	1	9	0.00469443	0.00184357	0	-0.000291485	0.000402963	9.12995e-06	36.7166	0.00495233	0.0039698	-0.00296079	-23.4117	2.54885	2.33901	1.01275	0.360119	0.156646	0.392713	23.5083	7881.88	18119.9	19759.9	-66.4917	0.0000000E+000	0.0000000E+000	0.0000000E+000	66.4917	0.0000000E+000	0.0000000E+000	0.0000000E+000	-66.4917	0.0000000E+000	0.0000000E+000	0.0000000E+000	-23.5083	0.0000000E+000	0.0000000E+000	0.0000000E+000	23.5083	2.29893	66.4917	1.50324e-07	2.02123e-06	3.12067e-09	2.01811e-06	0.260593	33701.6	52.0334	33649.6
1000.32	3.05579	1.64333	3.46964	-28.2702	6.96585	0.261113	-0.0166524	96.8182	21.7188	1	10	0.00469473	0.00135309	0	-0.000267296	7.86489e-05	6.42054e-06	61.4712	0.0047451	0.00226626	-0.00416894	-28.1919	3.46966	3.05806	1.63916	0.253837	0.136507	0.288214	28.2702	21718.8	40386.5	45856.1	-61.7298	0.0000000E+000	0.0000000E+000	0.0000000E+000	61.7298	0.0000000E+000	0.0000000E+000	0.0000000E+000	-61.7298	0.0000000E+000	0.0000000E+000	0.0000000E+000	-28.2702	0.0000000E+000	0.0000000E+000	0.0000000E+000	28.2702	1.85952	61.7298	4.24666e-06	-4.34815e-06	-1.30969e-09	-4.34684e-06	0.261034	15680.2	4.72298	15675.5
316.316	4.37654	3.04798	5.33332	-34.8547	8.31607	0.261115	-0.0166002	165.077	53.9158	1	10	0.00459414	0.000861405	0	-0.000273978	0.000269422	6.69657e-06	-41.3892	0.00777401	0.00583234	0.00513994	-34.8642	5.34104	4.38237	3.05312	0.153864	0.107156	0.187501	34.8547	53915.8	77416.8	94341.3	-55.1453	0.0000000E+000	0.0000000E+000	0.0000000E+000	55.1453	0.0000000E+000	0.0000000E+000	0.0000000E+000	-55.1453	0.0000000E+000	0.0000000E+000	0.0000000E+000	-34.8547	0.0000000E+000	0.0000000E+000	0.0000000E+000	34.8547	1.43588	55.1453	-2.60866e-06	-4.33457e-06	-4.47246e-09	-4.3301e-06	0.260846	15729.6	16.23	15713.4
100.032	7.56679	4.86534	8.99599	-32.7404	9.66384	0.261106	-0.0175469	327.015	95.6524	1	10	0.00456884	0.000507875	0	-0.000279772	2.1417e-05	8.75526e-06	-22.9932	0.017239	0.0158694	0.00673395	-32.7219	9.01298	7.58266	4.87207	0.0935004	0.0601194	0.111161	32.7404	95652.4	148763	176861	-57.2596	0.0000000E+000	0.0000000E+000	0.0000000E+000	57.2596	0.0000000E+000	0.0000000E+000	0.0000000E+000	-57.2596	0.0000000E+000	0.0000000E+000	0.0000000E+000	-32.7404	0.0000000E+000	0.0000000E+000	0.0000000E+000	32.7404	1.55524	57.2596	-2.60721e-06	-4.58159e-06	-3.75801e-10	-4.58122e-06	0.261084	14880.5	1.22056	14879.2
31.6296	12.1358	5.08031	13.1562	-22.7153	10.9936	0.261114	-0.0199582	990.459	147.691	1	10	0.00455536	0.000346251	0	-0.000286178	0.000154958	5.71208e-06	-66.02	0.0164969	0.00670466	0.015073	-22.7645	13.1682	12.1425	5.09539	0.0701139	0.0293513	0.0760096	22.7153	147691	352802	382468	-67.2847	0.0000000E+000	0.0000000E+000	0.0000000E+000	67.2847	0.0000000E+000	0.0000000E+000	0.0000000E+000	-67.2847	0.0000000E+000	0.0000000E+000	0.0000000E+000	-22.7153	0.0000000E+000	0.0000000E+000	0.0000000E+000	22.7153	2.38878	67.2847	-2.46519e-06	-5.21137e-06	-3.09269e-09	-5.20827e-06	0.260959	13083	7.76413	13075.3
10.0032	15.8062	3.99488	16.3032	-14.184	12.5758	0.26115	-0.00538817	3982.7	239.133	1	11	0.0045604	0.000279724	0	-0.000291982	0.000154958	8.11726e-06	75.3529	0.0290188	0.00733781	-0.0280757	-14.082	16.3034	15.8135	3.9668	0.0594678	0.01503	0.0613377	14.184	239133	946156	975907	-75.816	0.0000000E+000	0.0000000E+000	0.0000000E+000	75.816	0.0000000E+000	0.0000000E+000	0.0000000E+000	-75.816	0.0000000E+000	0.0000000E+000	0.0000000E+000	-14.184	0.0000000E+000	0.0000000E+000	0.0000000E+000	14.184	3.95661	75.816	8.89342e-07	-1.40712e-06	-8.34941e-10	-1.40628e-06	0.260995	48467.3	28.759	48438.5
3.1604	18.2794	2.92645	18.5122	-9.09561	14.2544	0.261168	-0.0043425	17208.3	430.036	1	11	0.00505599	0.000273117	0	-0.000293444	-0.000150279	1.6902e-06	63.4594	0.00618857	0.00276525	-0.00553641	-9.07734	18.514	18.2821	2.92091	0.0533393	0.00853939	0.0540186	9.09561	430036	2.68612e+06	2.72033e+06	-80.9044	0.0000000E+000	0.0000000E+000	0.0000000E+000	80.9044	0.0000000E+000	0.0000000E+000	0.0000000E+000	-80.9044	0.0000000E+000	0.0000000E+000	0.0000000E+000	-9.09561	0.0000000E+000	0.0000000E+000	0.0000000E+000	9.09561	6.24627	80.9044	2.51886e-06	-1.13412e-06	6.52585e-10	-1.13477e-06	0.261318	60142.4	34.6066	60177
1.00006	20.0612	2.25027	20.187	-6.40012	19.8928	0.261159	-0.0034686	70722.6	878.786	1	12	0.00505696	0.000250506	0	-0.000301962	0.000135881	3.63422e-06	-57.1713	0.0145075	0.00786495	0.0121906	-6.43201	20.1962	20.069	2.26246	0.0492281	0.00552193	0.0495368	6.40012	878786	7.8344e+06	7.88353e+06	-83.5999	0.0000000E+000	0.0000000E+000	0.0000000E+000	83.5999	0.0000000E+000	0.0000000E+000	0.0000000E+000	-83.5999	0.0000000E+000	0.0000000E+000	0.0000000E+000	-6.40012	0.0000000E+000	0.0000000E+000	0.0000000E+000	6.40012	8.91503	83.5999	-9.88586e-06	-9.05854e-07	-4.71316e-10	-9.05383e-07	0.261023	75292.3	39.1746	75253.1
0.316193	21.6743	2.41125	21.808	-6.34802	34.2357	0.261166	-0.00505094	208749	2551.98	1	12	0.00505692	0.000231883	0	-0.000330672	0.000231267	1.91438e-06	9.34264	0.0082558	0.00814629	-0.00134023	-6.34215	21.816	21.6825	2.40991	0.0455735	0.00507002	0.0458547	6.34802	2.55198e+06	2.29393e+07	2.30808e+07	-83.652	0.0000000E+000	0.0000000E+000	0.0000000E+000	83.652	0.0000000E+000	0.0000000E+000	0.0000000E+000	-83.652	0.0000000E+000	0.0000000E+000	0.0000000E+000	-6.34802	0.0000000E+000	0.0000000E+000	0.0000000E+000	6.34802	8.98882	83.652	-3.50003e-06	-1.31913e-06	-1.16812e-09	-1.31796e-06	0.260935	51706.4	45.787	51660.6
0.0999041	24.2919	3.83695	24.5931	-8.97581	79.4435	0.261161	-0.00393977	415193	10106.4	1	12	0.00505575	0.000205576	0	-0.000279557	0.000193113	1.9334e-06	-6.9291	0.00940477	0.00933608	0.0011346	-8.97503	24.6025	24.3013	3.83809	0.0401639	0.00634396	0.0406618	8.97581	1.01064e+07	6.39842e+07	6.47775e+07	-81.0242	0.0000000E+000	0.0000000E+000	0.0000000E+000	81.0242	0.0000000E+000	0.0000000E+000	0.0000000E+000	-81.0242	0.0000000E+000	0.0000000E+000	0.0000000E+000	-8.97581	0.0000000E+000	0.0000000E+000	0.0000000E+000	8.97581	6.33105	81.0242	1.86591e-05	-1.02892e-06	-7.6082e-10	-1.02816e-06	0.260968	66288.5	49.0162	66239.4
0.0315922	28.9024	7.45309	29.8479	-14.4599	222.328	0.261158	-0.00256449	675933	42145.3	1	12	0.00505758	0.000169445	0	-0.000567902	0.000574659	2.64148e-06	47.0283	0.015589	0.010626	-0.0114063	-14.4336	29.8553	28.913	7.44169	0.0324419	0.00836583	0.0335032	14.4599	4.21453e+07	1.63436e+08	1.68782e+08	-75.5401	0.0000000E+000	0.0000000E+000	0.0000000E+000	75.5401	0.0000000E+000	0.0000000E+000	0.0000000E+000	-75.5401	0.0000000E+000	0.0000000E+000	0.0000000E+000	-14.4599	0.0000000E+000	0.0000000E+000	0.0000000E+000	14.4599	3.87791	75.5401	-0.000191574	-6.69735e-07	-1.4737e-09	-6.68261e-07	0.260583	101836	224.083	101612
0.0100092	35.8344	15.4416	39.0198	-23.312	673.549	0.261159	-0.00406148	1.02975e+06	161266	1	12	0.00505891	0.00012965	0	-0.00133553	0.000383886	2.63495e-06	17.6379	0.0203236	0.0193682	-0.00615808	-23.2924	39.0352	35.8537	15.4354	0.0235358	0.010142	0.025628	23.312	1.61266e+08	3.74241e+08	4.07509e+08	-66.688	0.0000000E+000	0.0000000E+000	0.0000000E+000	66.688	0.0000000E+000	0.0000000E+000	0.0000000E+000	-66.688	0.0000000E+000	0.0000000E+000	0.0000000E+000	-23.312	0.0000000E+000	0.0000000E+000	0.0000000E+000	23.312	2.32064	66.688	-0.000183607	-1.06069e-06	-1.55915e-09	-1.05913e-06	0.260775	64301.3	94.5186	64206.8