File: txt/18400_R277_UA690_SOC00_C03.mpt
EC-Lab ASCII FILE
Nb header lines : 65

Potentio Electrochemical Impedance Spectroscopy

Run on channel : 3 (SN 65921)
User :
CE vs. WE compliance from -10 V to 10 V
Electrode connection : standard
Potential control : Ewe
Ewe ctrl range : min = -10.00 V, max = 10.00 V
Safety Limits :
	Do not start on E overload
Acquisition started on : 10/13/2025 14:54:04.619
Technique started on : 10/13/2025 14:54:06.357
Loaded Setting File :  C:\Users\Celltest\OneDrive - store-dot.com\Documents\EC-Lab\Data\@Biologic Test Protocols\anode half cell EIS SOC00.mps
Saved on :
	File : 18400_R277_UA690_SOC00_C03.mpr
	Directory : C:\Users\Celltest\OneDrive - store-dot.com\Documents\EC-Lab\Data\Gyutae\
	Host : 169.254.61.224
Device : VMP-3e (SN .003165)
Address : USB
EC-LAB for windows v11.62 (software)
Internet server v27.00 (firmware)
Command interpretor v12.03 (firmware)
Electrode material :
Initial state :
Electrolyte :
Comments :
Electrode surface area : 0.001 cm²
Characteristic mass : 0.001 g
Equivalent Weight : 0.000 g/eq.
Density : 0.000 g/cm3
Volume (V) : 0.001 cm³
Record Ece
Cycle Definition : Charge/Discharge alternance
Mode                Single sine
E (V)               0.0000
vs.                 Eoc
tE (h:m:s)          0:00:0.0000
record              0
dI                  0.000
unit dI             mA
dt (s)              0.000
fi                  100.000
unit fi             kHz
ff                  10.000
unit ff             mHz
Nd                  6
Points              per decade
spacing             Logarithmic
Va (mV)             5.0
pw                  0.10
Na                  2
corr                0
E range min (V)     -10.000
E range max (V)     10.000
I Range             Auto
Bandwidth           5
nc cycles           0
goto Ns'            0
nr cycles           0
inc. cycle          0

freq/Hz	Re(Z)/Ohm	-Im(Z)/Ohm	|Z|/Ohm	Phase(Z)/deg	time/s	<Ewe>/V	<I>/mA	Cs/µF	Cp/µF	cycle number	I Range	|Ewe|/V	|I|/A	Ns	(Q-Qo)/mA.h	<Ece>/V	|Ece|/V	Phase(Zce)/deg	|Zce|/Ohm	Re(Zce)/Ohm	-Im(Zce)/Ohm	Phase(Zwe-ce)/deg	|Zwe-ce|/Ohm	Re(Zwe-ce)/Ohm	-Im(Zwe-ce)/Ohm	Re(Y)/Ohm-1	Im(Y)/Ohm-1	|Y|/Ohm-1	Phase(Y)/deg	Re(C)/nF	Im(C)/nF	|C|/nF	Phase(C)/deg	Re(M)	Im(M)	|M|	Phase(M)/deg	Re(Permittivity)	Im(Permittivity)	|Permittivity|	Phase(Permittivity)/deg	Re(Resistivity)/Ohm.cm	Im(Resistivity)/Ohm.cm	|Resistivity|/Ohm.cm	Phase(Resistivity)/deg	Re(Conductivity)/mS/cm	Im(Conductivity)/mS/cm	|Conductivity|/mS/cm	Phase(Conductivity)/deg	Tan(Delta)	Loss Angle(Delta)/deg	dq/mA.h	Pwe/W	Pce/W	Pwe-ce/W	<Ewe-Ece>/V	Rwe/Ohm	Rce/Ohm	Rwe-ce/Ohm		Ewe-Ece/V
100004	2.14432	0.374585	2.17679	-9.90886	1.73754	0.237422	0.0442983	4.24867	0.125812	1	9	0.00437161	0.00200828	0	2.70744e-06	5.31434e-05	1.90917e-05	52.4408	0.00950645	0.00579495	-0.00753599	-9.68767	2.18122	2.15011	0.367049	0.452539	0.0790529	0.459392	9.90886	125.812	720.212	731.118	-80.0911	0.0000000E+000	0.0000000E+000	0.0000000E+000	80.0911	0.0000000E+000	0.0000000E+000	0.0000000E+000	-80.0911	0.0000000E+000	0.0000000E+000	0.0000000E+000	-9.90886	0.0000000E+000	0.0000000E+000	0.0000000E+000	9.90886	5.72451	80.0911	2.70744e-06	1.05174e-05	2.35416e-09	1.0515e-05	0.237369	5359.61	1.19967	5358.41
31621.1	2.55901	0.983483	2.74149	-21.0229	3.01055	0.237377	0.0387789	5.11771	0.658623	1	9	0.00543106	0.00198106	0	1.17815e-05	3.40493e-05	1.05628e-05	45.2529	0.0053319	0.00375355	-0.00378683	-20.9209	2.74364	2.56276	0.979697	0.340486	0.130856	0.364765	21.0229	658.623	1713.73	1835.93	-68.9771	0.0000000E+000	0.0000000E+000	0.0000000E+000	68.9771	0.0000000E+000	0.0000000E+000	0.0000000E+000	-68.9771	0.0000000E+000	0.0000000E+000	0.0000000E+000	-21.0229	0.0000000E+000	0.0000000E+000	0.0000000E+000	21.0229	2.60198	68.9771	7.87884e-06	9.20523e-06	1.32039e-09	9.20391e-06	0.237343	6121.31	0.878037	6120.43
10002.2	3.39887	1.39711	3.67481	-22.3451	4.16156	0.237382	0.0338188	11.3892	1.6462	1	9	0.00526885	0.00143377	0	2.7501e-05	-0.000156891	5.1476e-06	-105.865	0.00359025	-0.000981458	0.00345349	-22.4007	3.67522	3.39789	1.40056	0.251689	0.103457	0.272123	22.3451	1646.2	4004.87	4330	-67.6549	0.0000000E+000	0.0000000E+000	0.0000000E+000	67.6549	0.0000000E+000	0.0000000E+000	0.0000000E+000	-67.6549	0.0000000E+000	0.0000000E+000	0.0000000E+000	-22.3451	0.0000000E+000	0.0000000E+000	0.0000000E+000	22.3451	2.4328	67.6549	6.45626e-06	8.02798e-06	-5.30588e-09	8.03329e-06	0.237539	7019.23	4.63917	7023.87
3163.08	4.48163	1.9902	4.90366	-23.9451	5.64662	0.237373	-0.0105161	25.2821	4.16454	1	10	0.00509883	0.0010398	0	3.05664e-05	0.000167708	9.16657e-06	-23.7025	0.0088157	0.00807205	0.00354381	-23.9447	4.91247	4.4897	1.99375	0.186378	0.0827669	0.203929	23.9451	4164.54	9377.89	10261	-66.0549	0.0000000E+000	0.0000000E+000	0.0000000E+000	66.0549	0.0000000E+000	0.0000000E+000	0.0000000E+000	-66.0549	0.0000000E+000	0.0000000E+000	0.0000000E+000	-23.9451	0.0000000E+000	0.0000000E+000	0.0000000E+000	23.9451	2.25184	66.0549	-3.10189e-06	-2.49623e-06	-1.76363e-09	-2.49447e-06	0.237205	22572.4	15.9478	22556.5
1000.32	6.03501	2.95435	6.71934	-26.0834	7.2148	0.237374	-0.00790586	53.8541	10.4109	1	10	0.00502797	0.000748284	0	3.0022e-05	-0.000195079	1.76234e-05	-120.118	0.0235517	-0.0118177	0.0203721	-26.2838	6.71772	6.02319	2.97472	0.133667	0.0654348	0.148824	26.0834	10410.9	21267	23678.5	-63.9166	0.0000000E+000	0.0000000E+000	0.0000000E+000	63.9166	0.0000000E+000	0.0000000E+000	0.0000000E+000	-63.9166	0.0000000E+000	0.0000000E+000	0.0000000E+000	-26.0834	0.0000000E+000	0.0000000E+000	0.0000000E+000	26.0834	2.04275	63.9166	-2.60286e-07	-1.87665e-06	1.54227e-09	-1.87819e-06	0.23757	30025.1	24.6753	30049.8
316.316	8.27795	4.68926	9.51386	-29.5305	8.56507	0.23737	-0.00796926	107.299	26.0669	1	10	0.00479564	0.000504068	0	2.66041e-05	-0.000175985	4.72248e-06	-100.177	0.00936874	-0.00165533	0.00922134	-29.5837	9.51697	8.27629	4.69848	0.0914553	0.0518072	0.10511	29.5305	26066.9	46015.9	52886.2	-60.4695	0.0000000E+000	0.0000000E+000	0.0000000E+000	60.4695	0.0000000E+000	0.0000000E+000	0.0000000E+000	-60.4695	0.0000000E+000	0.0000000E+000	0.0000000E+000	-29.5305	0.0000000E+000	0.0000000E+000	0.0000000E+000	29.5305	1.7653	60.4695	-1.25516e-06	-1.89166e-06	1.40247e-09	-1.89307e-06	0.237546	29785.7	22.083	29807.8
100.032	12.9743	7.45909	14.9656	-29.8952	9.91185	0.237374	-0.00841673	213.302	52.9879	1	10	0.00474615	0.000317137	0	2.38517e-05	3.40493e-05	8.58593e-06	27.9295	0.0270733	0.0239199	-0.0126807	-29.8075	14.9801	12.9982	7.44641	0.0579286	0.0333039	0.0668197	29.8952	52987.9	92166.7	106313	-60.1048	0.0000000E+000	0.0000000E+000	0.0000000E+000	60.1048	0.0000000E+000	0.0000000E+000	0.0000000E+000	-60.1048	0.0000000E+000	0.0000000E+000	0.0000000E+000	-29.8952	0.0000000E+000	0.0000000E+000	0.0000000E+000	29.8952	1.73939	60.1048	-1.17975e-06	-1.99791e-06	-2.86584e-10	-1.99762e-06	0.23734	28202.6	4.04543	28198.6
31.6296	20.3239	7.59019	21.695	-20.4787	11.4815	0.237384	-0.0112841	662.94	81.1447	1	11	0.00473774	0.000218379	0	2.00028e-05	7.22374e-05	4.05713e-06	-8.87085	0.0185784	0.0183561	0.00286493	-20.4688	21.7132	20.3423	7.59306	0.0431805	0.0161262	0.0460935	20.4787	81144.7	217278	231936	-69.5213	0.0000000E+000	0.0000000E+000	0.0000000E+000	69.5213	0.0000000E+000	0.0000000E+000	0.0000000E+000	-69.5213	0.0000000E+000	0.0000000E+000	0.0000000E+000	-20.4787	0.0000000E+000	0.0000000E+000	0.0000000E+000	20.4787	2.67766	69.5213	-1.3721e-06	-2.67866e-06	-8.15133e-10	-2.67785e-06	0.237312	21037.1	6.40172	21030.7
10.0032	25.2279	5.05713	25.7298	-11.3351	12.8128	0.237385	-0.0106065	3146.13	121.538	1	11	0.00473101	0.000183873	0	1.53195e-05	5.31434e-05	8.24991e-06	-60.3039	0.0448675	0.0222274	0.0389749	-11.4104	25.7593	25.2502	5.09611	0.0381073	0.00763891	0.0388654	11.3351	121538	606303	618365	-78.6649	0.0000000E+000	0.0000000E+000	0.0000000E+000	78.6649	0.0000000E+000	0.0000000E+000	0.0000000E+000	-78.6649	0.0000000E+000	0.0000000E+000	0.0000000E+000	-11.3351	0.0000000E+000	0.0000000E+000	0.0000000E+000	11.3351	4.98858	78.6649	-1.02822e-06	-2.51782e-06	-5.63666e-10	-2.51726e-06	0.237331	22381	5.01045	22376
3.1604	27.8329	3.27914	28.0254	-6.71935	14.3295	0.23738	-0.0101432	15357.4	210.25	1	11	0.00472837	0.000168717	0	1.29642e-05	-0.000347832	4.48455e-06	120.939	0.0265803	-0.0136658	-0.0227982	-6.6763	28.0092	27.8192	3.25634	0.0354368	0.004175	0.0356819	6.71935	210249	1.78457e+06	1.79691e+06	-83.2807	0.0000000E+000	0.0000000E+000	0.0000000E+000	83.2807	0.0000000E+000	0.0000000E+000	0.0000000E+000	-83.2807	0.0000000E+000	0.0000000E+000	0.0000000E+000	-6.71935	0.0000000E+000	0.0000000E+000	0.0000000E+000	6.71935	8.48786	83.2807	-7.30239e-07	-2.40778e-06	3.52812e-09	-2.41131e-06	0.237727	23402.9	34.2922	23437.2
1.00006	29.5269	2.4139	29.6254	-4.67369	19.9687	0.237384	-0.00922892	65928.5	437.708	1	12	0.00473275	0.000159753	0	-9.94026e-06	-0.000214174	1.8731e-06	8.47732	0.011725	0.0115969	-0.00172847	-4.66853	29.6368	29.5385	2.41217	0.0336426	0.00275037	0.0337549	4.67369	437708	5.35405e+06	5.37191e+06	-85.3263	0.0000000E+000	0.0000000E+000	0.0000000E+000	85.3263	0.0000000E+000	0.0000000E+000	0.0000000E+000	-85.3263	0.0000000E+000	0.0000000E+000	0.0000000E+000	-4.67369	0.0000000E+000	0.0000000E+000	0.0000000E+000	4.67369	12.232	85.3263	-1.10601e-05	-2.1908e-06	1.97659e-09	-2.19278e-06	0.237598	25721.8	23.2068	25745
0.316193	30.7122	2.3176	30.7995	-4.31548	34.3107	0.237385	-0.00869225	217185	1229.76	1	12	0.00473243	0.000153653	0	-2.12938e-05	-0.000233268	3.51261e-06	-13.1915	0.0228607	0.0222575	0.00521696	-4.32203	30.8221	30.7344	2.32282	0.032376	0.00244316	0.0324681	4.31548	1.22976e+06	1.62964e+07	1.63427e+07	-85.6845	0.0000000E+000	0.0000000E+000	0.0000000E+000	85.6845	0.0000000E+000	0.0000000E+000	0.0000000E+000	-85.6845	0.0000000E+000	0.0000000E+000	0.0000000E+000	-4.31548	0.0000000E+000	0.0000000E+000	0.0000000E+000	4.31548	13.2517	85.6845	-2.82846e-06	-2.06341e-06	2.02762e-09	-2.06544e-06	0.237618	27310	26.8363	27336.8
0.0999041	32.015	3.65334	32.2228	-6.51004	79.5187	0.23739	-0.00632667	436061	5605.31	1	12	0.00473452	0.000146931	0	-0.000127631	-4.23269e-05	1.96892e-06	16.6196	0.0134003	0.0128405	-0.00383271	-6.50068	32.2351	32.0279	3.6495	0.0308338	0.00351854	0.0310339	6.51004	5.60531e+06	4.91206e+07	4.94394e+07	-83.49	0.0000000E+000	0.0000000E+000	0.0000000E+000	83.49	0.0000000E+000	0.0000000E+000	0.0000000E+000	-83.49	0.0000000E+000	0.0000000E+000	0.0000000E+000	-6.51004	0.0000000E+000	0.0000000E+000	0.0000000E+000	6.51004	8.76324	83.49	-6.61747e-05	-1.50189e-06	2.67789e-10	-1.50215e-06	0.237432	37522	6.69024	37528.7
0.0315922	34.4035	7.31717	35.173	-12.0071	222.401	0.237384	-0.00883446	688489	29796.4	1	12	0.00473121	0.000134512	0	-0.000616226	-0.000214174	3.27271e-06	3.23539	0.0243302	0.0242914	-0.00137315	-11.9967	35.1965	34.4278	7.3158	0.0278089	0.00591458	0.0284309	12.0071	2.97964e+07	1.40095e+08	1.43229e+08	-77.9929	0.0000000E+000	0.0000000E+000	0.0000000E+000	77.9929	0.0000000E+000	0.0000000E+000	0.0000000E+000	-77.9929	0.0000000E+000	0.0000000E+000	0.0000000E+000	-12.0071	0.0000000E+000	0.0000000E+000	0.0000000E+000	12.0071	4.70175	77.9929	-0.000205633	-2.09716e-06	1.89211e-09	-2.09905e-06	0.237598	26870.2	24.243	26894.5
0.0100092	39.4628	16.203	42.6597	-22.3225	673.622	0.237392	-0.0100474	981358	141573	1	12	0.00473498	0.000110994	0	-0.00123789	1.49552e-05	3.48392e-06	0.501338	0.0313883	0.0313871	-0.000274644	-22.3062	42.6886	39.4942	16.2027	0.0216847	0.00890348	0.0234413	22.3225	1.41573e+08	3.44806e+08	3.72739e+08	-67.6775	0.0000000E+000	0.0000000E+000	0.0000000E+000	67.6775	0.0000000E+000	0.0000000E+000	0.0000000E+000	-67.6775	0.0000000E+000	0.0000000E+000	0.0000000E+000	-22.3225	0.0000000E+000	0.0000000E+000	0.0000000E+000	22.3225	2.43553	67.6775	-0.000251574	-2.38518e-06	-1.50262e-10	-2.38503e-06	0.237377	23627.1	1.48846	23625.6