File: txt/18405_R288_UA691_SOC00_C05.mpt
EC-Lab ASCII FILE
Nb header lines : 65

Potentio Electrochemical Impedance Spectroscopy

Run on channel : 5 (SN 65912)
User :
CE vs. WE compliance from -10 V to 10 V
Electrode connection : standard
Potential control : Ewe
Ewe ctrl range : min = -10.00 V, max = 10.00 V
Safety Limits :
	Do not start on E overload
Acquisition started on : 10/14/2025 16:30:49.005
Technique started on : 10/14/2025 16:30:50.731
Loaded Setting File :  NONE
Saved on :
	File : 18405_R288_UA691_SOC00_C05.mpr
	Directory : C:\Users\Celltest\OneDrive - store-dot.com\Documents\EC-Lab\Data\Charmaine\
	Host : 169.254.61.224
Device : VMP-3e (SN .003165)
Address : USB
EC-LAB for windows v11.62 (software)
Internet server v27.00 (firmware)
Command interpretor v12.03 (firmware)
Electrode material :
Initial state :
Electrolyte :
Comments :
Electrode surface area : 0.001 cm²
Characteristic mass : 0.001 g
Equivalent Weight : 0.000 g/eq.
Density : 0.000 g/cm3
Volume (V) : 0.001 cm³
Record Ece
Cycle Definition : Charge/Discharge alternance
Mode                Single sine
E (V)               0.0000
vs.                 Eoc
tE (h:m:s)          0:00:0.0000
record              0
dI                  0.000
unit dI             mA
dt (s)              0.000
fi                  100.000
unit fi             kHz
ff                  10.000
unit ff             mHz
Nd                  6
Points              per decade
spacing             Logarithmic
Va (mV)             5.0
pw                  0.10
Na                  2
corr                0
E range min (V)     -10.000
E range max (V)     10.000
I Range             Auto
Bandwidth           5
nc cycles           0
goto Ns'            0
nr cycles           0
inc. cycle          0

freq/Hz	Re(Z)/Ohm	-Im(Z)/Ohm	|Z|/Ohm	Phase(Z)/deg	time/s	<Ewe>/V	<I>/mA	Cs/µF	Cp/µF	cycle number	I Range	|Ewe|/V	|I|/A	Ns	(Q-Qo)/mA.h	<Ece>/V	|Ece|/V	Phase(Zce)/deg	|Zce|/Ohm	Re(Zce)/Ohm	-Im(Zce)/Ohm	Phase(Zwe-ce)/deg	|Zwe-ce|/Ohm	Re(Zwe-ce)/Ohm	-Im(Zwe-ce)/Ohm	Re(Y)/Ohm-1	Im(Y)/Ohm-1	|Y|/Ohm-1	Phase(Y)/deg	Re(C)/nF	Im(C)/nF	|C|/nF	Phase(C)/deg	Re(M)	Im(M)	|M|	Phase(M)/deg	Re(Permittivity)	Im(Permittivity)	|Permittivity|	Phase(Permittivity)/deg	Re(Resistivity)/Ohm.cm	Im(Resistivity)/Ohm.cm	|Resistivity|/Ohm.cm	Phase(Resistivity)/deg	Re(Conductivity)/mS/cm	Im(Conductivity)/mS/cm	|Conductivity|/mS/cm	Phase(Conductivity)/deg	Tan(Delta)	Loss Angle(Delta)/deg	dq/mA.h	Pwe/W	Pce/W	Pwe-ce/W	<Ewe-Ece>/V	Rwe/Ohm	Rce/Ohm	Rwe-ce/Ohm		Ewe-Ece/V
100004	1.26371	0.376993	1.31875	-16.611	1.72552	0.262161	-0.0195352	4.22154	0.344997	1	9	0.00457506	0.00346925	0	-8.73816e-06	-0.000117823	3.9092e-05	87.8643	0.0112681	0.000419926	-0.0112603	-16.136	1.31598	1.26413	0.365733	0.726651	0.216776	0.758296	16.611	344.997	1156.46	1206.82	-73.389	0.0000000E+000	0.0000000E+000	0.0000000E+000	73.389	0.0000000E+000	0.0000000E+000	0.0000000E+000	-73.389	0.0000000E+000	0.0000000E+000	0.0000000E+000	-16.611	0.0000000E+000	0.0000000E+000	0.0000000E+000	16.611	3.35208	73.389	-8.73816e-06	-5.12136e-06	2.30169e-09	-5.12366e-06	0.262279	13419.9	6.03131	13426
31621.1	1.59688	0.533158	1.68353	-18.4629	3.24752	0.262126	-0.0264245	9.44033	0.946794	1	9	0.00502477	0.00298466	0	-1.5048e-05	-0.00023237	9.03543e-06	40.1771	0.00302729	0.00231301	-0.00195306	-18.375	1.68511	1.59919	0.531205	0.563416	0.188111	0.593989	18.4629	946.794	2835.78	2989.66	-71.5371	0.0000000E+000	0.0000000E+000	0.0000000E+000	71.5371	0.0000000E+000	0.0000000E+000	0.0000000E+000	-71.5371	0.0000000E+000	0.0000000E+000	0.0000000E+000	-18.4629	0.0000000E+000	0.0000000E+000	0.0000000E+000	18.4629	2.99513	71.5371	4.88936e-06	-6.92656e-06	6.14027e-09	-6.9327e-06	0.262358	9919.8	8.79372	9928.59
10002.2	2.02174	0.731606	2.15004	-19.8936	4.27454	0.262127	-0.0215834	21.7494	2.51829	1	9	0.00496418	0.00230887	0	-1.76581e-05	-6.05491e-05	7.068e-06	-97.5613	0.00306123	-0.000402817	0.00303462	-19.9733	2.1507	2.02134	0.73464	0.437352	0.158264	0.465107	19.8936	2518.29	6959.13	7400.76	-70.1064	0.0000000E+000	0.0000000E+000	0.0000000E+000	70.1064	0.0000000E+000	0.0000000E+000	0.0000000E+000	-70.1064	0.0000000E+000	0.0000000E+000	0.0000000E+000	-19.8936	0.0000000E+000	0.0000000E+000	0.0000000E+000	19.8936	2.76343	70.1064	4.80147e-07	-5.65759e-06	1.30685e-09	-5.65889e-06	0.262187	12144.9	2.80536	12147.7
3163.08	2.57563	1.07572	2.79125	-22.668	5.17567	0.261944	-0.088764	46.7746	6.94725	1	9	0.00465301	0.001667	0	-3.04588e-05	5.39982e-05	3.89831e-06	-35.908	0.00233852	0.00189411	0.00137151	-22.679	2.79352	2.57753	1.07709	0.330588	0.138071	0.358263	22.668	6947.25	16634	18026.5	-67.332	0.0000000E+000	0.0000000E+000	0.0000000E+000	67.332	0.0000000E+000	0.0000000E+000	0.0000000E+000	-67.332	0.0000000E+000	0.0000000E+000	0.0000000E+000	-22.668	0.0000000E+000	0.0000000E+000	0.0000000E+000	22.668	2.39433	67.332	-7.96105e-06	-2.32512e-05	-4.7931e-09	-2.32464e-05	0.26189	2951.01	0.608334	2950.4
1000.32	3.3142	1.7358	3.74125	-27.6431	6.77386	0.262054	-0.0227633	91.6604	19.7309	1	10	0.00463957	0.00124011	0	-3.79255e-05	0.000111272	8.39901e-06	-68.1027	0.00677277	0.00252586	0.00628414	-27.7103	3.7464	3.31673	1.74208	0.23678	0.124013	0.26729	27.6431	19730.9	37672.7	42527	-62.3569	0.0000000E+000	0.0000000E+000	0.0000000E+000	62.3569	0.0000000E+000	0.0000000E+000	0.0000000E+000	-62.3569	0.0000000E+000	0.0000000E+000	0.0000000E+000	-27.6431	0.0000000E+000	0.0000000E+000	0.0000000E+000	27.6431	1.90932	62.3569	-5.81187e-06	-5.96521e-06	-2.53292e-09	-5.96268e-06	0.261942	11512.1	4.88821	11507.2
316.316	4.67011	3.25426	5.69212	-34.8698	8.12308	0.262054	-0.0222197	154.613	50.5364	1	10	0.0045423	0.000797999	0	-4.60382e-05	-9.87315e-05	5.22749e-06	58.2885	0.00655075	0.00344335	-0.00557275	-34.804	5.69176	4.67356	3.24869	0.144139	0.10044	0.175682	34.8698	50536.4	72523.6	88394.5	-55.1302	0.0000000E+000	0.0000000E+000	0.0000000E+000	55.1302	0.0000000E+000	0.0000000E+000	0.0000000E+000	-55.1302	0.0000000E+000	0.0000000E+000	0.0000000E+000	-34.8698	0.0000000E+000	0.0000000E+000	0.0000000E+000	34.8698	1.43508	55.1302	-3.12434e-06	-5.82277e-06	2.19379e-09	-5.82497e-06	0.262153	11793.8	4.44342	11798.2
100.032	8.02909	5.42418	9.68959	-34.0416	9.47081	0.262056	-0.0219628	293.323	91.9189	1	10	0.00450588	0.000465023	0	-5.35631e-05	-0.000213279	7.64395e-06	-142.776	0.0164378	-0.0130891	0.00994364	-34.1337	9.68432	8.016	5.43413	0.0855177	0.0577729	0.103204	34.0416	91918.9	136062	164201	-55.9584	0.0000000E+000	0.0000000E+000	0.0000000E+000	55.9584	0.0000000E+000	0.0000000E+000	0.0000000E+000	-55.9584	0.0000000E+000	0.0000000E+000	0.0000000E+000	-34.0416	0.0000000E+000	0.0000000E+000	0.0000000E+000	34.0416	1.48024	55.9584	-3.2121e-06	-5.7555e-06	4.68421e-09	-5.76018e-06	0.26227	11931.8	9.7109	11941.5
31.6296	13.3481	5.98439	14.6282	-24.1483	11.0075	0.262053	-0.0251799	840.827	140.724	1	10	0.00500418	0.000342092	0	-6.44131e-05	0.000168545	5.20624e-06	92.2302	0.0152189	-0.000592233	-0.0152073	-24.0949	14.6214	13.3475	5.96919	0.0623789	0.0279666	0.0683612	24.1483	140723	313881	343983	-65.8517	0.0000000E+000	0.0000000E+000	0.0000000E+000	65.8517	0.0000000E+000	0.0000000E+000	0.0000000E+000	-65.8517	0.0000000E+000	0.0000000E+000	0.0000000E+000	-24.1483	0.0000000E+000	0.0000000E+000	0.0000000E+000	24.1483	2.23048	65.8517	-3.2985e-06	-6.59845e-06	-4.24395e-09	-6.59421e-06	0.261884	10407.2	6.69366	10400.5
10.0032	17.7046	4.75064	18.3309	-15.0203	12.5708	0.262089	-0.0101325	3349.11	224.94	1	11	0.00500465	0.000273018	0	-6.80995e-05	0.000149454	1.24975e-05	35.4395	0.0457753	0.0372944	-0.0265425	-14.9101	18.3601	17.7419	4.7241	0.0526889	0.0141379	0.0545528	15.0203	224940	838302	867956	-74.9797	0.0000000E+000	0.0000000E+000	0.0000000E+000	74.9797	0.0000000E+000	0.0000000E+000	0.0000000E+000	-74.9797	0.0000000E+000	0.0000000E+000	0.0000000E+000	-15.0203	0.0000000E+000	0.0000000E+000	0.0000000E+000	15.0203	3.72678	74.9797	1.75661e-09	-2.65562e-06	-1.51435e-09	-2.65411e-06	0.261939	25866.1	14.7499	25851.3
3.1604	20.6022	3.4128	20.883	-9.40575	14.0874	0.262085	-0.00994302	14756	394.098	1	11	0.00500226	0.000239538	0	-7.43267e-05	7.30894e-05	2.28008e-06	97.768	0.00951865	-0.00128656	-0.0094313	-9.38079	20.8802	20.6009	3.40337	0.0472421	0.00782575	0.0478859	9.40575	394098	2.37908e+06	2.4115e+06	-80.5943	0.0000000E+000	0.0000000E+000	0.0000000E+000	80.5943	0.0000000E+000	0.0000000E+000	0.0000000E+000	-80.5943	0.0000000E+000	0.0000000E+000	0.0000000E+000	-9.40575	0.0000000E+000	0.0000000E+000	0.0000000E+000	9.40575	6.03675	80.5943	-1.19298e-06	-2.60591e-06	-7.2673e-10	-2.60519e-06	0.262012	26358.7	7.35083	26351.3
1.00006	22.478	2.57203	22.6247	-6.52764	19.7258	0.262082	-0.00763932	61875.2	799.656	1	12	0.00500469	0.000221205	0	-8.0107e-05	0.000187637	3.59141e-06	31.883	0.0162357	0.0137862	-0.00857547	-6.50211	22.6374	22.4918	2.56345	0.043913	0.00502471	0.0441995	6.52764	799656	6.98852e+06	7.03412e+06	-83.4724	0.0000000E+000	0.0000000E+000	0.0000000E+000	83.4724	0.0000000E+000	0.0000000E+000	0.0000000E+000	-83.4724	0.0000000E+000	0.0000000E+000	0.0000000E+000	-6.52764	0.0000000E+000	0.0000000E+000	0.0000000E+000	6.52764	8.73941	83.4724	-7.80214e-06	-2.00213e-06	-1.43342e-09	-2.0007e-06	0.261895	34307	24.562	34282.4
0.316193	23.9842	2.60539	24.1253	-6.19968	34.069	0.262085	-0.00703683	193195	2253.17	1	12	0.00500387	0.000207411	0	-0.00013985	-0.000136914	1.17697e-06	-15.9892	0.00567458	0.00545505	0.0015631	-6.20197	24.1309	23.9897	2.60695	0.0412078	0.00447637	0.0414502	6.19968	2.25317e+06	2.07418e+07	2.08639e+07	-83.8003	0.0000000E+000	0.0000000E+000	0.0000000E+000	83.8003	0.0000000E+000	0.0000000E+000	0.0000000E+000	-83.8003	0.0000000E+000	0.0000000E+000	0.0000000E+000	-6.19968	0.0000000E+000	0.0000000E+000	0.0000000E+000	6.19968	9.20563	83.8003	-2.34209e-05	-1.84424e-06	9.6344e-10	-1.84521e-06	0.262221	37244.7	19.4568	37264.2
0.0999041	25.8559	4.07833	26.1756	-8.96357	79.277	0.262095	-0.00565123	390620	9482.57	1	12	0.005001	0.000191056	0	-0.000138101	0.000168545	1.9332e-06	-20.1688	0.0101185	0.00949806	0.00348873	-8.96787	26.1855	25.8654	4.08182	0.037737	0.00595236	0.0382035	8.96357	9.48257e+06	6.01179e+07	6.08612e+07	-81.0364	0.0000000E+000	0.0000000E+000	0.0000000E+000	81.0364	0.0000000E+000	0.0000000E+000	0.0000000E+000	-81.0364	0.0000000E+000	0.0000000E+000	0.0000000E+000	-8.96357	0.0000000E+000	0.0000000E+000	0.0000000E+000	8.96357	6.33984	81.0364	1.91019e-05	-1.48116e-06	-9.5249e-10	-1.48021e-06	0.261927	46378.4	29.8245	46348.6
0.0315922	29.3607	7.71893	30.3584	-14.7297	222.16	0.262086	-0.00228897	652654	42192.8	1	12	0.00500327	0.000164807	0	-0.000217736	-0.000194188	1.65473e-06	-20.2987	0.0100405	0.00941692	0.00348317	-14.7316	30.3684	29.3702	7.72241	0.0318572	0.00837526	0.0329398	14.7297	4.21928e+07	1.6049e+08	1.65944e+08	-75.2703	0.0000000E+000	0.0000000E+000	0.0000000E+000	75.2703	0.0000000E+000	0.0000000E+000	0.0000000E+000	-75.2703	0.0000000E+000	0.0000000E+000	0.0000000E+000	-14.7297	0.0000000E+000	0.0000000E+000	0.0000000E+000	14.7297	3.80373	75.2703	-9.63293e-05	-5.99907e-07	4.4449e-10	-6.00351e-07	0.26228	114499	84.8362	114584
0.0100092	35.0917	15.2506	38.2623	-23.4894	673.382	0.262086	-0.00382834	1.04264e+06	165640	1	12	0.00500284	0.000130751	0	-0.00133012	-3.27544e-06	1.40263e-06	18.2713	0.0107275	0.0101867	-0.00336326	-23.4787	38.2703	35.1019	15.2472	0.0239696	0.010417	0.0261354	23.4894	1.6564e+08	3.81139e+08	4.15576e+08	-66.5106	0.0000000E+000	0.0000000E+000	0.0000000E+000	66.5106	0.0000000E+000	0.0000000E+000	0.0000000E+000	-66.5106	0.0000000E+000	0.0000000E+000	0.0000000E+000	-23.4894	0.0000000E+000	0.0000000E+000	0.0000000E+000	23.4894	2.30101	66.5106	-0.000467273	-1.00335e-06	1.25395e-11	-1.00337e-06	0.262089	68459.5	0.855578	68460.4