File: txt/18442_R297_UC61_11mm_SOC50_C02.mpt
EC-Lab ASCII FILE
Nb header lines : 65

Potentio Electrochemical Impedance Spectroscopy

Run on channel : 2 (SN 66139)
User :
CE vs. WE compliance from -10 V to 10 V
Electrode connection : standard
Potential control : Ewe
Ewe ctrl range : min = -10.00 V, max = 10.00 V
Safety Limits :
	Do not start on E overload
Acquisition started on : 10/16/2025 15:32:01.264
Technique started on : 10/16/2025 15:32:03.959
Loaded Setting File :  C:\Users\Celltest\OneDrive - store-dot.com\Documents\EC-Lab\Data\txt_done\UC80_17231_EIS_50SOC.mps
Saved on :
	File : 18442_R297_UC61_11mm_SOC50_C02.mpr
	Directory : C:\Users\Celltest\OneDrive - store-dot.com\Documents\EC-Lab\Data\Michael\
	Host : 169.254.61.224
Device : VMP-3e (SN .003165)
Address : USB
EC-LAB for windows v11.62 (software)
Internet server v27.00 (firmware)
Command interpretor v12.03 (firmware)
Electrode material :
Initial state :
Electrolyte :
Comments :
Electrode surface area : 0.001 cm²
Characteristic mass : 0.001 g
Equivalent Weight : 0.000 g/eq.
Density : 0.000 g/cm3
Volume (V) : 0.001 cm³
Record Ece
Cycle Definition : Charge/Discharge alternance
Mode                Multi sine
E (V)               0.0000
vs.                 Eoc
tE (h:m:s)          0:00:0.0000
record              0
dI                  0.000
unit dI             mA
dt (s)              0.000
fi                  1.000
unit fi             MHz
ff                  0.100
unit ff             mHz
Nd                  10
Points              per decade
spacing             Logarithmic
Va (mV)             5.0
pw                  0.10
Na                  2
corr                0
E range min (V)     -10.000
E range max (V)     10.000
I Range             Auto
Bandwidth           5
nc cycles           0
goto Ns'            0
nr cycles           0
inc. cycle          0

freq/Hz	Re(Z)/Ohm	-Im(Z)/Ohm	|Z|/Ohm	Phase(Z)/deg	time/s	<Ewe>/V	<I>/mA	Cs/µF	Cp/µF	cycle number	I Range	|Ewe|/V	|I|/A	Ns	(Q-Qo)/mA.h	<Ece>/V	|Ece|/V	Phase(Zce)/deg	|Zce|/Ohm	Re(Zce)/Ohm	-Im(Zce)/Ohm	Phase(Zwe-ce)/deg	|Zwe-ce|/Ohm	Re(Zwe-ce)/Ohm	-Im(Zwe-ce)/Ohm	Re(Y)/Ohm-1	Im(Y)/Ohm-1	|Y|/Ohm-1	Phase(Y)/deg	Re(C)/nF	Im(C)/nF	|C|/nF	Phase(C)/deg	Re(M)	Im(M)	|M|	Phase(M)/deg	Re(Permittivity)	Im(Permittivity)	|Permittivity|	Phase(Permittivity)/deg	Re(Resistivity)/Ohm.cm	Im(Resistivity)/Ohm.cm	|Resistivity|/Ohm.cm	Phase(Resistivity)/deg	Re(Conductivity)/mS/cm	Im(Conductivity)/mS/cm	|Conductivity|/mS/cm	Phase(Conductivity)/deg	Tan(Delta)	Loss Angle(Delta)/deg	dq/mA.h	Pwe/W	Pce/W	Pwe-ce/W	<Ewe-Ece>/V	Rwe/Ohm	Rce/Ohm	Rwe-ce/Ohm		Ewe-Ece/V
1.00002e+06	0.987955	-0.223476	1.01291	12.7458	2.69454	3.82389	-0.0148216	-0.712167	-0.0346654	1	9	0.000210592	0.000207906	0	-9.70672e-06	0.000324887	0.000174463	3.07852	0.839141	0.83793	-0.0450656	8.36677	1.84553	1.82589	-0.268541	0.962923	-0.217813	0.98725	-12.7458	-34.6654	153.251	157.123	-102.746	0.0000000E+000	0.0000000E+000	0.0000000E+000	102.746	0.0000000E+000	0.0000000E+000	0.0000000E+000	-102.746	0.0000000E+000	0.0000000E+000	0.0000000E+000	12.7458	0.0000000E+000	0.0000000E+000	0.0000000E+000	-12.7458	4.42086	77.2542	-9.70672e-06	-5.66764e-05	-4.81536e-09	-5.66716e-05	3.82357	257994	21.9198	257972
251206	0.86885	0.3197	0.925801	-20.2015	4.99255	3.8239	-0.0166094	1.98174	0.236318	1	9	0.00235929	0.00254838	0	-1.99971e-05	-0.000114203	2.28336e-05	90.2273	0.00896004	-3.55527e-05	-0.00895997	-19.6801	0.922712	0.868814	0.31074	1.0137	0.372998	1.08015	20.2015	236.318	642.242	684.34	-69.7985	0.0000000E+000	0.0000000E+000	0.0000000E+000	69.7985	0.0000000E+000	0.0000000E+000	0.0000000E+000	-69.7985	0.0000000E+000	0.0000000E+000	0.0000000E+000	-20.2015	0.0000000E+000	0.0000000E+000	0.0000000E+000	20.2015	2.7177	69.7985	-2.54296e-06	-6.35126e-05	1.89684e-09	-6.35145e-05	3.82401	230225	6.87579	230232
63093.8	1.29597	0.586396	1.42246	-24.3457	7.29054	3.82377	-0.00711167	4.30172	0.731044	1	9	0.0053934	0.00379159	0	-3.03499e-05	0.000210342	2.29128e-05	82.2114	0.00604307	0.000818946	-0.00598732	-24.1121	1.42075	1.29679	0.580409	0.640492	0.289808	0.703007	24.3457	731.044	1615.65	1773.34	-65.6543	0.0000000E+000	0.0000000E+000	0.0000000E+000	65.6543	0.0000000E+000	0.0000000E+000	0.0000000E+000	-65.6543	0.0000000E+000	0.0000000E+000	0.0000000E+000	-24.3457	0.0000000E+000	0.0000000E+000	0.0000000E+000	24.3457	2.21006	65.6543	-3.59136e-06	-2.71934e-05	-1.49588e-09	-2.71919e-05	3.82356	537676	29.577	537646
15847.7	1.85957	0.978451	2.10128	-27.752	9.46453	3.82376	-0.00975615	10.264	2.22549	1	9	0.00492201	0.00234239	0	-2.06494e-05	0.000286705	8.46084e-06	-72.4966	0.00361206	0.00108637	0.00344482	-27.8213	2.10385	1.86066	0.981896	0.421159	0.221601	0.475901	27.752	2225.49	4229.61	4779.37	-62.248	0.0000000E+000	0.0000000E+000	0.0000000E+000	62.248	0.0000000E+000	0.0000000E+000	0.0000000E+000	-62.248	0.0000000E+000	0.0000000E+000	0.0000000E+000	-27.752	0.0000000E+000	0.0000000E+000	0.0000000E+000	27.752	1.90053	62.248	-2.80128e-06	-3.73052e-05	-2.79714e-09	-3.73024e-05	3.82348	391934	29.3871	391904
3983.6	2.85428	1.77987	3.36375	-31.9468	11.3331	3.82358	-0.0739681	22.4469	6.28469	1	9	0.00500572	0.00148813	0	-3.0708e-05	9.57967e-05	8.65006e-06	-78.6185	0.00581269	0.00114708	0.00569838	-32.0188	3.36774	2.85542	1.78557	0.25226	0.157304	0.297287	31.9468	6284.69	10078.4	11877.4	-58.0532	0.0000000E+000	0.0000000E+000	0.0000000E+000	58.0532	0.0000000E+000	0.0000000E+000	0.0000000E+000	-58.0532	0.0000000E+000	0.0000000E+000	0.0000000E+000	-31.9468	0.0000000E+000	0.0000000E+000	0.0000000E+000	31.9468	1.60364	58.0532	-6.48971e-06	-0.000282823	-7.0859e-09	-0.000282816	3.82348	51692.2	1.29511	51690.9
1000.32	4.87488	3.08006	5.76639	-32.2856	14.2058	3.82366	-0.0306434	51.6562	14.7378	1	10	0.00488031	0.000846337	0	-5.35692e-05	3.42479e-07	6.23762e-06	18.1285	0.00737014	0.00700429	-0.00229322	-32.2292	5.77109	4.88189	3.07776	0.146608	0.0926299	0.173419	32.2856	14737.8	23325.8	27591.6	-57.7144	0.0000000E+000	0.0000000E+000	0.0000000E+000	57.7144	0.0000000E+000	0.0000000E+000	0.0000000E+000	-57.7144	0.0000000E+000	0.0000000E+000	0.0000000E+000	-32.2856	0.0000000E+000	0.0000000E+000	0.0000000E+000	32.2856	1.58272	57.7144	-3.36138e-06	-0.00011717	-1.04947e-11	-0.00011717	3.82366	124779	0.0111763	124779
251.044	8.71522	3.84778	9.52683	-23.8215	16.907	3.82366	-0.030148	164.763	26.8772	1	10	0.00479421	0.000503232	0	-7.47308e-05	0.000343978	4.95508e-06	39.9887	0.0098465	0.0075441	-0.00632772	-23.7684	9.53117	8.72276	3.84145	0.0960245	0.0423949	0.104967	23.8215	26877.1	60876.8	66545.9	-66.1785	0.0000000E+000	0.0000000E+000	0.0000000E+000	66.1785	0.0000000E+000	0.0000000E+000	0.0000000E+000	-66.1785	0.0000000E+000	0.0000000E+000	0.0000000E+000	-23.8215	0.0000000E+000	0.0000000E+000	0.0000000E+000	23.8215	2.265	66.1785	-3.27584e-06	-0.000115275	-1.03702e-08	-0.000115265	3.82331	126830	11.4097	126818
63.0823	12.018	2.29059	12.2344	-10.7909	19.629	3.82367	-0.0264376	1101.45	38.6097	1	10	0.00479112	0.000391611	0	-9.45139e-05	-0.000114203	1.32502e-05	3.5693	0.033835	0.0337694	-0.00210642	-10.7517	12.2672	12.0518	2.28849	0.0802915	0.0153032	0.0817368	10.7909	38609.7	202573	206220	-79.2091	0.0000000E+000	0.0000000E+000	0.0000000E+000	79.2091	0.0000000E+000	0.0000000E+000	0.0000000E+000	-79.2091	0.0000000E+000	0.0000000E+000	0.0000000E+000	-10.7909	0.0000000E+000	0.0000000E+000	0.0000000E+000	10.7909	5.24669	79.2091	-3.5224e-06	-0.000101089	3.01925e-09	-0.000101092	3.82379	144630	4.3197	144634
15.8576	12.9456	0.91461	12.9779	-4.04125	22.286	3.82367	-0.034093	10973.6	54.5022	1	10	0.00479051	0.00036913	0	-0.000117082	0.000114888	2.26553e-05	-115.971	0.0613749	-0.0268767	0.0551772	-4.29305	12.9551	12.9187	0.969787	0.0768628	0.00543038	0.0770544	4.04125	54502.2	771435	773358	-85.9587	0.0000000E+000	0.0000000E+000	0.0000000E+000	85.9587	0.0000000E+000	0.0000000E+000	0.0000000E+000	-85.9587	0.0000000E+000	0.0000000E+000	0.0000000E+000	-4.04125	0.0000000E+000	0.0000000E+000	0.0000000E+000	4.04125	14.1542	85.9587	-3.89935e-06	-0.00013036	-3.91686e-09	-0.000130356	3.82355	112154	3.36983	112151
3.97785	13.308	0.536261	13.3188	-2.30754	25.4823	3.82372	-0.0143546	74609.8	120.952	1	11	0.00478828	0.000359511	0	-0.000131473	0.000305796	3.84557e-06	128.593	0.0106966	-0.00667238	-0.00836048	-2.27274	13.3118	13.3014	0.5279	0.0750207	0.00302303	0.0750816	2.30754	120952	3.0016e+06	3.00404e+06	-87.6925	0.0000000E+000	0.0000000E+000	0.0000000E+000	87.6925	0.0000000E+000	0.0000000E+000	0.0000000E+000	-87.6925	0.0000000E+000	0.0000000E+000	0.0000000E+000	-2.30754	0.0000000E+000	0.0000000E+000	0.0000000E+000	2.30754	24.8164	87.6925	-5.39752e-06	-5.48878e-05	-4.38957e-09	-5.48835e-05	3.82341	266376	21.303	266355
1.00469	13.5845	0.652225	13.6002	-2.7488	240.297	3.82367	-0.0137076	242879	558.593	1	11	0.00497827	0.000366045	0	-0.00229602	0.000153069	1.22354e-07	-29.8975	0.000334259	0.000289775	0.000166611	-2.74944	13.6005	13.5848	0.652391	0.0734439	0.00352622	0.0735286	2.7488	558593	1.16344e+07	1.16478e+07	-87.2512	0.0000000E+000	0.0000000E+000	0.0000000E+000	87.2512	0.0000000E+000	0.0000000E+000	0.0000000E+000	-87.2512	0.0000000E+000	0.0000000E+000	0.0000000E+000	-2.7488	0.0000000E+000	0.0000000E+000	0.0000000E+000	2.7488	20.828	87.2512	-0.0021392	-5.24135e-05	-2.09821e-09	-5.24114e-05	3.82352	278945	11.1667	278934
0.251173	14.1825	1.25499	14.2379	-5.05684	240.297	3.82367	-0.0137076	504901	3922.76	1	11	0.00500415	0.000351466	0	-0.00229602	0.000153069	4.79478e-07	-5.30293	0.00136422	0.00135838	0.000126084	-5.05687	14.2393	14.1839	1.25512	0.0699615	0.00619078	0.0702349	5.05684	3.92276e+06	4.43308e+07	4.4504e+07	-84.9432	0.0000000E+000	0.0000000E+000	0.0000000E+000	84.9432	0.0000000E+000	0.0000000E+000	0.0000000E+000	-84.9432	0.0000000E+000	0.0000000E+000	0.0000000E+000	-5.05684	0.0000000E+000	0.0000000E+000	0.0000000E+000	5.05684	11.3009	84.9432	0.000000000000000E+000	-5.24135e-05	-2.09821e-09	-5.24114e-05	3.82352	278945	11.1667	278934
0.0602816	15.4394	2.45925	15.634	-9.05028	240.298	3.82367	-0.0137076	1.07358e+06	26564.2	1	11	0.00499715	0.000319633	0	-0.00229602	0.000153069	5.49197e-07	19.5182	0.00171821	0.00161948	-0.000574064	-9.04726	15.6355	15.441	2.45868	0.0631667	0.0100615	0.063963	9.05028	2.65642e+07	1.66772e+08	1.68875e+08	-80.9497	0.0000000E+000	0.0000000E+000	0.0000000E+000	80.9497	0.0000000E+000	0.0000000E+000	0.0000000E+000	-80.9497	0.0000000E+000	0.0000000E+000	0.0000000E+000	-9.05028	0.0000000E+000	0.0000000E+000	0.0000000E+000	9.05028	6.27809	80.9497	0.000000000000000E+000	-5.24135e-05	-2.09821e-09	-5.24114e-05	3.82352	278945	11.1667	278934
0.00796479	20.2629	4.35331	20.7253	-12.1252	20329.2	3.82368	-0.00143502	4.59015e+06	202519	1	11	0.00499418	0.000240971	0	-0.0293462	0.000153069	4.11275e-07	10.9025	0.00170674	0.00167594	-0.00032281	-12.1233	20.7268	20.2646	4.35298	0.0471739	0.0101349	0.0482503	12.1252	2.02519e+08	9.42644e+08	9.64153e+08	-77.8748	0.0000000E+000	0.0000000E+000	0.0000000E+000	77.8748	0.0000000E+000	0.0000000E+000	0.0000000E+000	-77.8748	0.0000000E+000	0.0000000E+000	0.0000000E+000	-12.1252	0.0000000E+000	0.0000000E+000	0.0000000E+000	12.1252	4.6546	77.8748	-0.0270502	-5.48703e-06	-2.19657e-10	-5.48681e-06	3.82352	2.66455e+06	106.667	2.66445e+06
0.0019912	23.224	6.57112	24.1357	-15.7986	20329.2	3.82368	-0.00143502	1.21637e+07	901622	1	11	0.00500676	0.000207442	0	-0.0293462	0.000153069	7.08086e-07	-88.5326	0.00341342	8.74092e-05	0.0034123	-15.8064	24.1367	23.2241	6.57453	0.0398672	0.0112802	0.0414323	15.7986	9.01622e+08	3.18656e+09	3.31166e+09	-74.2014	0.0000000E+000	0.0000000E+000	0.0000000E+000	74.2014	0.0000000E+000	0.0000000E+000	0.0000000E+000	-74.2014	0.0000000E+000	0.0000000E+000	0.0000000E+000	-15.7986	0.0000000E+000	0.0000000E+000	0.0000000E+000	15.7986	3.53425	74.2014	0.000000000000000E+000	-5.48703e-06	-2.19657e-10	-5.48681e-06	3.82352	2.66455e+06	106.667	2.66445e+06
0.000497799	23.6143	16.7855	28.9722	-35.4059	20329.2	3.82368	-0.00143502	1.90473e+07	6.39348e+06	1	11	0.0050071	0.000172824	0	-0.0293462	0.000153069	6.8827e-07	-13.044	0.00398248	0.00387972	0.000898842	-35.4029	28.9759	23.6182	16.7864	0.0281328	0.0199973	0.0345159	35.4059	6.39348e+09	8.99454e+09	1.10353e+10	-54.5941	0.0000000E+000	0.0000000E+000	0.0000000E+000	54.5941	0.0000000E+000	0.0000000E+000	0.0000000E+000	-54.5941	0.0000000E+000	0.0000000E+000	0.0000000E+000	-35.4059	0.0000000E+000	0.0000000E+000	0.0000000E+000	35.4059	1.40683	54.5941	0.000000000000000E+000	-5.48703e-06	-2.19657e-10	-5.48681e-06	3.82352	2.66455e+06	106.667	2.66445e+06
9.95598e-05	29.1971	95.4383	99.8045	-72.9898	20329.2	3.82368	-0.00143502	1.67499e+07	1.53165e+07	1	11	0.0050011	5.0109e-05	0	-0.0293462	0.000153069	5.50589e-06	-5.91057	0.109878	0.109294	0.0113148	-72.9317	99.8474	29.3064	95.4496	0.00293116	0.00958125	0.0100196	72.9898	1.53165e+10	4.6857e+09	1.60172e+10	-17.0102	0.0000000E+000	0.0000000E+000	0.0000000E+000	17.0102	0.0000000E+000	0.0000000E+000	0.0000000E+000	-17.0102	0.0000000E+000	0.0000000E+000	0.0000000E+000	-72.9898	0.0000000E+000	0.0000000E+000	0.0000000E+000	72.9898	0.305926	17.0102	0.000000000000000E+000	-5.48703e-06	-2.19657e-10	-5.48681e-06	3.82352	2.66455e+06	106.667	2.66445e+06