File: txt/18441_R297_UC61_11mm_SOC50_C01.mpt
EC-Lab ASCII FILE
Nb header lines : 65

Potentio Electrochemical Impedance Spectroscopy

Run on channel : 1 (SN 66354)
User :
CE vs. WE compliance from -10 V to 10 V
Electrode connection : standard
Potential control : Ewe
Ewe ctrl range : min = -10.00 V, max = 10.00 V
Safety Limits :
	Do not start on E overload
Acquisition started on : 10/16/2025 15:31:40.435
Technique started on : 10/16/2025 15:31:43.130
Loaded Setting File :  C:\Users\Celltest\OneDrive - store-dot.com\Documents\EC-Lab\Data\txt_done\UC80_17231_EIS_50SOC.mps
Saved on :
	File : 18441_R297_UC61_11mm_SOC50_C01.mpr
	Directory : C:\Users\Celltest\OneDrive - store-dot.com\Documents\EC-Lab\Data\Michael\
	Host : 169.254.61.224
Device : VMP-3e (SN .003165)
Address : USB
EC-LAB for windows v11.62 (software)
Internet server v27.00 (firmware)
Command interpretor v12.03 (firmware)
Electrode material :
Initial state :
Electrolyte :
Comments :
Electrode surface area : 0.001 cm²
Characteristic mass : 0.001 g
Equivalent Weight : 0.000 g/eq.
Density : 0.000 g/cm3
Volume (V) : 0.001 cm³
Record Ece
Cycle Definition : Charge/Discharge alternance
Mode                Multi sine
E (V)               0.0000
vs.                 Eoc
tE (h:m:s)          0:00:0.0000
record              0
dI                  0.000
unit dI             mA
dt (s)              0.000
fi                  1.000
unit fi             MHz
ff                  0.100
unit ff             mHz
Nd                  10
Points              per decade
spacing             Logarithmic
Va (mV)             5.0
pw                  0.10
Na                  2
corr                0
E range min (V)     -10.000
E range max (V)     10.000
I Range             Auto
Bandwidth           5
nc cycles           0
goto Ns'            0
nr cycles           0
inc. cycle          0

freq/Hz	Re(Z)/Ohm	-Im(Z)/Ohm	|Z|/Ohm	Phase(Z)/deg	time/s	<Ewe>/V	<I>/mA	Cs/µF	Cp/µF	cycle number	I Range	|Ewe|/V	|I|/A	Ns	(Q-Qo)/mA.h	<Ece>/V	|Ece|/V	Phase(Zce)/deg	|Zce|/Ohm	Re(Zce)/Ohm	-Im(Zce)/Ohm	Phase(Zwe-ce)/deg	|Zwe-ce|/Ohm	Re(Zwe-ce)/Ohm	-Im(Zwe-ce)/Ohm	Re(Y)/Ohm-1	Im(Y)/Ohm-1	|Y|/Ohm-1	Phase(Y)/deg	Re(C)/nF	Im(C)/nF	|C|/nF	Phase(C)/deg	Re(M)	Im(M)	|M|	Phase(M)/deg	Re(Permittivity)	Im(Permittivity)	|Permittivity|	Phase(Permittivity)/deg	Re(Resistivity)/Ohm.cm	Im(Resistivity)/Ohm.cm	|Resistivity|/Ohm.cm	Phase(Resistivity)/deg	Re(Conductivity)/mS/cm	Im(Conductivity)/mS/cm	|Conductivity|/mS/cm	Phase(Conductivity)/deg	Tan(Delta)	Loss Angle(Delta)/deg	dq/mA.h	Pwe/W	Pce/W	Pwe-ce/W	<Ewe-Ece>/V	Rwe/Ohm	Rce/Ohm	Rwe-ce/Ohm		Ewe-Ece/V
1.00002e+06	1.0913	-0.00180885	1.0913	0.0949687	2.69455	3.82395	-0.00183009	-87.9853	-0.000241727	1	9	0.000222505	0.000203889	0	-4.44595e-07	7.86489e-05	0.000197506	-6.67335	0.968692	0.962129	0.112571	-3.08754	2.05641	2.05343	0.110762	0.916336	-0.00151884	0.916338	-0.0949687	-0.241732	145.837	145.837	-90.095	0.0000000E+000	0.0000000E+000	0.0000000E+000	90.095	0.0000000E+000	0.0000000E+000	0.0000000E+000	-90.095	0.0000000E+000	0.0000000E+000	0.0000000E+000	0.0949687	0.0000000E+000	0.0000000E+000	0.0000000E+000	-0.0949687	603.312	89.905	-4.44595e-07	-6.99817e-06	-1.43935e-10	-6.99803e-06	3.82387	2.08948e+06	42.9754	2.08944e+06
251206	0.722098	0.226546	0.756801	-17.4184	5.00052	3.82363	-0.00916914	2.79662	0.250601	1	9	0.00196594	0.0025977	0	3.70746e-06	0.000269422	6.71096e-05	117.728	0.0258342	-0.0120199	-0.0228677	-16.005	0.738712	0.710078	0.203678	1.26076	0.395542	1.32135	17.4184	250.601	798.77	837.159	-72.5816	0.0000000E+000	0.0000000E+000	0.0000000E+000	72.5816	0.0000000E+000	0.0000000E+000	0.0000000E+000	-72.5816	0.0000000E+000	0.0000000E+000	0.0000000E+000	-17.4184	0.0000000E+000	0.0000000E+000	0.0000000E+000	17.4184	3.18742	72.5816	2.83439e-06	-3.50594e-05	-2.47037e-09	-3.50569e-05	3.82336	417011	29.3836	416981
63093.8	1.04967	0.572301	1.19555	-28.6001	7.30053	3.8236	0.0287931	4.40767	1.01	1	9	0.00533849	0.0044653	0	6.47113e-06	-7.39696e-05	2.60938e-05	77.1801	0.00584368	0.00129664	-0.00569801	-28.3302	1.19397	1.05097	0.566603	0.734375	0.400395	0.836435	28.6001	1010	1852.47	2109.92	-61.3999	0.0000000E+000	0.0000000E+000	0.0000000E+000	61.3999	0.0000000E+000	0.0000000E+000	0.0000000E+000	-61.3999	0.0000000E+000	0.0000000E+000	0.0000000E+000	-28.6001	0.0000000E+000	0.0000000E+000	0.0000000E+000	28.6001	1.83413	61.3999	-1.17088e-05	0.000110093	-2.12981e-09	0.000110095	3.82367	132796	2.56901	132798
15847.7	1.66943	1.09951	1.99898	-33.3695	9.84855	3.82361	0.0205598	9.13389	2.76336	1	9	0.00475807	0.00238025	0	6.10414e-06	0.000231267	4.03212e-06	-129.082	0.00169399	-0.00106794	0.00131495	-33.4178	1.99881	1.66836	1.10082	0.417784	0.275159	0.500256	33.3695	2763.36	4195.72	5023.97	-56.6305	0.0000000E+000	0.0000000E+000	0.0000000E+000	56.6305	0.0000000E+000	0.0000000E+000	0.0000000E+000	-56.6305	0.0000000E+000	0.0000000E+000	0.0000000E+000	-33.3695	0.0000000E+000	0.0000000E+000	0.0000000E+000	33.3695	1.51834	56.6305	2.54489e-06	7.86127e-05	4.75482e-09	7.8608e-05	3.82338	185975	11.2485	185963
3983.6	2.8373	1.87314	3.39984	-33.4321	11.7011	3.82346	-0.0569292	21.3292	6.47435	1	9	0.00471443	0.00138666	0	1.11863e-05	2.1417e-05	3.97811e-06	-139.151	0.00286884	-0.00217011	0.0018764	-33.4787	3.39907	2.83513	1.87502	0.245464	0.162051	0.294131	33.4321	6474.35	9806.91	11751.3	-56.5679	0.0000000E+000	0.0000000E+000	0.0000000E+000	56.5679	0.0000000E+000	0.0000000E+000	0.0000000E+000	-56.5679	0.0000000E+000	0.0000000E+000	0.0000000E+000	-33.4321	0.0000000E+000	0.0000000E+000	0.0000000E+000	33.4321	1.51473	56.5679	-4.01116e-06	-0.000217666	-1.21925e-09	-0.000217665	3.82343	67161.5	0.376203	67161.2
1000.32	4.94369	3.09602	5.83313	-32.0572	14.5388	3.8235	-0.0321229	51.3898	14.4771	1	10	0.00466104	0.000799063	0	-1.25241e-05	-0.000150279	3.73549e-06	8.32269	0.00467484	0.00462561	-0.000676674	-32.0275	5.83669	4.94831	3.09535	0.145294	0.0909916	0.171435	32.0572	14477.1	23116.9	27275.9	-57.9428	0.0000000E+000	0.0000000E+000	0.0000000E+000	57.9428	0.0000000E+000	0.0000000E+000	0.0000000E+000	-57.9428	0.0000000E+000	0.0000000E+000	0.0000000E+000	-32.0572	0.0000000E+000	0.0000000E+000	0.0000000E+000	32.0572	1.59679	57.9428	-3.53285e-06	-0.000122822	4.8274e-09	-0.000122827	3.82365	119027	4.67824	119032
251.044	8.66428	4.01338	9.54866	-24.854	17.2401	3.8235	-0.0308707	157.964	27.9058	1	10	0.00457397	0.000479016	0	-3.62849e-05	0.000307577	3.87526e-06	-60.4799	0.00809004	0.0039862	0.00703981	-24.8823	9.55524	8.66827	4.02042	0.0950271	0.0440175	0.104727	24.854	27905.8	60244.4	66393.7	-65.146	0.0000000E+000	0.0000000E+000	0.0000000E+000	65.146	0.0000000E+000	0.0000000E+000	0.0000000E+000	-65.146	0.0000000E+000	0.0000000E+000	0.0000000E+000	-24.854	0.0000000E+000	0.0000000E+000	0.0000000E+000	24.854	2.15885	65.146	-3.72611e-06	-0.000118034	-9.4951e-09	-0.000118025	3.82319	123855	9.96338	123845
63.0823	12.3289	2.52644	12.5851	-11.5807	19.962	3.82351	-0.0263276	998.626	40.2446	1	10	0.00456737	0.000362918	0	-5.83224e-05	0.000135881	9.46842e-06	67.7467	0.0260897	0.00988021	-0.0241465	-11.4641	12.59	12.3388	2.5023	0.0778414	0.0159513	0.0794589	11.5807	40244.6	196392	200473	-78.4193	0.0000000E+000	0.0000000E+000	0.0000000E+000	78.4193	0.0000000E+000	0.0000000E+000	0.0000000E+000	-78.4193	0.0000000E+000	0.0000000E+000	0.0000000E+000	-11.5807	0.0000000E+000	0.0000000E+000	0.0000000E+000	11.5807	4.87995	78.4193	-3.21023e-06	-0.000100664	-3.57741e-09	-0.00010066	3.82337	145228	5.16116	145223
15.8576	13.4502	1.05758	13.4918	-4.49587	22.6201	3.82351	-0.0353356	9490.08	58.3122	1	10	0.00455406	0.000337544	0	-7.81439e-05	-9.30469e-05	1.4074e-05	67.3446	0.0416955	0.0160606	-0.0384782	-4.32778	13.5048	13.4663	1.0191	0.0738913	0.00581	0.0741193	4.49587	58312.2	741611	743900	-85.5041	0.0000000E+000	0.0000000E+000	0.0000000E+000	85.5041	0.0000000E+000	0.0000000E+000	0.0000000E+000	-85.5041	0.0000000E+000	0.0000000E+000	0.0000000E+000	-4.49587	0.0000000E+000	0.0000000E+000	0.0000000E+000	4.49587	12.7179	85.5041	-2.71569e-06	-0.000135106	3.28787e-09	-0.000135109	3.8236	108206	2.63324	108208
3.97785	13.9527	0.641589	13.9674	-2.63279	25.8144	3.82357	-0.0132905	62361.2	131.582	1	11	0.00456743	0.000327006	0	-9.14625e-05	0.000154958	4.59162e-06	24.9067	0.0140414	0.0127355	-0.00591343	-2.60618	13.9799	13.9654	0.635676	0.0715196	0.00328871	0.0715952	2.63279	131582	2.86152e+06	2.86454e+06	-87.3672	0.0000000E+000	0.0000000E+000	0.0000000E+000	87.3672	0.0000000E+000	0.0000000E+000	0.0000000E+000	-87.3672	0.0000000E+000	0.0000000E+000	0.0000000E+000	-2.63279	0.0000000E+000	0.0000000E+000	0.0000000E+000	2.63279	21.747	87.3672	-2.32352e-06	-5.08172e-05	-2.05947e-09	-5.08151e-05	3.82342	287692	11.6593	287681
1.00469	14.2869	0.777876	14.3081	-3.1165	240.628	3.82354	-0.0127444	203646	601.915	1	11	0.0050067	0.000349922	0	-0.00209738	5.95716e-05	4.23473e-07	3.32206	0.00121019	0.00120816	-7.01288e-05	-3.11595	14.3093	14.2881	0.777806	0.0697873	0.0037997	0.0698907	3.1165	601915	1.10551e+07	1.10715e+07	-86.8835	0.0000000E+000	0.0000000E+000	0.0000000E+000	86.8835	0.0000000E+000	0.0000000E+000	0.0000000E+000	-86.8835	0.0000000E+000	0.0000000E+000	0.0000000E+000	-3.1165	0.0000000E+000	0.0000000E+000	0.0000000E+000	3.1165	18.3665	86.8835	-0.00199423	-4.87288e-05	-7.59205e-10	-4.87281e-05	3.82348	300017	4.67432	300012
0.251173	14.9968	1.55887	15.0776	-5.9344	240.63	3.82354	-0.0127444	406479	4345.03	1	11	0.00503372	0.000333855	0	-0.00209738	5.95716e-05	4.44361e-07	1.78457	0.001331	0.00133036	-4.14496e-05	-5.93372	15.0789	14.9981	1.55882	0.0659682	0.00685718	0.0663237	5.9344	4.34503e+06	4.18005e+07	4.20257e+07	-84.0656	0.0000000E+000	0.0000000E+000	0.0000000E+000	84.0656	0.0000000E+000	0.0000000E+000	0.0000000E+000	-84.0656	0.0000000E+000	0.0000000E+000	0.0000000E+000	-5.9344	0.0000000E+000	0.0000000E+000	0.0000000E+000	5.9344	9.62031	84.0656	0.000000000000000E+000	-4.87288e-05	-7.59205e-10	-4.87281e-05	3.82348	300017	4.67432	300012
0.0602816	16.7049	2.9482	16.9631	-10.0089	240.633	3.82354	-0.0127444	895525	27050.9	1	11	0.00502756	0.000296382	0	-0.00209738	5.95716e-05	6.01729e-07	-8.33484	0.00203025	0.0020088	0.0002943	-10.0087	16.9651	16.7069	2.9485	0.0580543	0.0102458	0.0589515	10.0089	2.70509e+07	1.53274e+08	1.55643e+08	-79.9911	0.0000000E+000	0.0000000E+000	0.0000000E+000	79.9911	0.0000000E+000	0.0000000E+000	0.0000000E+000	-79.9911	0.0000000E+000	0.0000000E+000	0.0000000E+000	-10.0089	0.0000000E+000	0.0000000E+000	0.0000000E+000	10.0089	5.66614	79.9911	0.000000000000000E+000	-4.87288e-05	-7.59205e-10	-4.87281e-05	3.82348	300017	4.67432	300012
0.00796479	23.0893	5.16608	23.6602	-12.6118	20329.5	3.82355	-0.000289683	3.86799e+06	184404	1	11	0.00502053	0.000212193	0	-0.0200995	-3.5815e-05	6.00028e-07	-23.6148	0.00282774	0.00259095	0.00113276	-12.6131	23.663	23.0919	5.16721	0.0412453	0.00922834	0.042265	12.6118	1.84404e+08	8.24176e+08	8.44554e+08	-77.3882	0.0000000E+000	0.0000000E+000	0.0000000E+000	77.3882	0.0000000E+000	0.0000000E+000	0.0000000E+000	-77.3882	0.0000000E+000	0.0000000E+000	0.0000000E+000	-12.6118	0.0000000E+000	0.0000000E+000	0.0000000E+000	12.6118	4.46941	77.3882	-0.0180021	-1.10762e-06	1.0375e-11	-1.10763e-06	3.82358	1.31991e+07	123.635	1.31992e+07
0.0019912	26.878	7.58169	27.9269	-15.7526	20329.5	3.82355	-0.000289683	1.05424e+07	777012	1	11	0.00503389	0.000180252	0	-0.0200995	-3.5815e-05	5.72749e-07	-41.2639	0.00317748	0.00238845	0.00209564	-15.7554	27.9297	26.8804	7.58379	0.034463	0.00972124	0.0358078	15.7526	7.77012e+08	2.7546e+09	2.86209e+09	-74.2474	0.0000000E+000	0.0000000E+000	0.0000000E+000	74.2474	0.0000000E+000	0.0000000E+000	0.0000000E+000	-74.2474	0.0000000E+000	0.0000000E+000	0.0000000E+000	-15.7526	0.0000000E+000	0.0000000E+000	0.0000000E+000	15.7526	3.54512	74.2474	0.000000000000000E+000	-1.10762e-06	1.0375e-11	-1.10763e-06	3.82358	1.31991e+07	123.635	1.31992e+07
0.000497799	29.0227	18.5264	34.4317	-32.5517	20329.5	3.82355	-0.000289683	1.72574e+07	4.99618e+06	1	11	0.00503538	0.000146242	0	-0.0200995	-3.5815e-05	5.72542e-07	5.64146	0.00391502	0.00389606	-0.000384859	-32.5477	34.4348	29.0266	18.526	0.0244805	0.0156269	0.029043	32.5517	4.99618e+09	7.82684e+09	9.28554e+09	-57.4483	0.0000000E+000	0.0000000E+000	0.0000000E+000	57.4483	0.0000000E+000	0.0000000E+000	0.0000000E+000	-57.4483	0.0000000E+000	0.0000000E+000	0.0000000E+000	-32.5517	0.0000000E+000	0.0000000E+000	0.0000000E+000	32.5517	1.56656	57.4483	0.000000000000000E+000	-1.10762e-06	1.0375e-11	-1.10763e-06	3.82358	1.31991e+07	123.635	1.31992e+07
9.95598e-05	38.039	92.7929	100.287	-67.7096	20329.5	3.82355	-0.000289683	1.72275e+07	1.4749e+07	1	11	0.00503364	5.01924e-05	0	-0.0200995	-3.5815e-05	1.86772e-06	-35.0813	0.0372113	0.0304515	0.0213868	-67.6982	100.318	38.0694	92.8143	0.00378215	0.00922625	0.00997138	67.7096	1.4749e+10	6.0461e+09	1.59401e+10	-22.2904	0.0000000E+000	0.0000000E+000	0.0000000E+000	22.2904	0.0000000E+000	0.0000000E+000	0.0000000E+000	-22.2904	0.0000000E+000	0.0000000E+000	0.0000000E+000	-67.7096	0.0000000E+000	0.0000000E+000	0.0000000E+000	67.7096	0.409934	22.2904	0.000000000000000E+000	-1.10762e-06	1.0375e-11	-1.10763e-06	3.82358	1.31991e+07	123.635	1.31992e+07