File: txt/18444_R297_UC61_11mm_SOC50_C04.mpt
EC-Lab ASCII FILE
Nb header lines : 65

Potentio Electrochemical Impedance Spectroscopy

Run on channel : 4 (SN 66756)
User :
CE vs. WE compliance from -10 V to 10 V
Electrode connection : standard
Potential control : Ewe
Ewe ctrl range : min = -10.00 V, max = 10.00 V
Safety Limits :
	Do not start on E overload
Acquisition started on : 10/16/2025 15:32:35.564
Technique started on : 10/16/2025 15:32:38.259
Loaded Setting File :  C:\Users\Celltest\OneDrive - store-dot.com\Documents\EC-Lab\Data\txt_done\UC80_17231_EIS_50SOC.mps
Saved on :
	File : 18444_R297_UC61_11mm_SOC50_C04.mpr
	Directory : C:\Users\Celltest\OneDrive - store-dot.com\Documents\EC-Lab\Data\Michael\
	Host : 169.254.61.224
Device : VMP-3e (SN .003165)
Address : USB
EC-LAB for windows v11.62 (software)
Internet server v27.00 (firmware)
Command interpretor v12.03 (firmware)
Electrode material :
Initial state :
Electrolyte :
Comments :
Electrode surface area : 0.001 cm²
Characteristic mass : 0.001 g
Equivalent Weight : 0.000 g/eq.
Density : 0.000 g/cm3
Volume (V) : 0.001 cm³
Record Ece
Cycle Definition : Charge/Discharge alternance
Mode                Multi sine
E (V)               0.0000
vs.                 Eoc
tE (h:m:s)          0:00:0.0000
record              0
dI                  0.000
unit dI             mA
dt (s)              0.000
fi                  1.000
unit fi             MHz
ff                  0.100
unit ff             mHz
Nd                  10
Points              per decade
spacing             Logarithmic
Va (mV)             5.0
pw                  0.10
Na                  2
corr                0
E range min (V)     -10.000
E range max (V)     10.000
I Range             Auto
Bandwidth           5
nc cycles           0
goto Ns'            0
nr cycles           0
inc. cycle          0

freq/Hz	Re(Z)/Ohm	-Im(Z)/Ohm	|Z|/Ohm	Phase(Z)/deg	time/s	<Ewe>/V	<I>/mA	Cs/µF	Cp/µF	cycle number	I Range	|Ewe|/V	|I|/A	Ns	(Q-Qo)/mA.h	<Ece>/V	|Ece|/V	Phase(Zce)/deg	|Zce|/Ohm	Re(Zce)/Ohm	-Im(Zce)/Ohm	Phase(Zwe-ce)/deg	|Zwe-ce|/Ohm	Re(Zwe-ce)/Ohm	-Im(Zwe-ce)/Ohm	Re(Y)/Ohm-1	Im(Y)/Ohm-1	|Y|/Ohm-1	Phase(Y)/deg	Re(C)/nF	Im(C)/nF	|C|/nF	Phase(C)/deg	Re(M)	Im(M)	|M|	Phase(M)/deg	Re(Permittivity)	Im(Permittivity)	|Permittivity|	Phase(Permittivity)/deg	Re(Resistivity)/Ohm.cm	Im(Resistivity)/Ohm.cm	|Resistivity|/Ohm.cm	Phase(Resistivity)/deg	Re(Conductivity)/mS/cm	Im(Conductivity)/mS/cm	|Conductivity|/mS/cm	Phase(Conductivity)/deg	Tan(Delta)	Loss Angle(Delta)/deg	dq/mA.h	Pwe/W	Pce/W	Pwe-ce/W	<Ewe-Ece>/V	Rwe/Ohm	Rce/Ohm	Rwe-ce/Ohm		Ewe-Ece/V
1.00002e+06	0.933909	-0.0811225	0.937425	4.96444	2.69456	3.82488	0.0220573	-1.96187	-0.014692	1	9	0.000195171	0.000208199	0	2.65696e-05	3.60827e-06	0.00018183	4.5145	0.873347	0.870637	-0.0687423	4.74743	1.81076	1.80455	-0.149865	1.06275	-0.092314	1.06675	-4.96444	-14.692	169.139	169.776	-94.9644	0.0000000E+000	0.0000000E+000	0.0000000E+000	94.9644	0.0000000E+000	0.0000000E+000	0.0000000E+000	-94.9644	0.0000000E+000	0.0000000E+000	0.0000000E+000	4.96444	0.0000000E+000	0.0000000E+000	0.0000000E+000	-4.96444	11.5123	85.0356	2.65696e-05	8.43667e-05	7.95888e-11	8.43666e-05	3.82488	173406	0.163586	173406
251206	0.684822	0.197416	0.712709	-16.0809	4.99252	3.82347	-0.0420567	3.20928	0.246234	1	9	0.00176948	0.00248275	0	8.93143e-06	-0.000187491	3.97462e-05	75.4071	0.0160089	0.00403343	-0.0154925	-14.7938	0.712473	0.688855	0.181923	1.3482	0.388649	1.4031	16.0809	246.234	854.167	888.95	-73.9191	0.0000000E+000	0.0000000E+000	0.0000000E+000	73.9191	0.0000000E+000	0.0000000E+000	0.0000000E+000	-73.9191	0.0000000E+000	0.0000000E+000	0.0000000E+000	-16.0809	0.0000000E+000	0.0000000E+000	0.0000000E+000	16.0809	3.46893	73.9191	-4.21101e-06	-0.000160802	7.88526e-09	-0.00016081	3.82366	90912.3	4.45806	90916.8
63093.8	0.992613	0.533803	1.12704	-28.2703	7.29255	3.82338	-0.0327695	4.72555	1.06007	1	9	0.00533607	0.00473458	0	1.36024e-05	0.000156488	1.78514e-05	84.6564	0.00377043	0.00035113	-0.00375404	-28.0935	1.12558	0.992964	0.530049	0.781446	0.420243	0.887278	28.2703	1060.07	1971.21	2238.17	-61.7297	0.0000000E+000	0.0000000E+000	0.0000000E+000	61.7297	0.0000000E+000	0.0000000E+000	0.0000000E+000	-61.7297	0.0000000E+000	0.0000000E+000	0.0000000E+000	-28.2703	0.0000000E+000	0.0000000E+000	0.0000000E+000	28.2703	1.85951	61.7297	6.73101e-07	-0.00012529	-5.12804e-09	-0.000125285	3.82322	116675	4.77541	116670
15847.7	1.57226	0.98452	1.85507	-32.0541	9.59453	3.82338	-0.020275	10.2007	2.87316	1	9	0.0045233	0.00243835	0	3.28867e-06	0.000156488	9.00396e-06	-130.515	0.00369265	-0.00239892	0.00280728	-32.1669	1.85453	1.56986	0.987327	0.456882	0.286092	0.539064	32.0541	2873.16	4588.37	5413.71	-57.9459	0.0000000E+000	0.0000000E+000	0.0000000E+000	57.9459	0.0000000E+000	0.0000000E+000	0.0000000E+000	-57.9459	0.0000000E+000	0.0000000E+000	0.0000000E+000	-32.0541	0.0000000E+000	0.0000000E+000	0.0000000E+000	32.0541	1.59698	57.9459	1.33917e-06	-7.75191e-05	-3.1728e-09	-7.7516e-05	3.82322	188576	7.71825	188568
3983.6	2.56028	1.67243	3.05811	-33.1534	11.5671	3.82322	-0.0736475	23.8889	7.14471	1	9	0.00482433	0.00157755	0	-9.83177e-06	-0.000397701	9.61611e-06	-37.8727	0.00609559	0.00481172	0.00374214	-33.1628	3.06419	2.56509	1.67617	0.273767	0.17883	0.326999	33.1534	7144.71	10937.7	13064.4	-56.8466	0.0000000E+000	0.0000000E+000	0.0000000E+000	56.8466	0.0000000E+000	0.0000000E+000	0.0000000E+000	-56.8466	0.0000000E+000	0.0000000E+000	0.0000000E+000	-33.1534	0.0000000E+000	0.0000000E+000	0.0000000E+000	33.1534	1.53088	56.8466	-5.43444e-06	-0.000281571	2.92897e-08	-0.0002816	3.82362	51912.4	5.40006	51917.8
1000.32	4.39397	2.96041	5.2982	-33.9699	14.4408	3.82325	-0.0135465	53.744	16.7794	1	10	0.00472164	0.000891179	0	-3.13912e-05	-0.000130161	6.09973e-06	-31.848	0.00684457	0.00581412	0.00361166	-33.9671	5.30504	4.39978	2.96402	0.156531	0.105462	0.188743	33.9699	16779.4	24904.7	30029.8	-56.0301	0.0000000E+000	0.0000000E+000	0.0000000E+000	56.0301	0.0000000E+000	0.0000000E+000	0.0000000E+000	-56.0301	0.0000000E+000	0.0000000E+000	0.0000000E+000	-33.9699	0.0000000E+000	0.0000000E+000	0.0000000E+000	33.9699	1.48424	56.0302	-2.89107e-06	-5.17917e-05	1.76323e-09	-5.17934e-05	3.82338	282232	9.60849	282241
251.044	8.19841	4.15402	9.19075	-26.8707	17.141	3.82328	-0.0539108	152.616	31.1772	1	10	0.00462555	0.000503284	0	-4.49006e-05	6.09381e-05	1.24481e-05	57.415	0.0247337	0.0133204	-0.0208405	-26.7173	9.19324	8.21173	4.13318	0.0970572	0.0491776	0.108805	26.8707	31177.2	61531.5	68979.3	-63.1293	0.0000000E+000	0.0000000E+000	0.0000000E+000	63.1293	0.0000000E+000	0.0000000E+000	0.0000000E+000	-63.1293	0.0000000E+000	0.0000000E+000	0.0000000E+000	-26.8707	0.0000000E+000	0.0000000E+000	0.0000000E+000	26.8707	1.97361	63.1293	-4.15245e-06	-0.000206116	-3.28522e-09	-0.000206112	3.82322	70918.6	1.13035	70917.5
63.0823	12.0559	2.62737	12.3389	-12.2944	19.8599	3.82326	-0.0131138	960.266	43.5396	1	10	0.00460885	0.000373524	0	-5.77934e-05	-0.000416811	1.06434e-05	46.2638	0.0284945	0.0196994	-0.0205882	-12.1816	12.3537	12.0756	2.60678	0.0791862	0.0172572	0.0810448	12.2944	43539.6	199785	204474	-77.7056	0.0000000E+000	0.0000000E+000	0.0000000E+000	77.7056	0.0000000E+000	0.0000000E+000	0.0000000E+000	-77.7056	0.0000000E+000	0.0000000E+000	0.0000000E+000	-12.2944	0.0000000E+000	0.0000000E+000	0.0000000E+000	12.2944	4.58858	77.7056	-1.55561e-06	-5.01376e-05	5.46599e-09	-5.01431e-05	3.82368	291544	31.7841	291576
15.8576	13.3374	0.920601	13.3691	-3.94853	22.5181	3.82328	-0.0410305	10902.1	51.695	1	10	0.00462359	0.000345841	0	-7.12519e-05	-0.000187491	1.45428e-05	-12.1663	0.0420506	0.0411061	0.00886219	-3.97421	13.4107	13.3785	0.929463	0.0746217	0.00515069	0.0747992	3.94853	51695	748942	750724	-86.0515	0.0000000E+000	0.0000000E+000	0.0000000E+000	86.0515	0.0000000E+000	0.0000000E+000	0.0000000E+000	-86.0515	0.0000000E+000	0.0000000E+000	0.0000000E+000	-3.94853	0.0000000E+000	0.0000000E+000	0.0000000E+000	3.94853	14.4877	86.0515	-3.41204e-06	-0.000156871	7.69286e-09	-0.000156879	3.82346	93181.4	4.56956	93186
3.97785	13.7467	0.601802	13.7598	-2.50669	25.7144	3.82331	0.0053542	66484.1	127.174	1	11	0.00462029	0.000335781	0	-6.83468e-05	-7.28316e-05	5.34552e-06	6.88833	0.0159197	0.0158048	-0.00190932	-2.49589	13.7755	13.7625	0.599892	0.0726058	0.00317854	0.0726753	2.50669	127174	2.90498e+06	2.90776e+06	-87.4933	0.0000000E+000	0.0000000E+000	0.0000000E+000	87.4933	0.0000000E+000	0.0000000E+000	0.0000000E+000	-87.4933	0.0000000E+000	0.0000000E+000	0.0000000E+000	-2.50669	0.0000000E+000	0.0000000E+000	0.0000000E+000	2.50669	22.8425	87.4933	-1.77032e-06	2.04708e-05	-3.89955e-10	2.04712e-05	3.82338	714077	13.6027	714090
1.00469	14.0544	0.73901	14.0738	-3.00997	240.529	3.82327	-0.00363512	214356	591.039	1	11	0.00506109	0.000359611	0	-0.0014513	-5.37216e-05	4.92375e-07	-5.80929	0.00136919	0.00136216	0.000138586	-3.01024	14.0751	14.0557	0.739149	0.0709561	0.00373104	0.0710542	3.00997	591039	1.12403e+07	1.12558e+07	-86.99	0.0000000E+000	0.0000000E+000	0.0000000E+000	86.99	0.0000000E+000	0.0000000E+000	0.0000000E+000	-86.99	0.0000000E+000	0.0000000E+000	0.0000000E+000	-3.00997	0.0000000E+000	0.0000000E+000	0.0000000E+000	3.00997	19.0178	86.99	-0.00137963	-1.3898e-05	1.95284e-10	-1.38982e-05	3.82333	1.05176e+06	14.7785	1.05178e+06
0.251173	14.7376	1.38568	14.8026	-5.37136	240.531	3.82327	-0.00363512	457281	4007.14	1	11	0.00508717	0.000343667	0	-0.0014513	-5.37216e-05	5.00606e-07	10.1986	0.00145666	0.00143364	-0.000257917	-5.36985	14.804	14.739	1.38542	0.0672591	0.00632394	0.0675557	5.37136	4.00713e+06	4.26184e+07	4.28064e+07	-84.6286	0.0000000E+000	0.0000000E+000	0.0000000E+000	84.6286	0.0000000E+000	0.0000000E+000	0.0000000E+000	-84.6286	0.0000000E+000	0.0000000E+000	0.0000000E+000	-5.37136	0.0000000E+000	0.0000000E+000	0.0000000E+000	5.37136	10.6356	84.6286	0.000000000000000E+000	-1.3898e-05	1.95284e-10	-1.38982e-05	3.82333	1.05176e+06	14.7785	1.05178e+06
0.0602816	16.2575	2.5785	16.4607	-9.01225	240.533	3.82327	-0.00363512	1.02392e+06	25124.9	1	11	0.00508036	0.000308635	0	-0.0014513	-5.37216e-05	5.11539e-07	-24.2101	0.00165742	0.00151165	0.000679684	-9.01376	16.4623	16.259	2.57918	0.0600006	0.00951631	0.0607506	9.01225	2.51249e+07	1.58413e+08	1.60393e+08	-80.9878	0.0000000E+000	0.0000000E+000	0.0000000E+000	80.9878	0.0000000E+000	0.0000000E+000	0.0000000E+000	-80.9878	0.0000000E+000	0.0000000E+000	0.0000000E+000	-9.01225	0.0000000E+000	0.0000000E+000	0.0000000E+000	9.01225	6.30503	80.9878	0.000000000000000E+000	-1.3898e-05	1.95284e-10	-1.38982e-05	3.82333	1.05176e+06	14.7785	1.05178e+06
0.00796479	21.4786	4.3683	21.9183	-11.496	20329.4	3.82327	-0.00153611	4.57439e+06	181696	1	11	0.005072	0.000231405	0	-0.0273626	-0.000187491	6.65089e-07	7.81247	0.00287413	0.00284746	-0.000390684	-11.4935	21.921	21.4814	4.36791	0.0447087	0.00909284	0.045624	11.496	1.81696e+08	8.93384e+08	9.11674e+08	-78.504	0.0000000E+000	0.0000000E+000	0.0000000E+000	78.504	0.0000000E+000	0.0000000E+000	0.0000000E+000	-78.504	0.0000000E+000	0.0000000E+000	0.0000000E+000	-11.496	0.0000000E+000	0.0000000E+000	0.0000000E+000	11.496	4.91692	78.504	-0.0259113	-5.87298e-06	2.88008e-10	-5.87327e-06	3.82346	2.48893e+06	122.056	2.48905e+06
0.0019912	24.6773	6.93448	25.6331	-15.6957	20329.4	3.82327	-0.00153611	1.15264e+07	843566	1	11	0.00508695	0.000198453	0	-0.0273626	-0.000187491	7.32697e-07	4.96163	0.00369205	0.00367821	-0.00031932	-15.6928	25.6365	24.6809	6.93416	0.0375574	0.0105539	0.0390121	15.6957	8.43566e+08	3.00194e+09	3.11821e+09	-74.3043	0.0000000E+000	0.0000000E+000	0.0000000E+000	74.3043	0.0000000E+000	0.0000000E+000	0.0000000E+000	-74.3043	0.0000000E+000	0.0000000E+000	0.0000000E+000	-15.6957	0.0000000E+000	0.0000000E+000	0.0000000E+000	15.6957	3.55863	74.3043	0.000000000000000E+000	-5.87298e-06	2.88008e-10	-5.87327e-06	3.82346	2.48893e+06	122.056	2.48905e+06
0.000497799	26.1184	17.8817	31.6532	-34.3972	20329.4	3.82327	-0.00153611	1.78795e+07	5.7061e+06	1	11	0.00508632	0.000160689	0	-0.0273626	-0.000187491	1.18813e-06	-27.2647	0.00739399	0.00657251	0.0033872	-34.3955	31.6606	26.125	17.8851	0.0260682	0.0178473	0.0315923	34.3972	5.7061e+09	8.33444e+09	1.01006e+10	-55.6028	0.0000000E+000	0.0000000E+000	0.0000000E+000	55.6028	0.0000000E+000	0.0000000E+000	0.0000000E+000	-55.6028	0.0000000E+000	0.0000000E+000	0.0000000E+000	-34.3972	0.0000000E+000	0.0000000E+000	0.0000000E+000	34.3972	1.46062	55.6028	0.000000000000000E+000	-5.87298e-06	2.88008e-10	-5.87327e-06	3.82346	2.48893e+06	122.056	2.48905e+06
9.95598e-05	33.8179	93.1759	99.1232	-70.0518	20329.5	3.82327	-0.00153611	1.71566e+07	1.51597e+07	1	11	0.00508929	5.13431e-05	0	-0.0273626	-0.000187491	5.60442e-06	7.4728	0.109156	0.108229	-0.0141964	-69.9902	99.1468	33.9262	93.1617	0.00344189	0.00948316	0.0100885	70.0518	1.51596e+10	5.50215e+09	1.61273e+10	-19.9482	0.0000000E+000	0.0000000E+000	0.0000000E+000	19.9482	0.0000000E+000	0.0000000E+000	0.0000000E+000	-19.9482	0.0000000E+000	0.0000000E+000	0.0000000E+000	-70.0518	0.0000000E+000	0.0000000E+000	0.0000000E+000	70.0518	0.362947	19.9482	0.000000000000000E+000	-5.87298e-06	2.88008e-10	-5.87327e-06	3.82346	2.48893e+06	122.056	2.48905e+06