File: txt/18445_R297_UC61_11mm_SOC50_C05.mpt
EC-Lab ASCII FILE
Nb header lines : 65

Potentio Electrochemical Impedance Spectroscopy

Run on channel : 5 (SN 65912)
User :
CE vs. WE compliance from -10 V to 10 V
Electrode connection : standard
Potential control : Ewe
Ewe ctrl range : min = -10.00 V, max = 10.00 V
Safety Limits :
	Do not start on E overload
Acquisition started on : 10/16/2025 15:32:51.809
Technique started on : 10/16/2025 15:32:54.504
Loaded Setting File :  C:\Users\Celltest\OneDrive - store-dot.com\Documents\EC-Lab\Data\txt_done\UC80_17231_EIS_50SOC.mps
Saved on :
	File : 18445_R297_UC61_11mm_SOC50_C05.mpr
	Directory : C:\Users\Celltest\OneDrive - store-dot.com\Documents\EC-Lab\Data\Michael\
	Host : 169.254.61.224
Device : VMP-3e (SN .003165)
Address : USB
EC-LAB for windows v11.62 (software)
Internet server v27.00 (firmware)
Command interpretor v12.03 (firmware)
Electrode material :
Initial state :
Electrolyte :
Comments :
Electrode surface area : 0.001 cm²
Characteristic mass : 0.001 g
Equivalent Weight : 0.000 g/eq.
Density : 0.000 g/cm3
Volume (V) : 0.001 cm³
Record Ece
Cycle Definition : Charge/Discharge alternance
Mode                Multi sine
E (V)               0.0000
vs.                 Eoc
tE (h:m:s)          0:00:0.0000
record              0
dI                  0.000
unit dI             mA
dt (s)              0.000
fi                  1.000
unit fi             MHz
ff                  0.100
unit ff             mHz
Nd                  10
Points              per decade
spacing             Logarithmic
Va (mV)             5.0
pw                  0.10
Na                  2
corr                0
E range min (V)     -10.000
E range max (V)     10.000
I Range             Auto
Bandwidth           5
nc cycles           0
goto Ns'            0
nr cycles           0
inc. cycle          0

freq/Hz	Re(Z)/Ohm	-Im(Z)/Ohm	|Z|/Ohm	Phase(Z)/deg	time/s	<Ewe>/V	<I>/mA	Cs/µF	Cp/µF	cycle number	I Range	|Ewe|/V	|I|/A	Ns	(Q-Qo)/mA.h	<Ece>/V	|Ece|/V	Phase(Zce)/deg	|Zce|/Ohm	Re(Zce)/Ohm	-Im(Zce)/Ohm	Phase(Zwe-ce)/deg	|Zwe-ce|/Ohm	Re(Zwe-ce)/Ohm	-Im(Zwe-ce)/Ohm	Re(Y)/Ohm-1	Im(Y)/Ohm-1	|Y|/Ohm-1	Phase(Y)/deg	Re(C)/nF	Im(C)/nF	|C|/nF	Phase(C)/deg	Re(M)	Im(M)	|M|	Phase(M)/deg	Re(Permittivity)	Im(Permittivity)	|Permittivity|	Phase(Permittivity)/deg	Re(Resistivity)/Ohm.cm	Im(Resistivity)/Ohm.cm	|Resistivity|/Ohm.cm	Phase(Resistivity)/deg	Re(Conductivity)/mS/cm	Im(Conductivity)/mS/cm	|Conductivity|/mS/cm	Phase(Conductivity)/deg	Tan(Delta)	Loss Angle(Delta)/deg	dq/mA.h	Pwe/W	Pce/W	Pwe-ce/W	<Ewe-Ece>/V	Rwe/Ohm	Rce/Ohm	Rwe-ce/Ohm		Ewe-Ece/V
1.00002e+06	0.950612	-0.168826	0.965487	10.0706	2.69453	3.82538	0.0497308	-0.9427	-0.0288242	1	9	0.00021181	0.000219382	0	1.55344e-05	5.39982e-05	0.0001835	0.454412	0.836441	0.836415	-0.00663374	5.60762	1.79562	1.78703	-0.17546	1.01979	-0.181111	1.03575	-10.0706	-28.8243	162.301	164.841	-100.071	0.0000000E+000	0.0000000E+000	0.0000000E+000	100.071	0.0000000E+000	0.0000000E+000	0.0000000E+000	-100.071	0.0000000E+000	0.0000000E+000	0.0000000E+000	10.0706	0.0000000E+000	0.0000000E+000	0.0000000E+000	-10.0706	5.63073	79.9294	1.55344e-05	0.000190239	2.68537e-09	0.000190237	3.82533	76921.8	1.08581	76920.7
251206	0.756895	0.249535	0.796967	-18.2465	4.99456	3.82377	-0.055844	2.53898	0.248909	1	9	0.0021778	0.0027326	0	1.09421e-06	-7.96403e-05	5.50722e-05	100.66	0.0201538	-0.00372793	-0.019806	-16.9626	0.787423	0.753167	0.229729	1.19167	0.392871	1.25476	18.2465	248.909	754.995	794.967	-71.7535	0.0000000E+000	0.0000000E+000	0.0000000E+000	71.7535	0.0000000E+000	0.0000000E+000	0.0000000E+000	-71.7535	0.0000000E+000	0.0000000E+000	0.0000000E+000	-18.2465	0.0000000E+000	0.0000000E+000	0.0000000E+000	18.2465	3.03322	71.7535	-4.08426e-06	-0.000213535	4.44743e-09	-0.000213539	3.82385	68472.4	1.42612	68473.9
63093.8	1.11002	0.607278	1.26528	-28.6826	7.29454	3.82351	-0.0369261	4.1538	0.956864	1	9	0.00536401	0.0042394	0	-3.01291e-05	0.000111272	2.24517e-05	71.2325	0.00529597	0.00170386	-0.00501439	-28.4462	1.26437	1.11172	0.602263	0.693361	0.37933	0.790342	28.6826	956.865	1749.01	1993.65	-61.3174	0.0000000E+000	0.0000000E+000	0.0000000E+000	61.3174	0.0000000E+000	0.0000000E+000	0.0000000E+000	-61.3174	0.0000000E+000	0.0000000E+000	0.0000000E+000	-28.6826	0.0000000E+000	0.0000000E+000	0.0000000E+000	28.6826	1.82786	61.3174	-1.06946e-05	-0.000141187	-4.10884e-09	-0.000141183	3.8234	103545	3.01336	103542
15847.7	1.76078	1.16337	2.1104	-33.4533	9.71856	3.82349	-0.0297389	8.63247	2.62328	1	9	0.00497783	0.00235872	0	-4.67934e-05	7.30894e-05	6.54459e-06	1.95577	0.00277464	0.00277302	-9.4693e-05	-33.4097	2.11266	1.76355	1.16328	0.395344	0.26121	0.473844	33.4533	2623.28	3970.36	4758.71	-56.5467	0.0000000E+000	0.0000000E+000	0.0000000E+000	56.5467	0.0000000E+000	0.0000000E+000	0.0000000E+000	-56.5467	0.0000000E+000	0.0000000E+000	0.0000000E+000	-33.4533	0.0000000E+000	0.0000000E+000	0.0000000E+000	33.4533	1.51351	56.5467	-3.36373e-06	-0.000113706	-2.1736e-09	-0.000113704	3.82342	128569	2.4577	128566
3983.6	3.01822	2.0549	3.65134	-34.2482	11.5651	3.82331	-0.123583	19.4426	6.15786	1	9	0.00464886	0.00127319	0	-6.70308e-05	-0.000117823	1.12678e-05	-32.3822	0.00885	0.00747377	0.00473975	-34.2437	3.66018	3.0257	2.05964	0.226385	0.15413	0.273872	34.2482	6157.86	9044.65	10941.9	-55.7518	0.0000000E+000	0.0000000E+000	0.0000000E+000	55.7518	0.0000000E+000	0.0000000E+000	0.0000000E+000	-55.7518	0.0000000E+000	0.0000000E+000	0.0000000E+000	-34.2482	0.0000000E+000	0.0000000E+000	0.0000000E+000	34.2482	1.4688	55.7518	-9.5396e-06	-0.000472498	1.45609e-08	-0.000472512	3.82343	30937.2	0.953388	30938.1
1000.32	5.28221	3.46683	6.31828	-33.2778	14.4028	3.8234	-0.0299346	45.8932	13.8171	1	10	0.00458103	0.000725044	0	-9.50985e-05	-0.000251461	2.48205e-06	9.43681	0.00342332	0.00337699	-0.000561286	-33.2567	6.3208	5.28559	3.46627	0.132318	0.0868431	0.158271	33.2778	13817.1	21052.3	25181.5	-56.7222	0.0000000E+000	0.0000000E+000	0.0000000E+000	56.7222	0.0000000E+000	0.0000000E+000	0.0000000E+000	-56.7222	0.0000000E+000	0.0000000E+000	0.0000000E+000	-33.2778	0.0000000E+000	0.0000000E+000	0.0000000E+000	33.2778	1.52364	56.7222	-3.09961e-06	-0.000114452	7.5274e-09	-0.00011446	3.82365	127725	8.40034	127733
251.044	9.62323	4.50647	10.6261	-25.0933	17.103	3.82341	-0.0286575	140.68	25.302	1	10	0.0045107	0.000424491	0	-0.000115756	-0.000136914	1.50766e-05	-47.4499	0.035517	0.0240178	0.0261649	-25.1659	10.659	9.64725	4.53264	0.0852255	0.0399104	0.0941075	25.0933	25302	54030.6	59661.5	-64.9067	0.0000000E+000	0.0000000E+000	0.0000000E+000	64.9067	0.0000000E+000	0.0000000E+000	0.0000000E+000	-64.9067	0.0000000E+000	0.0000000E+000	0.0000000E+000	-25.0933	0.0000000E+000	0.0000000E+000	0.0000000E+000	25.0933	2.13542	64.9067	-3.41088e-06	-0.000109569	3.92361e-09	-0.000109573	3.82354	133417	4.77759	133422
63.0823	13.5751	2.77528	13.8559	-11.5543	20.0369	3.82341	-0.024316	909.087	36.4711	1	10	0.00499868	0.000360761	0	-0.00013608	0.000111272	6.09617e-06	25.2925	0.0168981	0.0152782	-0.00721951	-11.5124	13.8694	13.5904	2.76806	0.0707088	0.0144556	0.0721713	11.5543	36471.1	178396	182086	-78.4457	0.0000000E+000	0.0000000E+000	0.0000000E+000	78.4457	0.0000000E+000	0.0000000E+000	0.0000000E+000	-78.4457	0.0000000E+000	0.0000000E+000	0.0000000E+000	-11.5543	0.0000000E+000	0.0000000E+000	0.0000000E+000	11.5543	4.89144	78.4457	-2.79018e-06	-9.29701e-05	-2.70569e-09	-9.29674e-05	3.8233	157238	4.57607	157234
15.8576	14.8265	1.16463	14.8722	-4.49138	22.93	3.82344	-0.0179133	8617.78	52.847	1	11	0.00499364	0.00033577	0	-0.000159232	0.000149454	1.81822e-05	-45.1405	0.0541508	0.0381964	0.0383842	-4.62691	14.9133	14.8647	1.20301	0.0670331	0.00526547	0.0672395	4.49138	52847	672779	674851	-85.5086	0.0000000E+000	0.0000000E+000	0.0000000E+000	85.5086	0.0000000E+000	0.0000000E+000	0.0000000E+000	-85.5086	0.0000000E+000	0.0000000E+000	0.0000000E+000	-4.49138	0.0000000E+000	0.0000000E+000	0.0000000E+000	4.49138	12.7307	85.5086	-6.44675e-06	-6.84904e-05	-2.67722e-09	-6.84877e-05	3.82329	213442	8.34322	213434
3.97785	15.2893	0.723886	15.3064	-2.71069	25.8413	3.82345	-0.016507	55271.5	123.621	1	11	0.0050005	0.000326692	0	-0.000169791	-0.000251461	5.68515e-06	-40.705	0.0174021	0.0131922	0.0113491	-2.75076	15.3202	15.3025	0.735235	0.0652589	0.00308974	0.065332	2.71069	123621	2.61102e+06	2.61395e+06	-87.2893	0.0000000E+000	0.0000000E+000	0.0000000E+000	87.2893	0.0000000E+000	0.0000000E+000	0.0000000E+000	-87.2893	0.0000000E+000	0.0000000E+000	0.0000000E+000	-2.71069	0.0000000E+000	0.0000000E+000	0.0000000E+000	2.71069	21.1212	87.2893	-2.17236e-06	-6.31138e-05	4.15088e-09	-6.3118e-05	3.8237	231626	15.2336	231641
1.00469	15.6897	0.863159	15.7134	-3.14892	240.654	3.82343	-0.0156346	183525	553.78	1	11	0.00507559	0.000323011	0	-0.00228284	-6.05491e-05	7.06987e-07	10.5263	0.00218874	0.00215191	-0.000399856	-3.14704	15.7155	15.6918	0.862759	0.0635439	0.00349583	0.06364	3.14892	553780	1.00661e+07	1.00813e+07	-86.8511	0.0000000E+000	0.0000000E+000	0.0000000E+000	86.8511	0.0000000E+000	0.0000000E+000	0.0000000E+000	-86.8511	0.0000000E+000	0.0000000E+000	0.0000000E+000	-3.14892	0.0000000E+000	0.0000000E+000	0.0000000E+000	3.14892	18.177	86.8511	-0.00209599	-5.97777e-05	9.46659e-10	-5.97786e-05	3.82349	244550	3.87277	244554
0.251173	16.5163	1.65934	16.5994	-5.73708	240.655	3.82343	-0.0156346	381867	3815.89	1	11	0.00510507	0.000307546	0	-0.00228284	-6.05491e-05	5.16575e-07	5.92916	0.00167967	0.00167068	-0.000173508	-5.7359	16.601	16.5179	1.65916	0.0599414	0.00602212	0.0602431	5.73708	3.81589e+06	3.79816e+07	3.81728e+07	-84.2629	0.0000000E+000	0.0000000E+000	0.0000000E+000	84.2629	0.0000000E+000	0.0000000E+000	0.0000000E+000	-84.2629	0.0000000E+000	0.0000000E+000	0.0000000E+000	-5.73708	0.0000000E+000	0.0000000E+000	0.0000000E+000	5.73708	9.95353	84.2629	0.000000000000000E+000	-5.97777e-05	9.46659e-10	-5.97786e-05	3.82349	244550	3.87277	244554
0.0602816	18.2825	2.98243	18.5241	-9.26509	240.657	3.82343	-0.0156346	885248	22947.2	1	11	0.00509417	0.000275002	0	-0.00228284	-6.05491e-05	7.19941e-07	-3.23341	0.00261795	0.00261378	0.000147662	-9.26424	18.5267	18.2851	2.98258	0.0532794	0.00869151	0.0539837	9.26509	2.29472e+07	1.40668e+08	1.42527e+08	-80.7349	0.0000000E+000	0.0000000E+000	0.0000000E+000	80.7349	0.0000000E+000	0.0000000E+000	0.0000000E+000	-80.7349	0.0000000E+000	0.0000000E+000	0.0000000E+000	-9.26509	0.0000000E+000	0.0000000E+000	0.0000000E+000	9.26509	6.13006	80.7349	0.000000000000000E+000	-5.97777e-05	9.46659e-10	-5.97786e-05	3.82349	244550	3.87277	244554
0.00796479	24.6405	4.94015	25.1308	-11.3369	20329.6	3.82344	-0.00179536	4.04488e+06	156305	1	11	0.00508831	0.000202473	0	-0.0279616	9.21806e-05	3.94425e-07	-159.429	0.00194804	-0.00182383	0.000684482	-11.3392	25.1291	24.6386	4.94084	0.0390154	0.00782218	0.0397918	11.3369	1.56305e+08	7.79618e+08	7.95133e+08	-78.6631	0.0000000E+000	0.0000000E+000	0.0000000E+000	78.6631	0.0000000E+000	0.0000000E+000	0.0000000E+000	-78.6631	0.0000000E+000	0.0000000E+000	0.0000000E+000	-11.3369	0.0000000E+000	0.0000000E+000	0.0000000E+000	11.3369	4.98779	78.6631	-0.0256787	-6.86448e-06	-1.65498e-10	-6.86431e-06	3.82335	2.12962e+06	51.3437	2.12957e+06
0.0019912	28.1772	7.46946	29.1504	-14.847	20329.6	3.82344	-0.00179536	1.07008e+07	702595	1	11	0.00510129	0.000174999	0	-0.0279616	9.21806e-05	5.30345e-07	-93.3172	0.00303056	-0.00017536	0.00302549	-14.8528	29.151	28.177	7.47248	0.0331595	0.0087902	0.0343048	14.847	7.02595e+08	2.65041e+09	2.74196e+09	-75.153	0.0000000E+000	0.0000000E+000	0.0000000E+000	75.153	0.0000000E+000	0.0000000E+000	0.0000000E+000	-75.153	0.0000000E+000	0.0000000E+000	0.0000000E+000	-14.847	0.0000000E+000	0.0000000E+000	0.0000000E+000	14.847	3.77232	75.153	0.000000000000000E+000	-6.86448e-06	-1.65498e-10	-6.86431e-06	3.82335	2.12962e+06	51.3437	2.12957e+06
0.000497799	30.1044	18.6176	35.3961	-31.7341	20329.6	3.82344	-0.00179536	1.71729e+07	4.75092e+06	1	11	0.00510049	0.000144097	0	-0.0279616	9.21806e-05	9.22211e-07	-135.952	0.00639991	-0.00459996	0.00444964	-31.7441	35.3946	30.0998	18.622	0.024028	0.0148598	0.0282517	31.7341	4.75092e+09	7.68216e+09	9.03255e+09	-58.2659	0.0000000E+000	0.0000000E+000	0.0000000E+000	58.2659	0.0000000E+000	0.0000000E+000	0.0000000E+000	-58.2659	0.0000000E+000	0.0000000E+000	0.0000000E+000	-31.7341	0.0000000E+000	0.0000000E+000	0.0000000E+000	31.7341	1.61698	58.2659	0.000000000000000E+000	-6.86448e-06	-1.65498e-10	-6.86431e-06	3.82335	2.12962e+06	51.3437	2.12957e+06
9.95598e-05	39.4108	93.2065	101.196	-67.0798	20329.6	3.82344	-0.00179536	1.7151e+07	1.45497e+07	1	11	0.00510308	5.04276e-05	0	-0.0279616	9.21806e-05	1.297e-06	112.348	0.0257201	-0.00977952	-0.0237884	-67.0796	101.17	39.401	93.1827	0.00384846	0.00910161	0.0098818	67.0798	1.45497e+10	6.15209e+09	1.57969e+10	-22.9202	0.0000000E+000	0.0000000E+000	0.0000000E+000	22.9202	0.0000000E+000	0.0000000E+000	0.0000000E+000	-22.9202	0.0000000E+000	0.0000000E+000	0.0000000E+000	-67.0798	0.0000000E+000	0.0000000E+000	0.0000000E+000	67.0798	0.422833	22.9203	0.000000000000000E+000	-6.86448e-06	-1.65498e-10	-6.86431e-06	3.82335	2.12962e+06	51.3437	2.12957e+06