File: txt/18443_R297_UC61_11mm_SOC50_C03.mpt
EC-Lab ASCII FILE
Nb header lines : 65

Potentio Electrochemical Impedance Spectroscopy

Run on channel : 3 (SN 65921)
User :
CE vs. WE compliance from -10 V to 10 V
Electrode connection : standard
Potential control : Ewe
Ewe ctrl range : min = -10.00 V, max = 10.00 V
Safety Limits :
	Do not start on E overload
Acquisition started on : 10/16/2025 15:32:17.177
Technique started on : 10/16/2025 15:32:19.412
Loaded Setting File :  C:\Users\Celltest\OneDrive - store-dot.com\Documents\EC-Lab\Data\txt_done\UC80_17231_EIS_50SOC.mps
Saved on :
	File : 18443_R297_UC61_11mm_SOC50_C03.mpr
	Directory : C:\Users\Celltest\OneDrive - store-dot.com\Documents\EC-Lab\Data\Michael\
	Host : 169.254.61.224
Device : VMP-3e (SN .003165)
Address : USB
EC-LAB for windows v11.62 (software)
Internet server v27.00 (firmware)
Command interpretor v12.03 (firmware)
Electrode material :
Initial state :
Electrolyte :
Comments :
Electrode surface area : 0.001 cm²
Characteristic mass : 0.001 g
Equivalent Weight : 0.000 g/eq.
Density : 0.000 g/cm3
Volume (V) : 0.001 cm³
Record Ece
Cycle Definition : Charge/Discharge alternance
Mode                Multi sine
E (V)               0.0000
vs.                 Eoc
tE (h:m:s)          0:00:0.0000
record              0
dI                  0.000
unit dI             mA
dt (s)              0.000
fi                  1.000
unit fi             MHz
ff                  0.100
unit ff             mHz
Nd                  10
Points              per decade
spacing             Logarithmic
Va (mV)             5.0
pw                  0.10
Na                  2
corr                0
E range min (V)     -10.000
E range max (V)     10.000
I Range             Auto
Bandwidth           5
nc cycles           0
goto Ns'            0
nr cycles           0
inc. cycle          0

freq/Hz	Re(Z)/Ohm	-Im(Z)/Ohm	|Z|/Ohm	Phase(Z)/deg	time/s	<Ewe>/V	<I>/mA	Cs/µF	Cp/µF	cycle number	I Range	|Ewe|/V	|I|/A	Ns	(Q-Qo)/mA.h	<Ece>/V	|Ece|/V	Phase(Zce)/deg	|Zce|/Ohm	Re(Zce)/Ohm	-Im(Zce)/Ohm	Phase(Zwe-ce)/deg	|Zwe-ce|/Ohm	Re(Zwe-ce)/Ohm	-Im(Zwe-ce)/Ohm	Re(Y)/Ohm-1	Im(Y)/Ohm-1	|Y|/Ohm-1	Phase(Y)/deg	Re(C)/nF	Im(C)/nF	|C|/nF	Phase(C)/deg	Re(M)	Im(M)	|M|	Phase(M)/deg	Re(Permittivity)	Im(Permittivity)	|Permittivity|	Phase(Permittivity)/deg	Re(Resistivity)/Ohm.cm	Im(Resistivity)/Ohm.cm	|Resistivity|/Ohm.cm	Phase(Resistivity)/deg	Re(Conductivity)/mS/cm	Im(Conductivity)/mS/cm	|Conductivity|/mS/cm	Phase(Conductivity)/deg	Tan(Delta)	Loss Angle(Delta)/deg	dq/mA.h	Pwe/W	Pce/W	Pwe-ce/W	<Ewe-Ece>/V	Rwe/Ohm	Rce/Ohm	Rwe-ce/Ohm		Ewe-Ece/V
1.00002e+06	1.73135	2.74267	3.24343	-57.7373	2.23451	3.82396	-0.0182498	0.0580281	0.0414933	1	10	0.000226996	6.99863e-05	0	-1.81458e-05	9.13315e-05	0.000196388	-64.1659	2.8061	1.2228	2.52565	-60.719	6.04006	2.95415	5.26833	0.16458	0.260715	0.308316	57.7373	41.4933	26.1932	49.0691	-32.2627	0.0000000E+000	0.0000000E+000	0.0000000E+000	32.2627	0.0000000E+000	0.0000000E+000	0.0000000E+000	-32.2627	0.0000000E+000	0.0000000E+000	0.0000000E+000	-57.7373	0.0000000E+000	0.0000000E+000	0.0000000E+000	57.7373	0.631263	32.2627	-1.81458e-05	-6.97866e-05	-1.66678e-09	-6.97849e-05	3.82387	209535	5.00452	209530
251206	0.853529	0.260617	0.89243	-16.9795	4.93755	3.82354	-0.0333468	2.43101	0.207321	1	9	0.00232516	0.00260542	0	-3.86349e-05	-2.32329e-05	5.1884e-05	100.51	0.0199139	-0.00363259	-0.0195798	-15.8337	0.883415	0.849896	0.241037	1.07169	0.32723	1.12054	16.9795	207.321	678.983	709.93	-73.0205	0.0000000E+000	0.0000000E+000	0.0000000E+000	73.0205	0.0000000E+000	0.0000000E+000	0.0000000E+000	-73.0205	0.0000000E+000	0.0000000E+000	0.0000000E+000	-16.9795	0.0000000E+000	0.0000000E+000	0.0000000E+000	16.9795	3.27503	73.0205	-3.7918e-06	-0.000127503	7.74743e-10	-0.000127504	3.82356	114660	0.696704	114660
63093.8	1.20844	0.605575	1.35169	-26.6164	7.23552	3.82347	-0.00548854	4.16548	0.836084	1	9	0.00537423	0.00397595	0	-4.41082e-05	-0.000328738	2.84641e-05	61.5755	0.00715908	0.00340772	-0.00629602	-26.3131	1.35193	1.21185	0.599279	0.661416	0.331449	0.739817	26.6164	836.084	1668.43	1866.2	-63.3836	0.0000000E+000	0.0000000E+000	0.0000000E+000	63.3836	0.0000000E+000	0.0000000E+000	0.0000000E+000	-63.3836	0.0000000E+000	0.0000000E+000	0.0000000E+000	-26.6164	0.0000000E+000	0.0000000E+000	0.0000000E+000	26.6164	1.99553	63.3836	-1.09266e-05	-2.09853e-05	1.80429e-09	-2.09871e-05	3.8238	696627	59.8953	696686
15847.7	1.84273	1.14046	2.16709	-31.7532	9.53552	3.82345	-0.0101503	8.80595	2.43881	1	9	0.00499343	0.00230421	0	-4.37553e-05	-4.23269e-05	7.54362e-06	-140.56	0.00327385	-0.00252836	0.00207977	-31.8351	2.16604	1.8402	1.14254	0.39238	0.242842	0.461448	31.7532	2438.81	3940.59	4634.23	-58.2468	0.0000000E+000	0.0000000E+000	0.0000000E+000	58.2468	0.0000000E+000	0.0000000E+000	0.0000000E+000	-58.2468	0.0000000E+000	0.0000000E+000	0.0000000E+000	-31.7532	0.0000000E+000	0.0000000E+000	0.0000000E+000	31.7532	1.61578	58.2468	-9.03674e-07	-3.8809e-05	4.2963e-10	-3.88094e-05	3.82349	376684	4.17003	376689
3983.6	3.06478	2.03273	3.67761	-33.5546	11.3861	3.82327	-0.0862292	19.6546	6.00471	1	9	0.00465521	0.00126582	0	-5.40668e-05	-0.000156891	4.87812e-06	-24.5654	0.00385371	0.0035049	0.00160211	-33.5452	3.68142	3.06828	2.03433	0.226603	0.150296	0.271915	33.5546	6004.71	9053.38	10863.7	-56.4454	0.0000000E+000	0.0000000E+000	0.0000000E+000	56.4454	0.0000000E+000	0.0000000E+000	0.0000000E+000	-56.4454	0.0000000E+000	0.0000000E+000	0.0000000E+000	-33.5546	0.0000000E+000	0.0000000E+000	0.0000000E+000	33.5546	1.50771	56.4454	-7.11801e-06	-0.000329678	1.35286e-08	-0.000329691	3.82343	44338.5	1.81947	44340.3
1000.32	5.29658	3.55213	6.37742	-33.8476	14.2238	3.82338	-0.0409027	44.7911	13.8957	1	10	0.00456675	0.000716081	0	-8.8007e-05	-8.05151e-05	5.69173e-06	-108.208	0.00794845	-0.00248363	0.00755046	-33.9164	6.37956	5.2941	3.55968	0.130229	0.0873373	0.156803	33.8476	13895.7	20719.9	24948	-56.1524	0.0000000E+000	0.0000000E+000	0.0000000E+000	56.1524	0.0000000E+000	0.0000000E+000	0.0000000E+000	-56.1524	0.0000000E+000	0.0000000E+000	0.0000000E+000	-33.8476	0.0000000E+000	0.0000000E+000	0.0000000E+000	33.8476	1.4911	56.1524	-4.30769e-06	-0.000156387	3.29329e-09	-0.00015639	3.82346	93474.9	1.96845	93476.8
251.044	9.78777	4.70612	10.8604	-25.679	17.1371	3.82337	-0.0423682	134.712	25.2954	1	10	0.0048737	0.000448759	0	-0.000119665	0.000110426	6.18739e-06	-73.6231	0.0137878	0.00388753	0.0132284	-25.733	10.8696	9.79165	4.71935	0.0829838	0.0399	0.0920778	25.679	25295.4	52609.4	58374.7	-64.321	0.0000000E+000	0.0000000E+000	0.0000000E+000	64.321	0.0000000E+000	0.0000000E+000	0.0000000E+000	-64.321	0.0000000E+000	0.0000000E+000	0.0000000E+000	-25.679	0.0000000E+000	0.0000000E+000	0.0000000E+000	25.679	2.0798	64.321	-5.19414e-06	-0.000161989	-4.67853e-09	-0.000161984	3.82326	90241.4	2.60633	90238.8
63.0823	13.9865	2.88453	14.2808	-11.6531	19.858	3.82337	-0.0384529	874.658	35.6846	1	10	0.00485613	0.000340045	0	-0.000150113	0.000148614	7.72968e-06	40.3027	0.0227313	0.0173358	-0.0147032	-11.5814	14.2948	14.0038	2.86982	0.0685807	0.0141439	0.070024	11.6531	35684.6	173027	176669	-78.3469	0.0000000E+000	0.0000000E+000	0.0000000E+000	78.3469	0.0000000E+000	0.0000000E+000	0.0000000E+000	-78.3469	0.0000000E+000	0.0000000E+000	0.0000000E+000	-11.6531	0.0000000E+000	0.0000000E+000	0.0000000E+000	11.6531	4.84879	78.3469	-4.50907e-06	-0.000147019	-5.71462e-09	-0.000147014	3.82322	99429.9	3.86483	99426.1
15.8576	15.3079	1.16225	15.352	-4.34184	22.763	3.82342	-0.032604	8635.44	49.4943	1	11	0.00485155	0.000316022	0	-0.000181498	0.000110426	1.82546e-05	-85.1925	0.0577636	0.00484104	0.0575604	-4.55455	15.3612	15.3127	1.21981	0.0649513	0.00493141	0.0651383	4.34184	49494.2	651886	653762	-85.6582	0.0000000E+000	0.0000000E+000	0.0000000E+000	85.6582	0.0000000E+000	0.0000000E+000	0.0000000E+000	-85.6582	0.0000000E+000	0.0000000E+000	0.0000000E+000	-4.34184	0.0000000E+000	0.0000000E+000	0.0000000E+000	4.34184	13.1709	85.6582	-4.8338e-06	-0.000124659	-3.60032e-09	-0.000124655	3.82331	117268	3.38687	117265
3.97785	15.7525	0.713667	15.7686	-2.59402	25.6763	3.82343	-0.0302721	56062.9	114.836	1	11	0.00485659	0.00030799	0	-0.000208028	9.13315e-05	5.46049e-06	65.8778	0.0177294	0.00724573	-0.0161812	-2.53411	15.7751	15.7597	0.697486	0.063352	0.00287017	0.063417	2.59402	114836	2.53473e+06	2.53733e+06	-87.406	0.0000000E+000	0.0000000E+000	0.0000000E+000	87.406	0.0000000E+000	0.0000000E+000	0.0000000E+000	-87.406	0.0000000E+000	0.0000000E+000	0.0000000E+000	-2.59402	0.0000000E+000	0.0000000E+000	0.0000000E+000	2.59402	22.0726	87.406	-7.95508e-06	-0.000115743	-2.76479e-09	-0.00011574	3.82334	126302	3.01702	126299
1.00469	16.118	0.8412	16.1399	-2.98757	240.49	3.82341	-0.0244908	188316	511.544	1	11	0.00503815	0.000312154	0	-0.00293156	-0.000175985	5.69068e-07	1.27775	0.00182303	0.00182258	-4.0652e-05	-2.98708	16.1417	16.1198	0.84116	0.061874	0.00322921	0.0619582	2.98757	511544	9.80154e+06	9.81488e+06	-87.0124	0.0000000E+000	0.0000000E+000	0.0000000E+000	87.0124	0.0000000E+000	0.0000000E+000	0.0000000E+000	-87.0124	0.0000000E+000	0.0000000E+000	0.0000000E+000	-2.98757	0.0000000E+000	0.0000000E+000	0.0000000E+000	2.98757	19.1607	87.0124	-0.00268296	-9.36381e-05	4.31002e-09	-9.36424e-05	3.82358	156116	7.18579	156124
0.251173	16.9281	1.59814	17.0034	-5.39317	240.495	3.82341	-0.0244908	396488	3502.6	1	11	0.00506575	0.000297926	0	-0.00293156	-0.000175985	3.7034e-07	-31.7139	0.00124306	0.00105745	0.00065345	-5.39503	17.0045	16.9292	1.5988	0.0585514	0.0055277	0.0588118	5.39317	3.5026e+06	3.71008e+07	3.72658e+07	-84.6068	0.0000000E+000	0.0000000E+000	0.0000000E+000	84.6068	0.0000000E+000	0.0000000E+000	0.0000000E+000	-84.6068	0.0000000E+000	0.0000000E+000	0.0000000E+000	-5.39317	0.0000000E+000	0.0000000E+000	0.0000000E+000	5.39317	10.5924	84.6068	0.000000000000000E+000	-9.36381e-05	4.31002e-09	-9.36424e-05	3.82358	156116	7.18579	156124
0.0602816	18.6324	2.84101	18.8478	-8.66948	240.5	3.82341	-0.0244908	929314	21114.8	1	11	0.0050593	0.00026843	0	-0.00293156	-0.000175985	7.30582e-07	9.28809	0.00272169	0.00268601	-0.000439277	-8.66693	18.8504	18.6351	2.84057	0.0524504	0.00799745	0.0530566	8.66948	2.11148e+07	1.38479e+08	1.4008e+08	-81.3305	0.0000000E+000	0.0000000E+000	0.0000000E+000	81.3305	0.0000000E+000	0.0000000E+000	0.0000000E+000	-81.3305	0.0000000E+000	0.0000000E+000	0.0000000E+000	-8.66948	0.0000000E+000	0.0000000E+000	0.0000000E+000	8.66948	6.55839	81.3305	0.000000000000000E+000	-9.36381e-05	4.31002e-09	-9.36424e-05	3.82358	156116	7.18579	156124
0.00796479	24.5684	4.51579	24.98	-10.415	20329.3	3.82343	-0.000785796	4.42499e+06	144609	1	11	0.00505353	0.000202303	0	-0.0246651	0.000263178	6.22691e-07	-165.622	0.00307801	-0.00298161	0.000764304	-10.4179	24.9772	24.5655	4.51655	0.0393725	0.00723683	0.040032	10.415	1.44609e+08	7.86753e+08	7.99932e+08	-79.585	0.0000000E+000	0.0000000E+000	0.0000000E+000	79.585	0.0000000E+000	0.0000000E+000	0.0000000E+000	-79.585	0.0000000E+000	0.0000000E+000	0.0000000E+000	-10.415	0.0000000E+000	0.0000000E+000	0.0000000E+000	10.415	5.44057	79.585	-0.0217336	-3.00444e-06	-2.06804e-10	-3.00423e-06	3.82317	4.86568e+06	334.919	4.86535e+06
0.0019912	27.7044	6.98087	28.5703	-14.1428	20329.3	3.82343	-0.000785796	1.14498e+07	683573	1	11	0.00506473	0.000177272	0	-0.0246651	0.000263178	5.00861e-07	-88.8494	0.00282538	5.6736e-05	0.00282481	-14.1483	28.5711	27.7044	6.98369	0.0339404	0.00855222	0.0350013	14.1428	6.83573e+08	2.71284e+09	2.79763e+09	-75.8572	0.0000000E+000	0.0000000E+000	0.0000000E+000	75.8572	0.0000000E+000	0.0000000E+000	0.0000000E+000	-75.8572	0.0000000E+000	0.0000000E+000	0.0000000E+000	-14.1428	0.0000000E+000	0.0000000E+000	0.0000000E+000	14.1428	3.96861	75.8572	0.000000000000000E+000	-3.00444e-06	-2.06804e-10	-3.00423e-06	3.82317	4.86568e+06	334.919	4.86535e+06
0.000497799	29.1376	17.7712	34.1294	-31.3793	20329.3	3.82343	-0.000785796	1.79908e+07	4.87782e+06	1	11	0.0050675	0.000148479	0	-0.0246651	0.000263178	8.12978e-07	9.18574	0.00547537	0.00540515	-0.000874063	-31.3733	34.1335	29.143	17.7703	0.0250148	0.0152567	0.0293003	31.3793	4.87782e+09	7.99766e+09	9.36781e+09	-58.6207	0.0000000E+000	0.0000000E+000	0.0000000E+000	58.6207	0.0000000E+000	0.0000000E+000	0.0000000E+000	-58.6207	0.0000000E+000	0.0000000E+000	0.0000000E+000	-31.3793	0.0000000E+000	0.0000000E+000	0.0000000E+000	31.3793	1.6396	58.6207	0.000000000000000E+000	-3.00444e-06	-2.06804e-10	-3.00423e-06	3.82317	4.86568e+06	334.919	4.86535e+06
9.95598e-05	36.5515	92.6632	99.6116	-68.473	20329.3	3.82343	-0.000785796	1.72516e+07	1.49287e+07	1	11	0.00505984	5.07957e-05	0	-0.0246651	0.000263178	5.00629e-06	-1.32633	0.0985573	0.0985309	0.00228128	-68.4207	99.6499	36.65	92.6655	0.00368371	0.00933871	0.010039	68.473	1.49287e+10	5.88872e+09	1.60482e+10	-21.527	0.0000000E+000	0.0000000E+000	0.0000000E+000	21.527	0.0000000E+000	0.0000000E+000	0.0000000E+000	-21.527	0.0000000E+000	0.0000000E+000	0.0000000E+000	-68.473	0.0000000E+000	0.0000000E+000	0.0000000E+000	68.473	0.394456	21.527	0.000000000000000E+000	-3.00444e-06	-2.06804e-10	-3.00423e-06	3.82317	4.86568e+06	334.919	4.86535e+06