File: txt/18477_R301_UA693_SOC00_C01.mpt
EC-Lab ASCII FILE
Nb header lines : 65

Potentio Electrochemical Impedance Spectroscopy

Run on channel : 1 (SN 66354)
User :
CE vs. WE compliance from -10 V to 10 V
Electrode connection : standard
Potential control : Ewe
Ewe ctrl range : min = -10.00 V, max = 10.00 V
Safety Limits :
	Do not start on E overload
Acquisition started on : 10/21/2025 09:25:36.444
Technique started on : 10/21/2025 09:25:38.356
Loaded Setting File :  C:\Users\Celltest\OneDrive - store-dot.com\Documents\EC-Lab\Data\@Biologic Test Protocols\anode half cell EIS SOC00.mps
Saved on :
	File : 18477_R301_UA693_SOC00_C01.mpr
	Directory : C:\Users\Celltest\OneDrive - store-dot.com\Documents\EC-Lab\Data\Gyutae\
	Host : 169.254.61.224
Device : VMP-3e (SN .003165)
Address : USB
EC-LAB for windows v11.62 (software)
Internet server v27.00 (firmware)
Command interpretor v12.03 (firmware)
Electrode material :
Initial state :
Electrolyte :
Comments :
Electrode surface area : 0.001 cm²
Characteristic mass : 0.001 g
Equivalent Weight : 0.000 g/eq.
Density : 0.000 g/cm3
Volume (V) : 0.001 cm³
Record Ece
Cycle Definition : Charge/Discharge alternance
Mode                Single sine
E (V)               0.0000
vs.                 Eoc
tE (h:m:s)          0:00:0.0000
record              0
dI                  0.000
unit dI             mA
dt (s)              0.000
fi                  100.000
unit fi             kHz
ff                  10.000
unit ff             mHz
Nd                  6
Points              per decade
spacing             Logarithmic
Va (mV)             5.0
pw                  0.10
Na                  2
corr                0
E range min (V)     -10.000
E range max (V)     10.000
I Range             Auto
Bandwidth           5
nc cycles           0
goto Ns'            0
nr cycles           0
inc. cycle          0

freq/Hz	Re(Z)/Ohm	-Im(Z)/Ohm	|Z|/Ohm	Phase(Z)/deg	time/s	<Ewe>/V	<I>/mA	Cs/µF	Cp/µF	cycle number	I Range	|Ewe|/V	|I|/A	Ns	(Q-Qo)/mA.h	<Ece>/V	|Ece|/V	Phase(Zce)/deg	|Zce|/Ohm	Re(Zce)/Ohm	-Im(Zce)/Ohm	Phase(Zwe-ce)/deg	|Zwe-ce|/Ohm	Re(Zwe-ce)/Ohm	-Im(Zwe-ce)/Ohm	Re(Y)/Ohm-1	Im(Y)/Ohm-1	|Y|/Ohm-1	Phase(Y)/deg	Re(C)/nF	Im(C)/nF	|C|/nF	Phase(C)/deg	Re(M)	Im(M)	|M|	Phase(M)/deg	Re(Permittivity)	Im(Permittivity)	|Permittivity|	Phase(Permittivity)/deg	Re(Resistivity)/Ohm.cm	Im(Resistivity)/Ohm.cm	|Resistivity|/Ohm.cm	Phase(Resistivity)/deg	Re(Conductivity)/mS/cm	Im(Conductivity)/mS/cm	|Conductivity|/mS/cm	Phase(Conductivity)/deg	Tan(Delta)	Loss Angle(Delta)/deg	dq/mA.h	Pwe/W	Pce/W	Pwe-ce/W	<Ewe-Ece>/V	Rwe/Ohm	Rce/Ohm	Rwe-ce/Ohm		Ewe-Ece/V
100004	1.11589	0.477279	1.21367	-23.157	1.91152	0.259937	0.0711512	3.33451	0.515673	1	9	0.00486754	0.00401059	0	8.88831e-06	0.000326654	5.09704e-05	101.627	0.012709	-0.00256137	-0.0124482	-22.6613	1.20647	1.11333	0.464831	0.757561	0.324019	0.823946	23.157	515.673	1205.65	1311.3	-66.843	0.0000000E+000	0.0000000E+000	0.0000000E+000	66.843	0.0000000E+000	0.0000000E+000	0.0000000E+000	-66.843	0.0000000E+000	0.0000000E+000	0.0000000E+000	-23.157	0.0000000E+000	0.0000000E+000	0.0000000E+000	23.157	2.33802	66.843	8.88831e-06	1.84948e-05	2.32418e-08	1.84716e-05	0.25961	3653.3	4.59098	3648.71
31621.1	1.50892	0.655323	1.64508	-23.4752	3.43254	0.259954	0.07171	7.68046	1.21877	1	9	0.00514001	0.00312446	0	2.52106e-05	5.95716e-05	1.09847e-05	49.0705	0.00351571	0.00230325	-0.00265618	-23.3585	1.64614	1.51123	0.652667	0.55756	0.242147	0.607872	23.4752	1218.77	2806.3	3059.53	-66.5248	0.0000000E+000	0.0000000E+000	0.0000000E+000	66.5248	0.0000000E+000	0.0000000E+000	0.0000000E+000	-66.5248	0.0000000E+000	0.0000000E+000	0.0000000E+000	-23.4752	0.0000000E+000	0.0000000E+000	0.0000000E+000	23.4752	2.30257	66.5248	-1.68534e-06	1.86413e-05	4.27188e-09	1.86371e-05	0.259895	3625.08	0.830728	3624.25
10002.2	2.01862	0.898819	2.20969	-24.0017	4.58153	0.259946	0.0677611	17.7032	2.9291	1	9	0.004863	0.00220076	0	3.86503e-05	2.33964e-06	4.63363e-06	-30.3303	0.00210546	0.00181729	0.00106322	-24.0077	2.21178	2.02044	0.899882	0.413422	0.184082	0.452553	24.0017	2929.1	6578.36	7201	-65.9983	0.0000000E+000	0.0000000E+000	0.0000000E+000	65.9983	0.0000000E+000	0.0000000E+000	0.0000000E+000	-65.9983	0.0000000E+000	0.0000000E+000	0.0000000E+000	-24.0017	0.0000000E+000	0.0000000E+000	0.0000000E+000	24.0017	2.24586	65.9983	7.44757e-06	1.76142e-05	1.58537e-10	1.7614e-05	0.259943	3836.21	0.0345279	3836.18
3163.08	2.62359	1.38364	2.96609	-27.8064	5.60561	0.259682	0.0153442	36.3653	7.91343	1	9	0.0049165	0.00165757	0	5.15263e-05	-7.39696e-05	5.60987e-06	-31.5043	0.00338439	0.00288553	0.00176856	-27.8107	2.96947	2.62647	1.38541	0.298214	0.157273	0.337144	27.8064	7913.43	15005.1	16963.9	-62.1936	0.0000000E+000	0.0000000E+000	0.0000000E+000	62.1936	0.0000000E+000	0.0000000E+000	0.0000000E+000	-62.1936	0.0000000E+000	0.0000000E+000	0.0000000E+000	-27.8064	0.0000000E+000	0.0000000E+000	0.0000000E+000	27.8064	1.89615	62.1936	-2.53248e-07	3.98461e-06	-1.135e-09	3.98574e-06	0.259756	16923.8	4.82069	16928.6
1000.32	3.46796	2.58539	4.32562	-36.7048	7.2058	0.259857	-0.013246	61.5398	21.9842	1	10	0.00495002	0.00114435	0	7.55386e-05	-3.5815e-05	4.90617e-06	100.66	0.00428729	-0.000793095	-0.0042133	-36.6663	4.32246	3.46717	2.58117	0.185344	0.138175	0.231181	36.7048	21984.2	29488.9	36781.8	-53.2952	0.0000000E+000	0.0000000E+000	0.0000000E+000	53.2952	0.0000000E+000	0.0000000E+000	0.0000000E+000	-53.2952	0.0000000E+000	0.0000000E+000	0.0000000E+000	-36.7048	0.0000000E+000	0.0000000E+000	0.0000000E+000	36.7048	1.34137	53.2952	-5.17064e-07	-3.44205e-06	4.74404e-10	-3.44253e-06	0.259892	19617.8	2.70384	19620.5
316.316	5.35506	5.55361	7.71487	-46.0427	8.55602	0.259858	-0.0145281	90.5991	46.948	1	10	0.0048384	0.000627153	0	7.07957e-05	0.000479272	1.15534e-05	21.7979	0.018422	0.0171048	-0.00684069	-45.9161	7.72183	5.37216	5.54677	0.089972	0.0933079	0.12962	46.0427	46948	45269.6	65218.5	-43.9573	0.0000000E+000	0.0000000E+000	0.0000000E+000	43.9573	0.0000000E+000	0.0000000E+000	0.0000000E+000	-43.9573	0.0000000E+000	0.0000000E+000	0.0000000E+000	-46.0427	0.0000000E+000	0.0000000E+000	0.0000000E+000	46.0427	0.964248	43.9573	-1.57812e-06	-3.77523e-06	-6.9629e-09	-3.76826e-06	0.259378	17886.6	32.9894	17853.6
100.032	11.2272	10.6687	15.4878	-43.5389	9.9038	0.259863	-0.0139467	149.132	70.7644	1	10	0.00479059	0.000309314	0	6.65629e-05	-0.000188433	3.9766e-05	-17.6943	0.128562	0.12248	0.039075	-43.3331	15.6036	11.3497	10.7078	0.0468051	0.0444768	0.0645671	43.5389	70764.4	74468.9	102729	-46.4611	0.0000000E+000	0.0000000E+000	0.0000000E+000	46.4611	0.0000000E+000	0.0000000E+000	0.0000000E+000	-46.4611	0.0000000E+000	0.0000000E+000	0.0000000E+000	-43.5389	0.0000000E+000	0.0000000E+000	0.0000000E+000	43.5389	1.05235	46.4611	-1.88995e-06	-3.62422e-06	2.62802e-09	-3.62685e-06	0.260052	18632.6	13.511	18646.1
31.6296	22.9383	11.9145	25.8481	-27.4481	11.4736	0.259925	-0.00164117	422.328	89.7321	1	11	0.00480849	0.000186029	0	6.36945e-05	0.000135881	9.30026e-06	-3.61714	0.0499936	0.049894	0.00315405	-27.4034	25.8938	22.9882	11.9177	0.0343325	0.0178328	0.0386876	27.4481	89732.1	172756	194670	-62.5519	0.0000000E+000	0.0000000E+000	0.0000000E+000	62.5519	0.0000000E+000	0.0000000E+000	0.0000000E+000	-62.5519	0.0000000E+000	0.0000000E+000	0.0000000E+000	-27.4481	0.0000000E+000	0.0000000E+000	0.0000000E+000	27.4481	1.92524	62.5519	2.29266e-07	-4.26581e-07	-2.23003e-10	-4.26358e-07	0.259789	158378	82.7951	158295
10.0032	30.8947	7.86591	31.8803	-14.2843	12.8058	0.259927	-0.00130602	2022.7	123.136	1	11	0.00480367	0.000150678	0	6.25901e-05	0.000135881	7.58276e-06	18.2326	0.0503241	0.0477975	-0.0157452	-14.2357	31.9227	30.9425	7.85016	0.0303976	0.00773935	0.0313673	14.2843	123136	483638	499067	-75.7158	0.0000000E+000	0.0000000E+000	0.0000000E+000	75.7158	0.0000000E+000	0.0000000E+000	0.0000000E+000	-75.7158	0.0000000E+000	0.0000000E+000	0.0000000E+000	-14.2843	0.0000000E+000	0.0000000E+000	0.0000000E+000	14.2843	3.92767	75.7158	-1.3835e-06	-3.3947e-07	-1.77463e-10	-3.39292e-07	0.259791	199022	104.042	198918
3.1604	34.7744	4.96635	35.1273	-8.1278	14.3235	0.25993	0.000217247	10140.1	202.688	1	11	0.00480674	0.000136838	0	6.2192e-05	0.000116803	3.84766e-06	52.7926	0.0281184	0.0170033	-0.022395	-8.08774	35.1409	34.7914	4.94395	0.028182	0.00402484	0.0284679	8.1278	202688	1.41922e+06	1.43362e+06	-81.8722	0.0000000E+000	0.0000000E+000	0.0000000E+000	81.8722	0.0000000E+000	0.0000000E+000	0.0000000E+000	-81.8722	0.0000000E+000	0.0000000E+000	0.0000000E+000	-8.1278	0.0000000E+000	0.0000000E+000	0.0000000E+000	8.1278	7.00201	81.8722	-1.77469e-06	5.64691e-08	2.53752e-11	5.64437e-08	0.259813	1.19647e+06	537.652	1.19593e+06
1.00006	37.2609	3.78195	37.4523	-5.79562	19.643	0.259926	-0.000338144	42080.1	429.092	1	12	0.00480889	0.0001284	0	6.60427e-05	4.04943e-05	4.06991e-06	-13.4078	0.0316971	0.0308331	0.00734992	-5.80204	37.4837	37.2917	3.7893	0.0265641	0.00269624	0.0267006	5.79562	429092	4.22754e+06	4.24926e+06	-84.2044	0.0000000E+000	0.0000000E+000	0.0000000E+000	84.2044	0.0000000E+000	0.0000000E+000	0.0000000E+000	-84.2044	0.0000000E+000	0.0000000E+000	0.0000000E+000	-5.79562	0.0000000E+000	0.0000000E+000	0.0000000E+000	5.79562	9.8523	84.2044	3.99593e-06	-8.78922e-08	-1.36929e-11	-8.78785e-08	0.259885	768684	119.755	768564
0.316193	39.4764	3.80055	39.6589	-5.49915	33.9861	0.259925	0.000677345	132441	1216.28	1	12	0.00480953	0.000121272	0	6.57058e-05	0.000154958	2.62775e-06	-4.82509	0.0216681	0.0215913	0.0018226	-5.49878	39.6806	39.498	3.80238	0.025099	0.00241638	0.025215	5.49915	1.21628e+06	1.26335e+07	1.26919e+07	-84.5008	0.0000000E+000	0.0000000E+000	0.0000000E+000	84.5008	0.0000000E+000	0.0000000E+000	0.0000000E+000	-84.5008	0.0000000E+000	0.0000000E+000	0.0000000E+000	-5.49915	0.0000000E+000	0.0000000E+000	0.0000000E+000	5.49915	10.387	84.5008	-5.41611e-06	1.76059e-07	1.0496e-10	1.75954e-07	0.25977	383741	228.773	383512
0.0999041	41.8046	5.3602	42.1469	-7.30661	79.194	0.259918	-0.000434172	297205	4807.15	1	12	0.00480469	0.000113999	0	1.61243e-05	0.000441118	3.28638e-06	17.3361	0.0288282	0.0275186	-0.00859013	-7.29028	42.1731	41.8321	5.35161	0.0235339	0.00301752	0.0237266	7.30661	4.80715e+06	3.74913e+07	3.77983e+07	-82.6934	0.0000000E+000	0.0000000E+000	0.0000000E+000	82.6934	0.0000000E+000	0.0000000E+000	0.0000000E+000	-82.6934	0.0000000E+000	0.0000000E+000	0.0000000E+000	-7.30661	0.0000000E+000	0.0000000E+000	0.0000000E+000	7.30661	7.79908	82.6934	-1.61996e-05	-1.12849e-07	-1.91521e-10	-1.12658e-07	0.259477	598651	1016	597635
0.0315922	45.3292	10.1446	46.4505	-12.6148	222.078	0.25992	-0.000417102	496601	23686	1	12	0.00480855	0.00010352	0	0.000136622	7.86489e-05	1.88442e-06	-21.1548	0.0182035	0.0169767	0.00656945	-12.6181	46.4685	45.3462	10.1511	0.0210086	0.00470166	0.0215283	12.6148	2.3686e+07	1.05837e+08	1.08455e+08	-77.3852	0.0000000E+000	0.0000000E+000	0.0000000E+000	77.3852	0.0000000E+000	0.0000000E+000	0.0000000E+000	-77.3852	0.0000000E+000	0.0000000E+000	0.0000000E+000	-12.6148	0.0000000E+000	0.0000000E+000	0.0000000E+000	12.6148	4.46833	77.3852	8.44118e-05	-1.08413e-07	-3.28046e-11	-1.0838e-07	0.259841	623157	188.56	622968
0.0100092	51.658	21.133	55.8135	-22.2492	673.299	0.259914	0.000622871	752421	107871	1	12	0.00480976	8.61755e-05	0	0.000248622	0.000193113	1.88333e-06	1.88466	0.0218546	0.0218428	-0.000718746	-22.24	55.8335	51.6798	21.1323	0.0165828	0.00678394	0.0179168	22.2492	1.07871e+08	2.63682e+08	2.84893e+08	-67.7508	0.0000000E+000	0.0000000E+000	0.0000000E+000	67.7508	0.0000000E+000	0.0000000E+000	0.0000000E+000	-67.7508	0.0000000E+000	0.0000000E+000	0.0000000E+000	-22.2492	0.0000000E+000	0.0000000E+000	0.0000000E+000	22.2492	2.44442	67.7508	-6.86395e-05	1.61893e-07	1.20284e-10	1.61773e-07	0.259721	417284	310.036	416974