File: txt/18479_R301_UA693_SOC00_C03.mpt
EC-Lab ASCII FILE
Nb header lines : 65

Potentio Electrochemical Impedance Spectroscopy

Run on channel : 3 (SN 65921)
User :
CE vs. WE compliance from -10 V to 10 V
Electrode connection : standard
Potential control : Ewe
Ewe ctrl range : min = -10.00 V, max = 10.00 V
Safety Limits :
	Do not start on E overload
Acquisition started on : 10/21/2025 09:25:55.866
Technique started on : 10/21/2025 09:25:57.921
Loaded Setting File :  C:\Users\Celltest\OneDrive - store-dot.com\Documents\EC-Lab\Data\@Biologic Test Protocols\anode half cell EIS SOC00.mps
Saved on :
	File : 18479_R301_UA693_SOC00_C03.mpr
	Directory : C:\Users\Celltest\OneDrive - store-dot.com\Documents\EC-Lab\Data\Gyutae\
	Host : 169.254.61.224
Device : VMP-3e (SN .003165)
Address : USB
EC-LAB for windows v11.62 (software)
Internet server v27.00 (firmware)
Command interpretor v12.03 (firmware)
Electrode material :
Initial state :
Electrolyte :
Comments :
Electrode surface area : 0.001 cm²
Characteristic mass : 0.001 g
Equivalent Weight : 0.000 g/eq.
Density : 0.000 g/cm3
Volume (V) : 0.001 cm³
Record Ece
Cycle Definition : Charge/Discharge alternance
Mode                Single sine
E (V)               0.0000
vs.                 Eoc
tE (h:m:s)          0:00:0.0000
record              0
dI                  0.000
unit dI             mA
dt (s)              0.000
fi                  100.000
unit fi             kHz
ff                  10.000
unit ff             mHz
Nd                  6
Points              per decade
spacing             Logarithmic
Va (mV)             5.0
pw                  0.10
Na                  2
corr                0
E range min (V)     -10.000
E range max (V)     10.000
I Range             Auto
Bandwidth           5
nc cycles           0
goto Ns'            0
nr cycles           0
inc. cycle          0

freq/Hz	Re(Z)/Ohm	-Im(Z)/Ohm	|Z|/Ohm	Phase(Z)/deg	time/s	<Ewe>/V	<I>/mA	Cs/µF	Cp/µF	cycle number	I Range	|Ewe|/V	|I|/A	Ns	(Q-Qo)/mA.h	<Ece>/V	|Ece|/V	Phase(Zce)/deg	|Zce|/Ohm	Re(Zce)/Ohm	-Im(Zce)/Ohm	Phase(Zwe-ce)/deg	|Zwe-ce|/Ohm	Re(Zwe-ce)/Ohm	-Im(Zwe-ce)/Ohm	Re(Y)/Ohm-1	Im(Y)/Ohm-1	|Y|/Ohm-1	Phase(Y)/deg	Re(C)/nF	Im(C)/nF	|C|/nF	Phase(C)/deg	Re(M)	Im(M)	|M|	Phase(M)/deg	Re(Permittivity)	Im(Permittivity)	|Permittivity|	Phase(Permittivity)/deg	Re(Resistivity)/Ohm.cm	Im(Resistivity)/Ohm.cm	|Resistivity|/Ohm.cm	Phase(Resistivity)/deg	Re(Conductivity)/mS/cm	Im(Conductivity)/mS/cm	|Conductivity|/mS/cm	Phase(Conductivity)/deg	Tan(Delta)	Loss Angle(Delta)/deg	dq/mA.h	Pwe/W	Pce/W	Pwe-ce/W	<Ewe-Ece>/V	Rwe/Ohm	Rce/Ohm	Rwe-ce/Ohm		Ewe-Ece/V
100004	1.38858	0.547408	1.49259	-21.5154	2.05453	0.264207	0.0333714	2.90732	0.391054	1	9	0.00495492	0.00331969	0	5.85009e-06	-2.32329e-05	3.17193e-05	77.8473	0.00955489	0.00201147	-0.00934076	-21.1531	1.49106	1.39059	0.538067	0.623294	0.245715	0.669978	21.5154	391.054	991.966	1066.26	-68.4846	0.0000000E+000	0.0000000E+000	0.0000000E+000	68.4846	0.0000000E+000	0.0000000E+000	0.0000000E+000	-68.4846	0.0000000E+000	0.0000000E+000	0.0000000E+000	-21.5154	0.0000000E+000	0.0000000E+000	0.0000000E+000	21.5154	2.53665	68.4846	5.85009e-06	8.81696e-06	-7.75313e-10	8.81773e-06	0.264231	7917.19	0.696192	7917.88
31621.1	1.86952	0.807902	2.03662	-23.3713	3.32754	0.2642	0.0435898	6.22994	0.98035	1	9	0.00542484	0.00266365	0	1.88602e-05	0.00012952	1.22897e-05	34.5955	0.00461387	0.00379805	-0.00261966	-23.2614	2.03907	1.87332	0.805283	0.450724	0.194777	0.49101	23.3713	980.35	2268.58	2471.34	-66.6287	0.0000000E+000	0.0000000E+000	0.0000000E+000	66.6287	0.0000000E+000	0.0000000E+000	0.0000000E+000	-66.6287	0.0000000E+000	0.0000000E+000	0.0000000E+000	-23.3713	0.0000000E+000	0.0000000E+000	0.0000000E+000	23.3713	2.31405	66.6287	6.92445e-07	1.15164e-05	5.64573e-09	1.15108e-05	0.26407	6061.04	2.97133	6058.07
10002.2	2.50334	1.10918	2.73806	-23.8973	4.47656	0.264199	0.0367277	14.3456	2.35418	1	9	0.00518763	0.00189464	0	2.11443e-05	-4.13882e-06	1.01095e-05	-11.4336	0.00533586	0.00522997	0.00105773	-23.8732	2.74327	2.50857	1.11024	0.333912	0.147951	0.365222	23.8973	2354.18	5313.2	5811.39	-66.1027	0.0000000E+000	0.0000000E+000	0.0000000E+000	66.1027	0.0000000E+000	0.0000000E+000	0.0000000E+000	-66.1027	0.0000000E+000	0.0000000E+000	0.0000000E+000	-23.8973	0.0000000E+000	0.0000000E+000	0.0000000E+000	23.8973	2.25692	66.1027	1.23351e-06	9.70343e-06	-1.52009e-10	9.70358e-06	0.264203	7193.44	0.112689	7193.56
3163.08	3.32327	1.65012	3.71039	-26.4059	5.49868	0.264093	0.00241764	30.4927	6.03093	1	9	0.00488593	0.00131682	0	2.72401e-05	-0.000137797	8.00919e-06	23.5002	0.00608221	0.00557775	-0.00242529	-26.3342	3.71431	3.32885	1.64769	0.241394	0.11986	0.269513	26.4059	6030.93	12146.1	13560.9	-63.5941	0.0000000E+000	0.0000000E+000	0.0000000E+000	63.5941	0.0000000E+000	0.0000000E+000	0.0000000E+000	-63.5941	0.0000000E+000	0.0000000E+000	0.0000000E+000	-26.4059	0.0000000E+000	0.0000000E+000	0.0000000E+000	26.4059	2.01396	63.5941	1.02237e-06	6.38481e-07	-3.33144e-10	6.38814e-07	0.264231	109236	56.9967	109293
1000.32	4.27888	2.87487	5.15497	-33.8962	7.09681	0.264158	-0.00858824	55.343	17.2126	1	10	0.00477531	0.00092635	0	2.6318e-05	1.49552e-05	7.20714e-06	4.11121	0.00778014	0.00776012	-0.000557778	-33.843	5.1611	4.28664	2.87432	0.161019	0.108185	0.193988	33.8962	17212.6	25618.8	30864.2	-56.1038	0.0000000E+000	0.0000000E+000	0.0000000E+000	56.1038	0.0000000E+000	0.0000000E+000	0.0000000E+000	-56.1038	0.0000000E+000	0.0000000E+000	0.0000000E+000	-33.8962	0.0000000E+000	0.0000000E+000	0.0000000E+000	33.8962	1.48837	56.1038	-1.44375e-06	-2.26865e-06	-1.28439e-10	-2.26853e-06	0.264143	30758.2	1.74136	30756.4
316.316	6.14834	6.1379	8.68769	-44.9513	8.44603	0.264152	-0.00881944	81.9745	40.9176	1	10	0.00462357	0.000532198	0	2.30233e-05	-6.1421e-05	1.10917e-05	-29.9586	0.0208413	0.0180566	0.0104076	-44.9158	8.70783	6.1664	6.14831	0.0814609	0.0813226	0.115105	44.9513	40917.6	40987.2	57915.5	-45.0487	0.0000000E+000	0.0000000E+000	0.0000000E+000	45.0487	0.0000000E+000	0.0000000E+000	0.0000000E+000	-45.0487	0.0000000E+000	0.0000000E+000	0.0000000E+000	-44.9513	0.0000000E+000	0.0000000E+000	0.0000000E+000	44.9513	1.0017	45.0487	-1.10427e-06	-2.32967e-06	5.41699e-10	-2.33021e-06	0.264213	29951.1	6.96427	29958
100.032	12.2222	12.872	17.7502	-46.4832	9.79381	0.264143	-0.00974048	123.605	65.0008	1	10	0.00459806	0.000259042	0	2.03589e-05	-6.1421e-05	8.49524e-06	-69.2274	0.0327948	0.011631	0.030663	-46.524	17.7805	12.2339	12.9026	0.0387921	0.0408543	0.0563373	46.4832	65000.8	61719.7	89635	-43.5168	0.0000000E+000	0.0000000E+000	0.0000000E+000	43.5168	0.0000000E+000	0.0000000E+000	0.0000000E+000	-43.5168	0.0000000E+000	0.0000000E+000	0.0000000E+000	-46.4832	0.0000000E+000	0.0000000E+000	0.0000000E+000	46.4832	0.949522	43.5168	-1.41576e-06	-2.57288e-06	5.9827e-10	-2.57348e-06	0.264204	27118.1	6.30575	27124.4
31.6296	27.0523	17.2716	32.0957	-32.5562	11.3735	0.264165	-0.00665375	291.337	84.3656	1	11	0.00459448	0.00014315	0	1.76852e-05	1.49552e-05	4.99826e-06	-55.8187	0.0349164	0.0196165	0.0288851	-32.5808	32.1278	27.0719	17.3004	0.026261	0.0167663	0.0311568	32.5562	84365.6	132141	156776	-57.4438	0.0000000E+000	0.0000000E+000	0.0000000E+000	57.4438	0.0000000E+000	0.0000000E+000	0.0000000E+000	-57.4438	0.0000000E+000	0.0000000E+000	0.0000000E+000	-32.5562	0.0000000E+000	0.0000000E+000	0.0000000E+000	32.5562	1.56629	57.4438	-5.1203e-07	-1.75769e-06	-9.95085e-11	-1.75759e-06	0.26415	39701.7	2.24764	39699.4
10.0032	40.3307	12.9238	42.3508	-17.7678	12.7068	0.264161	-0.00610111	1231.1	114.643	1	11	0.0045788	0.000108116	0	1.46995e-05	0.000186802	5.05139e-06	87.8315	0.0467219	0.00176785	-0.0466884	-17.7069	42.3382	40.3324	12.8771	0.022486	0.00720554	0.0236123	17.7678	114643	357762	375682	-72.2322	0.0000000E+000	0.0000000E+000	0.0000000E+000	72.2322	0.0000000E+000	0.0000000E+000	0.0000000E+000	-72.2322	0.0000000E+000	0.0000000E+000	0.0000000E+000	-17.7678	0.0000000E+000	0.0000000E+000	0.0000000E+000	17.7678	3.12066	72.2322	-1.43907e-06	-1.61167e-06	-1.1397e-09	-1.61053e-06	0.263974	43297.1	30.6177	43266.5
3.1604	47.4667	8.43846	48.2109	-10.0805	14.2234	0.264168	-0.0054187	5967.81	182.832	1	11	0.00458847	9.51749e-05	0	1.29031e-05	9.13315e-05	7.94329e-06	-7.36885	0.0834599	0.0827706	0.0107043	-10.0758	48.2943	47.5495	8.44917	0.020422	0.00363055	0.0207422	10.0805	182831	1.02843e+06	1.04456e+06	-79.9195	0.0000000E+000	0.0000000E+000	0.0000000E+000	79.9195	0.0000000E+000	0.0000000E+000	0.0000000E+000	-79.9195	0.0000000E+000	0.0000000E+000	0.0000000E+000	-10.0805	0.0000000E+000	0.0000000E+000	0.0000000E+000	10.0805	5.62504	79.9195	-1.67941e-06	-1.43145e-06	-4.94898e-10	-1.43095e-06	0.264077	48751.2	16.8549	48734.4
1.00006	51.8475	6.08413	52.2032	-6.69286	19.5439	0.264174	-0.00492045	26157.4	355.301	1	12	0.00459058	8.79366e-05	0	5.20065e-06	-0.000175985	3.18031e-06	-12.0097	0.0361659	0.0353744	0.00752531	-6.69653	52.2392	51.8828	6.09165	0.0190254	0.00223256	0.0191559	6.69286	355301	3.02779e+06	3.04856e+06	-83.3071	0.0000000E+000	0.0000000E+000	0.0000000E+000	83.3071	0.0000000E+000	0.0000000E+000	0.0000000E+000	-83.3071	0.0000000E+000	0.0000000E+000	0.0000000E+000	-6.69286	0.0000000E+000	0.0000000E+000	0.0000000E+000	6.69286	8.52176	83.3071	-8.93406e-07	-1.29985e-06	8.65927e-10	-1.30072e-06	0.26435	53688.9	35.7661	53724.7
0.316193	55.1456	5.1432	55.3849	-5.32833	33.8861	0.264174	-0.00365959	97866.5	843.953	1	12	0.00458542	8.27918e-05	0	-2.05957e-06	0.000110426	1.83544e-06	-19.5656	0.0221694	0.0208893	0.00742422	-5.33396	55.4064	55.1665	5.15063	0.0179774	0.00167668	0.0180555	5.32833	843952	9.04889e+06	9.08816e+06	-84.6717	0.0000000E+000	0.0000000E+000	0.0000000E+000	84.6717	0.0000000E+000	0.0000000E+000	0.0000000E+000	-84.6717	0.0000000E+000	0.0000000E+000	0.0000000E+000	-5.32833	0.0000000E+000	0.0000000E+000	0.0000000E+000	5.32833	10.722	84.6717	-5.72837e-06	-9.66769e-07	-4.04113e-10	-9.66364e-07	0.264063	72186.6	30.1743	72156.4
0.0999041	58.0061	6.45573	58.3642	-6.35054	79.0938	0.26417	-0.00234393	246770	3019.18	1	12	0.00458795	7.86089e-05	0	-7.67492e-05	-0.000195079	2.67022e-06	14.0243	0.0339684	0.0329559	-0.0082317	-6.33894	58.3961	58.039	6.4475	0.0170287	0.00189519	0.0171338	6.35054	3.01918e+06	2.7128e+07	2.72954e+07	-83.6495	0.0000000E+000	0.0000000E+000	0.0000000E+000	83.6495	0.0000000E+000	0.0000000E+000	0.0000000E+000	-83.6495	0.0000000E+000	0.0000000E+000	0.0000000E+000	-6.35054	0.0000000E+000	0.0000000E+000	0.0000000E+000	6.35054	8.98521	83.6495	-3.52216e-05	-6.19198e-07	4.57253e-10	-6.19655e-07	0.264366	112704	83.2274	112787
0.0315922	62.5167	12.0987	63.6767	-10.9529	221.975	0.264172	-0.00168758	416392	15032	1	12	0.00459121	7.21019e-05	0	-0.000128751	-9.96091e-05	2.72231e-06	-6.22036	0.0377564	0.0375341	0.00409101	-10.9501	63.7143	62.5543	12.1028	0.0154183	0.00298385	0.0157043	10.9529	1.5032e+07	7.7674e+07	7.91152e+07	-79.0471	0.0000000E+000	0.0000000E+000	0.0000000E+000	79.0471	0.0000000E+000	0.0000000E+000	0.0000000E+000	-79.0471	0.0000000E+000	0.0000000E+000	0.0000000E+000	-10.9529	0.0000000E+000	0.0000000E+000	0.0000000E+000	10.9529	5.16724	79.0471	1.01318e-05	-4.4581e-07	1.68098e-10	-4.45978e-07	0.264272	156539	59.025	156598
0.0100092	71.0064	23.6232	74.8329	-18.4018	673.197	0.26417	8.65527e-05	673107	67077.2	1	12	0.0045904	6.1342e-05	0	8.31375e-05	-4.13882e-06	2.32178e-06	-1.82472	0.0378497	0.0378305	0.00120521	-18.3935	74.8692	71.0442	23.6244	0.0126798	0.00421845	0.0133631	18.4018	6.70772e+07	2.0162e+08	2.12486e+08	-71.5982	0.0000000E+000	0.0000000E+000	0.0000000E+000	71.5982	0.0000000E+000	0.0000000E+000	0.0000000E+000	-71.5982	0.0000000E+000	0.0000000E+000	0.0000000E+000	-18.4018	0.0000000E+000	0.0000000E+000	0.0000000E+000	18.4018	3.0058	71.5982	6.3158e-05	2.28646e-08	-3.58226e-13	2.2865e-08	0.264174	3.05213e+06	47.8185	3.05218e+06