File: txt/18478_R301_UA693_SOC00_C02.mpt
EC-Lab ASCII FILE
Nb header lines : 65

Potentio Electrochemical Impedance Spectroscopy

Run on channel : 2 (SN 66139)
User :
CE vs. WE compliance from -10 V to 10 V
Electrode connection : standard
Potential control : Ewe
Ewe ctrl range : min = -10.00 V, max = 10.00 V
Safety Limits :
	Do not start on E overload
Acquisition started on : 10/21/2025 09:25:45.906
Technique started on : 10/21/2025 09:25:47.818
Loaded Setting File :  C:\Users\Celltest\OneDrive - store-dot.com\Documents\EC-Lab\Data\@Biologic Test Protocols\anode half cell EIS SOC00.mps
Saved on :
	File : 18478_R301_UA693_SOC00_C02.mpr
	Directory : C:\Users\Celltest\OneDrive - store-dot.com\Documents\EC-Lab\Data\Gyutae\
	Host : 169.254.61.224
Device : VMP-3e (SN .003165)
Address : USB
EC-LAB for windows v11.62 (software)
Internet server v27.00 (firmware)
Command interpretor v12.03 (firmware)
Electrode material :
Initial state :
Electrolyte :
Comments :
Electrode surface area : 0.001 cm²
Characteristic mass : 0.001 g
Equivalent Weight : 0.000 g/eq.
Density : 0.000 g/cm3
Volume (V) : 0.001 cm³
Record Ece
Cycle Definition : Charge/Discharge alternance
Mode                Single sine
E (V)               0.0000
vs.                 Eoc
tE (h:m:s)          0:00:0.0000
record              0
dI                  0.000
unit dI             mA
dt (s)              0.000
fi                  100.000
unit fi             kHz
ff                  10.000
unit ff             mHz
Nd                  6
Points              per decade
spacing             Logarithmic
Va (mV)             5.0
pw                  0.10
Na                  2
corr                0
E range min (V)     -10.000
E range max (V)     10.000
I Range             Auto
Bandwidth           5
nc cycles           0
goto Ns'            0
nr cycles           0
inc. cycle          0

freq/Hz	Re(Z)/Ohm	-Im(Z)/Ohm	|Z|/Ohm	Phase(Z)/deg	time/s	<Ewe>/V	<I>/mA	Cs/µF	Cp/µF	cycle number	I Range	|Ewe|/V	|I|/A	Ns	(Q-Qo)/mA.h	<Ece>/V	|Ece|/V	Phase(Zce)/deg	|Zce|/Ohm	Re(Zce)/Ohm	-Im(Zce)/Ohm	Phase(Zwe-ce)/deg	|Zwe-ce|/Ohm	Re(Zwe-ce)/Ohm	-Im(Zwe-ce)/Ohm	Re(Y)/Ohm-1	Im(Y)/Ohm-1	|Y|/Ohm-1	Phase(Y)/deg	Re(C)/nF	Im(C)/nF	|C|/nF	Phase(C)/deg	Re(M)	Im(M)	|M|	Phase(M)/deg	Re(Permittivity)	Im(Permittivity)	|Permittivity|	Phase(Permittivity)/deg	Re(Resistivity)/Ohm.cm	Im(Resistivity)/Ohm.cm	|Resistivity|/Ohm.cm	Phase(Resistivity)/deg	Re(Conductivity)/mS/cm	Im(Conductivity)/mS/cm	|Conductivity|/mS/cm	Phase(Conductivity)/deg	Tan(Delta)	Loss Angle(Delta)/deg	dq/mA.h	Pwe/W	Pce/W	Pwe-ce/W	<Ewe-Ece>/V	Rwe/Ohm	Rce/Ohm	Rwe-ce/Ohm		Ewe-Ece/V
100004	1.22646	0.501942	1.3252	-22.2574	1.91153	0.260343	-0.00696268	3.17067	0.45488	1	9	0.00464826	0.0035076	0	4.36784e-06	0.00017216	2.34071e-05	109.612	0.00667326	-0.00223992	-0.00628611	-22.0418	1.32075	1.22422	0.495656	0.698381	0.28582	0.754605	22.2574	454.88	1111.47	1200.95	-67.7426	0.0000000E+000	0.0000000E+000	0.0000000E+000	67.7426	0.0000000E+000	0.0000000E+000	0.0000000E+000	-67.7426	0.0000000E+000	0.0000000E+000	0.0000000E+000	-22.2574	0.0000000E+000	0.0000000E+000	0.0000000E+000	22.2574	2.44343	67.7426	4.36784e-06	-1.81269e-06	-1.1987e-09	-1.81149e-06	0.260171	37391.2	24.7261	37366.5
31621.1	1.659	0.720859	1.80884	-23.4857	3.43454	0.260327	-0.0031636	6.9822	1.1089	1	9	0.00507603	0.00280623	0	8.14537e-06	0.000286705	1.50742e-05	-21.8377	0.00537168	0.00498621	0.00199815	-23.4808	1.81421	1.66398	0.722857	0.507043	0.220318	0.55284	23.4857	1108.9	2552.04	2782.55	-66.5143	0.0000000E+000	0.0000000E+000	0.0000000E+000	66.5143	0.0000000E+000	0.0000000E+000	0.0000000E+000	-66.5143	0.0000000E+000	0.0000000E+000	0.0000000E+000	-23.4857	0.0000000E+000	0.0000000E+000	0.0000000E+000	23.4857	2.30142	66.5143	9.45917e-06	-8.23572e-07	-9.07021e-10	-8.22665e-07	0.260041	82288.2	90.6261	82197.6
10002.2	2.2319	0.999072	2.4453	-24.1149	4.45955	0.260319	-0.00409479	15.9267	2.65861	1	9	0.00496959	0.0020323	0	1.89849e-06	0.000267614	9.67006e-06	-124.792	0.00475819	-0.00271504	0.00390755	-24.2245	2.44443	2.22918	1.00298	0.373257	0.167083	0.408947	24.1149	2658.61	5939.25	6507.15	-65.8851	0.0000000E+000	0.0000000E+000	0.0000000E+000	65.8851	0.0000000E+000	0.0000000E+000	0.0000000E+000	-65.8851	0.0000000E+000	0.0000000E+000	0.0000000E+000	-24.1149	0.0000000E+000	0.0000000E+000	0.0000000E+000	24.1149	2.23397	65.8851	1.16688e-07	-1.06595e-06	-1.09582e-09	-1.06486e-06	0.260052	63573.3	65.3549	63508
3163.08	2.90924	1.487	3.26724	-27.073	5.35768	0.26013	-0.0397391	33.8376	7.00906	1	9	0.00453172	0.00138702	0	-5.132e-06	5.7615e-05	1.05161e-05	-36.3997	0.00758184	0.0061026	0.00449918	-27.0945	3.27472	2.91534	1.4915	0.272532	0.1393	0.306069	27.073	7009.06	13712.9	15400.3	-62.927	0.0000000E+000	0.0000000E+000	0.0000000E+000	62.927	0.0000000E+000	0.0000000E+000	0.0000000E+000	-62.927	0.0000000E+000	0.0000000E+000	0.0000000E+000	-27.073	0.0000000E+000	0.0000000E+000	0.0000000E+000	27.073	1.95645	62.927	-3.00456e-06	-1.03374e-05	-2.28957e-09	-1.03351e-05	0.260073	6545.95	1.44983	6544.5
1000.32	3.80279	2.6793	4.65187	-35.167	7.17083	0.260238	-0.0191809	59.3828	19.6991	1	10	0.00504671	0.00108488	0	-8.70972e-06	-3.78392e-05	1.51316e-05	-106.446	0.0139478	-0.00394867	0.0133771	-35.3295	4.65636	3.79885	2.69267	0.175731	0.123813	0.214967	35.167	19699.1	27959.5	34202.2	-54.833	0.0000000E+000	0.0000000E+000	0.0000000E+000	54.833	0.0000000E+000	0.0000000E+000	0.0000000E+000	-54.833	0.0000000E+000	0.0000000E+000	0.0000000E+000	-35.167	0.0000000E+000	0.0000000E+000	0.0000000E+000	35.167	1.41933	54.833	-1.54558e-06	-4.99161e-06	7.2579e-10	-4.99233e-06	0.260276	13567.6	1.97276	13569.6
316.316	5.60953	5.8451	8.10136	-46.1781	8.52105	0.260234	-0.0193038	86.081	44.81	1	10	0.00493787	0.000609511	0	-1.61456e-05	3.42479e-07	7.29322e-06	-113.44	0.0119657	-0.00475978	0.0109783	-46.2561	8.10599	5.60477	5.85608	0.0854694	0.0890587	0.123436	46.1781	44810	43004.1	62107.1	-43.8219	0.0000000E+000	0.0000000E+000	0.0000000E+000	43.8219	0.0000000E+000	0.0000000E+000	0.0000000E+000	-43.8219	0.0000000E+000	0.0000000E+000	0.0000000E+000	-46.1781	0.0000000E+000	0.0000000E+000	0.0000000E+000	46.1781	0.959698	43.8219	-2.62753e-06	-5.02352e-06	-6.61117e-12	-5.02352e-06	0.260234	13481	0.0177415	13480.9
100.032	11.5599	11.9927	16.657	-46.0529	9.86878	0.260242	-0.0195795	132.667	68.771	1	10	0.00491057	0.000294805	0	-2.25448e-05	-3.78392e-05	1.0881e-05	-128.334	0.036909	-0.0228926	0.0289518	-46.1787	16.662	11.537	12.0217	0.0416638	0.0432239	0.0600349	46.0529	68771	66288.8	95517.9	-43.9471	0.0000000E+000	0.0000000E+000	0.0000000E+000	43.9471	0.0000000E+000	0.0000000E+000	0.0000000E+000	-43.9471	0.0000000E+000	0.0000000E+000	0.0000000E+000	-46.0529	0.0000000E+000	0.0000000E+000	0.0000000E+000	46.0529	0.963906	43.9471	-2.68064e-06	-5.09541e-06	7.40873e-10	-5.09616e-06	0.26028	13291.5	1.93259	13293.5
31.6296	25.1635	15.0656	29.3287	-30.9093	11.4475	0.260275	-0.0071028	333.996	88.1306	1	11	0.00490581	0.00016727	0	-2.61974e-05	-5.69301e-05	7.55681e-06	-19.3857	0.0451773	0.042616	0.0149955	-30.8916	29.373	25.2061	15.0806	0.029254	0.0175146	0.0340963	30.9093	88130.6	147202	171567	-59.0907	0.0000000E+000	0.0000000E+000	0.0000000E+000	59.0907	0.0000000E+000	0.0000000E+000	0.0000000E+000	-59.0907	0.0000000E+000	0.0000000E+000	0.0000000E+000	-30.9093	0.0000000E+000	0.0000000E+000	0.0000000E+000	30.9093	1.67027	59.0907	-6.93697e-07	-1.84868e-06	4.04363e-10	-1.84909e-06	0.260332	36644	8.01516	36652
10.0032	36.3704	10.7383	37.9225	-16.4492	12.7799	0.26028	-0.00650586	1481.65	118.802	1	11	0.00492258	0.000129806	0	-2.93983e-05	3.85242e-05	1.13136e-05	76.8698	0.0871575	0.0197992	-0.0848789	-16.3177	37.9176	36.3902	10.6534	0.0252903	0.00746692	0.0263696	16.4492	118802	402379	419550	-73.5508	0.0000000E+000	0.0000000E+000	0.0000000E+000	73.5508	0.0000000E+000	0.0000000E+000	0.0000000E+000	-73.5508	0.0000000E+000	0.0000000E+000	0.0000000E+000	-16.4492	0.0000000E+000	0.0000000E+000	0.0000000E+000	16.4492	3.38698	73.5508	-1.10622e-06	-1.69334e-06	-2.50633e-10	-1.69309e-06	0.260241	40006.9	5.92145	40001
3.1604	41.8669	6.82056	42.4189	-9.25279	14.2964	0.260291	-0.00537426	7383.44	190.889	1	11	0.00490752	0.000115692	0	-3.0498e-05	0.000343978	4.59762e-06	20.0966	0.0397402	0.0373206	-0.0136549	-9.22651	42.4535	41.9042	6.8069	0.0232677	0.00379055	0.0235744	9.25279	190889	1.17174e+06	1.18719e+06	-80.7472	0.0000000E+000	0.0000000E+000	0.0000000E+000	80.7472	0.0000000E+000	0.0000000E+000	0.0000000E+000	-80.7472	0.0000000E+000	0.0000000E+000	0.0000000E+000	-9.25279	0.0000000E+000	0.0000000E+000	0.0000000E+000	9.25279	6.13834	80.7472	-8.68088e-07	-1.39887e-06	-1.84863e-09	-1.39702e-06	0.259947	48432.9	64.0047	48368.9
1.00006	45.3972	5.07725	45.6802	-6.38148	19.6179	0.260288	-0.00473561	31344.7	387.226	1	12	0.00490942	0.000107474	0	-4.09698e-05	-0.000209657	3.20046e-06	14.5109	0.0297791	0.0288291	-0.00746155	-6.36817	45.708	45.426	5.06979	0.0217557	0.00243317	0.0218913	6.38148	387227	3.4623e+06	3.48389e+06	-83.6185	0.0000000E+000	0.0000000E+000	0.0000000E+000	83.6185	0.0000000E+000	0.0000000E+000	0.0000000E+000	-83.6185	0.0000000E+000	0.0000000E+000	0.0000000E+000	-6.38148	0.0000000E+000	0.0000000E+000	0.0000000E+000	6.38148	8.94129	83.6185	-2.15398e-06	-1.23262e-06	9.92852e-10	-1.23361e-06	0.260497	54964	44.2724	55008.2
0.316193	48.2241	4.57913	48.441	-5.42427	33.9618	0.260287	-0.00363085	109922	982.254	1	12	0.00490832	0.000101326	0	-4.09808e-05	3.85242e-05	1.55575e-06	102.879	0.015354	-0.00342241	-0.0149677	-5.40703	48.4362	48.2207	4.56416	0.0205512	0.00195144	0.0206437	5.42427	982254	1.03444e+07	1.03909e+07	-84.5757	0.0000000E+000	0.0000000E+000	0.0000000E+000	84.5757	0.0000000E+000	0.0000000E+000	0.0000000E+000	-84.5757	0.0000000E+000	0.0000000E+000	0.0000000E+000	-5.42427	0.0000000E+000	0.0000000E+000	0.0000000E+000	5.42427	10.5313	84.5757	-6.98933e-07	-9.45064e-07	-1.39875e-10	-9.44924e-07	0.260249	71687.7	10.6102	71677.1
0.0999041	50.8205	5.91592	51.1636	-6.63982	79.1698	0.260278	-0.00178854	269287	3600.28	1	12	0.00490981	9.5963e-05	0	-0.000106576	5.7615e-05	1.79963e-06	13.3022	0.0187534	0.0182503	-0.00431491	-6.63266	51.1813	50.8387	5.9116	0.019414	0.00225995	0.0195451	6.63982	3.60028e+06	3.09281e+07	3.11369e+07	-83.3602	0.0000000E+000	0.0000000E+000	0.0000000E+000	83.3602	0.0000000E+000	0.0000000E+000	0.0000000E+000	-83.3602	0.0000000E+000	0.0000000E+000	0.0000000E+000	-6.63982	0.0000000E+000	0.0000000E+000	0.0000000E+000	6.63982	8.59046	83.3602	-3.70885e-05	-4.65518e-07	-1.03047e-10	-4.65415e-07	0.26022	145525	32.2134	145493
0.0315922	55.04	11.0885	56.1458	-11.3905	222.053	0.260275	-0.00169713	454325	17720.6	1	12	0.00491137	8.74752e-05	0	-0.000224071	0.000191251	3.78197e-06	-27.7644	0.0432348	0.0382572	0.0201403	-11.403	56.1873	55.0782	11.1087	0.01746	0.00351754	0.0178108	11.3905	1.77206e+07	8.79597e+07	8.97269e+07	-78.6095	0.0000000E+000	0.0000000E+000	0.0000000E+000	78.6095	0.0000000E+000	0.0000000E+000	0.0000000E+000	-78.6095	0.0000000E+000	0.0000000E+000	0.0000000E+000	-11.3905	0.0000000E+000	0.0000000E+000	0.0000000E+000	11.3905	4.96368	78.6095	-1.94968e-05	-4.41721e-07	-3.24578e-10	-4.41396e-07	0.260084	153362	112.691	153249
0.0100092	62.1123	21.7826	65.8212	-19.3256	673.277	0.260279	-6.92246e-05	729982	79946.8	1	12	0.00490957	7.45895e-05	0	0.000112477	0.000343978	2.11901e-06	14.967	0.028409	0.0274452	-0.00733696	-19.3117	65.8446	62.1398	21.7753	0.0143366	0.00502781	0.0151927	19.3256	7.99468e+07	2.27965e+08	2.41578e+08	-70.6744	0.0000000E+000	0.0000000E+000	0.0000000E+000	70.6744	0.0000000E+000	0.0000000E+000	0.0000000E+000	-70.6744	0.0000000E+000	0.0000000E+000	0.0000000E+000	-19.3256	0.0000000E+000	0.0000000E+000	0.0000000E+000	19.3256	2.85146	70.6744	0.000165098	-1.80177e-08	-2.38117e-11	-1.79939e-08	0.259935	3.75993e+06	4969.01	3.75496e+06