File: txt/18481_R301_UA693_SOC00_C04.mpt
EC-Lab ASCII FILE
Nb header lines : 65

Potentio Electrochemical Impedance Spectroscopy

Run on channel : 4 (SN 66756)
User :
CE vs. WE compliance from -10 V to 10 V
Electrode connection : standard
Potential control : Ewe
Ewe ctrl range : min = -10.00 V, max = 10.00 V
Safety Limits :
	Do not start on E overload
Acquisition started on : 10/21/2025 09:26:08.351
Technique started on : 10/21/2025 09:26:10.130
Loaded Setting File :  C:\Users\Celltest\OneDrive - store-dot.com\Documents\EC-Lab\Data\@Biologic Test Protocols\anode half cell EIS SOC00.mps
Saved on :
	File : 18481_R301_UA693_SOC00_C04.mpr
	Directory : C:\Users\Celltest\OneDrive - store-dot.com\Documents\EC-Lab\Data\Gyutae\
	Host : 169.254.61.224
Device : VMP-3e (SN .003165)
Address : USB
EC-LAB for windows v11.62 (software)
Internet server v27.00 (firmware)
Command interpretor v12.03 (firmware)
Electrode material :
Initial state :
Electrolyte :
Comments :
Electrode surface area : 0.001 cm²
Characteristic mass : 0.001 g
Equivalent Weight : 0.000 g/eq.
Density : 0.000 g/cm3
Volume (V) : 0.001 cm³
Record Ece
Cycle Definition : Charge/Discharge alternance
Mode                Single sine
E (V)               0.0000
vs.                 Eoc
tE (h:m:s)          0:00:0.0000
record              0
dI                  0.000
unit dI             mA
dt (s)              0.000
fi                  100.000
unit fi             kHz
ff                  10.000
unit ff             mHz
Nd                  6
Points              per decade
spacing             Logarithmic
Va (mV)             5.0
pw                  0.10
Na                  2
corr                0
E range min (V)     -10.000
E range max (V)     10.000
I Range             Auto
Bandwidth           5
nc cycles           0
goto Ns'            0
nr cycles           0
inc. cycle          0

freq/Hz	Re(Z)/Ohm	-Im(Z)/Ohm	|Z|/Ohm	Phase(Z)/deg	time/s	<Ewe>/V	<I>/mA	Cs/µF	Cp/µF	cycle number	I Range	|Ewe|/V	|I|/A	Ns	(Q-Qo)/mA.h	<Ece>/V	|Ece|/V	Phase(Zce)/deg	|Zce|/Ohm	Re(Zce)/Ohm	-Im(Zce)/Ohm	Phase(Zwe-ce)/deg	|Zwe-ce|/Ohm	Re(Zwe-ce)/Ohm	-Im(Zwe-ce)/Ohm	Re(Y)/Ohm-1	Im(Y)/Ohm-1	|Y|/Ohm-1	Phase(Y)/deg	Re(C)/nF	Im(C)/nF	|C|/nF	Phase(C)/deg	Re(M)	Im(M)	|M|	Phase(M)/deg	Re(Permittivity)	Im(Permittivity)	|Permittivity|	Phase(Permittivity)/deg	Re(Resistivity)/Ohm.cm	Im(Resistivity)/Ohm.cm	|Resistivity|/Ohm.cm	Phase(Resistivity)/deg	Re(Conductivity)/mS/cm	Im(Conductivity)/mS/cm	|Conductivity|/mS/cm	Phase(Conductivity)/deg	Tan(Delta)	Loss Angle(Delta)/deg	dq/mA.h	Pwe/W	Pce/W	Pwe-ce/W	<Ewe-Ece>/V	Rwe/Ohm	Rce/Ohm	Rwe-ce/Ohm		Ewe-Ece/V
100004	1.88761	0.436175	1.93735	-13.0111	1.77852	0.268193	-0.0107269	3.64874	0.184948	1	9	0.003484	0.00179833	0	-3.01331e-06	-0.000225711	3.10958e-05	41.0816	0.0172915	0.0130339	-0.0113628	-12.5991	1.94754	1.90064	0.424813	0.502917	0.116211	0.516169	13.0111	184.948	800.388	821.478	-76.9889	0.0000000E+000	0.0000000E+000	0.0000000E+000	76.9889	0.0000000E+000	0.0000000E+000	0.0000000E+000	-76.9889	0.0000000E+000	0.0000000E+000	0.0000000E+000	-13.0111	0.0000000E+000	0.0000000E+000	0.0000000E+000	13.0111	4.32764	76.9889	-3.01331e-06	-2.87689e-06	2.42119e-09	-2.87931e-06	0.268419	25001.8	21.0415	25022.8
31621.1	2.29105	0.954206	2.48182	-22.6113	3.30552	0.268184	-0.0462713	5.27473	0.779729	1	9	0.00507686	0.00204562	0	-0.000115416	6.09381e-05	1.11761e-05	18.0335	0.00546345	0.00519506	-0.00169134	-22.5293	2.48597	2.29625	0.952515	0.371958	0.154918	0.40293	22.6113	779.729	1872.13	2028.02	-67.3887	0.0000000E+000	0.0000000E+000	0.0000000E+000	67.3887	0.0000000E+000	0.0000000E+000	0.0000000E+000	-67.3887	0.0000000E+000	0.0000000E+000	0.0000000E+000	-22.6113	0.0000000E+000	0.0000000E+000	0.0000000E+000	22.6113	2.40101	67.3887	-0.000111953	-1.24092e-05	-2.81968e-09	-1.24064e-05	0.268123	5795.91	1.31698	5794.6
10002.2	3.05737	1.2866	3.31706	-22.8223	4.20655	0.268175	-0.0445183	12.3674	1.86064	1	9	0.00462392	0.00139398	0	-0.000125225	-0.000302151	4.13759e-06	10.4055	0.00296818	0.00291936	-0.000536093	-22.7942	3.31954	3.06029	1.28607	0.277871	0.116933	0.301472	22.8223	1860.64	4421.46	4797.01	-67.1777	0.0000000E+000	0.0000000E+000	0.0000000E+000	67.1777	0.0000000E+000	0.0000000E+000	0.0000000E+000	-67.1777	0.0000000E+000	0.0000000E+000	0.0000000E+000	-22.8223	0.0000000E+000	0.0000000E+000	0.0000000E+000	22.8223	2.37632	67.1777	-2.66318e-06	-1.19387e-05	1.34513e-08	-1.19522e-05	0.268477	6023.93	6.78712	6030.72
3163.08	3.99322	1.8627	4.4063	-25.0074	5.38869	0.268113	-0.0236702	27.0127	4.8273	1	10	0.00501189	0.00113744	0	-0.000133079	3.60827e-06	1.04705e-05	-38.8037	0.00920537	0.00717372	0.00576858	-25.0359	4.41524	4.0004	1.86847	0.205672	0.0959389	0.226948	25.0074	4827.3	10348.7	11419.2	-64.9926	0.0000000E+000	0.0000000E+000	0.0000000E+000	64.9926	0.0000000E+000	0.0000000E+000	0.0000000E+000	-64.9926	0.0000000E+000	0.0000000E+000	0.0000000E+000	-25.0074	0.0000000E+000	0.0000000E+000	0.0000000E+000	25.0074	2.14378	64.9926	-1.79711e-06	-6.34629e-06	-8.54085e-11	-6.3462e-06	0.26811	11327	0.152439	11326.9
1000.32	5.15314	3.12711	6.02775	-31.2509	6.74178	0.268132	-0.0154153	50.8789	13.6935	1	10	0.00484267	0.000803397	0	-0.000139277	-0.000244821	6.32395e-06	-8.21472	0.00787152	0.00779076	0.00112471	-31.2216	6.03499	5.16093	3.12824	0.141828	0.0860664	0.1659	31.2509	13693.5	22565.4	26395.3	-58.7491	0.0000000E+000	0.0000000E+000	0.0000000E+000	58.7491	0.0000000E+000	0.0000000E+000	0.0000000E+000	-58.7491	0.0000000E+000	0.0000000E+000	0.0000000E+000	-31.2509	0.0000000E+000	0.0000000E+000	0.0000000E+000	31.2509	1.64789	58.7491	-2.54144e-06	-4.13334e-06	3.774e-09	-4.13711e-06	0.268377	17393.8	15.8817	17409.7
316.316	7.12954	6.52855	9.66707	-42.4805	8.092	0.268126	-0.0163628	77.0695	35.15	1	10	0.00476644	0.000493059	0	-0.00014478	-5.37216e-05	9.65781e-06	-50.47	0.0195875	0.0124671	0.0151077	-42.4966	9.68647	7.14201	6.54366	0.0762907	0.0698597	0.103444	42.4805	35150	38385.8	52048	-47.5195	0.0000000E+000	0.0000000E+000	0.0000000E+000	47.5195	0.0000000E+000	0.0000000E+000	0.0000000E+000	-47.5195	0.0000000E+000	0.0000000E+000	0.0000000E+000	-42.4805	0.0000000E+000	0.0000000E+000	0.0000000E+000	42.4805	1.09206	47.5195	-1.94365e-06	-4.38729e-06	8.79036e-10	-4.38817e-06	0.26818	16386.3	3.28315	16389.6
100.032	13.2722	13.8498	19.1825	-46.2201	9.43981	0.268138	-0.015669	114.878	59.8847	1	10	0.0047495	0.000247596	0	-0.000151094	-0.000130161	7.37043e-06	33.7493	0.029768	0.0247514	-0.0165379	-46.1326	19.1877	13.2969	13.8333	0.0360688	0.0376387	0.0521309	46.2201	59884.7	57387	82942.4	-43.7799	0.0000000E+000	0.0000000E+000	0.0000000E+000	43.7799	0.0000000E+000	0.0000000E+000	0.0000000E+000	-43.7799	0.0000000E+000	0.0000000E+000	0.0000000E+000	-46.2201	0.0000000E+000	0.0000000E+000	0.0000000E+000	46.2201	0.958292	43.7799	-1.61512e-06	-4.20146e-06	2.0395e-09	-4.2035e-06	0.268268	17112.7	8.30694	17121
31.6296	29.4245	19.9005	35.5223	-34.0714	11.0206	0.268168	-0.00516139	252.85	79.3578	1	11	0.00474888	0.000133687	0	-0.000153658	-0.000130161	4.85445e-06	16.3595	0.036312	0.0348418	-0.0102278	-34.0263	35.5454	29.4594	19.8903	0.0233189	0.0157711	0.0281514	34.0714	79357.8	117337	141653	-55.9286	0.0000000E+000	0.0000000E+000	0.0000000E+000	55.9286	0.0000000E+000	0.0000000E+000	0.0000000E+000	-55.9286	0.0000000E+000	0.0000000E+000	0.0000000E+000	-34.0714	0.0000000E+000	0.0000000E+000	0.0000000E+000	34.0714	1.47858	55.9286	-8.82676e-07	-1.38412e-06	6.71814e-10	-1.38479e-06	0.268298	51956.5	25.2183	51981.8
10.0032	45.643	16.0194	48.3726	-19.3396	12.3528	0.268182	-0.00463908	993.198	108.925	1	11	0.00473962	9.79816e-05	0	-0.000154831	-0.000321261	6.60053e-06	145.763	0.067365	-0.0556918	-0.0379008	-19.319	48.3075	45.5873	15.9815	0.0195064	0.00684616	0.0206729	19.3396	108925	310354	328914	-70.6604	0.0000000E+000	0.0000000E+000	0.0000000E+000	70.6604	0.0000000E+000	0.0000000E+000	0.0000000E+000	-70.6604	0.0000000E+000	0.0000000E+000	0.0000000E+000	-19.3396	0.0000000E+000	0.0000000E+000	0.0000000E+000	19.3396	2.84924	70.6604	2.27674e-07	-1.24412e-06	1.49035e-09	-1.24561e-06	0.268504	57809.4	69.2511	57878.7
3.1604	54.8281	11.0616	55.9328	-11.4063	13.8694	0.268194	-0.00344112	4552.62	178.059	1	11	0.00473882	8.47235e-05	0	-0.000156452	-0.000225711	3.82984e-06	-54.1778	0.045204	0.0264566	0.0366531	-11.4378	55.966	54.8545	11.0982	0.0175255	0.00353577	0.0178786	11.4063	178059	882569	900352	-78.5937	0.0000000E+000	0.0000000E+000	0.0000000E+000	78.5937	0.0000000E+000	0.0000000E+000	0.0000000E+000	-78.5937	0.0000000E+000	0.0000000E+000	0.0000000E+000	-11.4063	0.0000000E+000	0.0000000E+000	0.0000000E+000	11.4063	4.95662	78.5937	3.33329e-07	-9.22888e-07	7.767e-10	-9.23665e-07	0.268419	77937.8	65.5923	78003.4
1.00006	60.9717	8.08338	61.5052	-7.55201	18.9729	0.268195	-0.00219624	19687.9	340.065	1	12	0.00473788	7.70322e-05	0	-0.000162257	8.00481e-05	4.31379e-06	-7.31316	0.0559998	0.0555443	0.00712835	-7.55179	61.5612	61.0272	8.09051	0.0161178	0.00213683	0.0162588	7.55201	340065	2.56506e+06	2.5875e+06	-82.448	0.0000000E+000	0.0000000E+000	0.0000000E+000	82.448	0.0000000E+000	0.0000000E+000	0.0000000E+000	-82.448	0.0000000E+000	0.0000000E+000	0.0000000E+000	-7.55201	0.0000000E+000	0.0000000E+000	0.0000000E+000	7.55201	7.54284	82.448	-3.84584e-06	-5.89021e-07	-1.75805e-10	-5.88846e-07	0.268115	122115	36.4477	122079
0.316193	65.6704	6.87478	66.0293	-5.97631	33.3167	0.268189	-0.0023649	73216.5	793.695	1	12	0.00474399	7.18468e-05	0	-0.000171684	-3.46116e-05	6.17715e-07	12.7604	0.00859767	0.00838533	-0.001899	-5.97391	66.0374	65.6788	6.87289	0.0150625	0.00157683	0.0151448	5.97631	793694	7.58166e+06	7.62309e+06	-84.0237	0.0000000E+000	0.0000000E+000	0.0000000E+000	84.0237	0.0000000E+000	0.0000000E+000	0.0000000E+000	-84.0237	0.0000000E+000	0.0000000E+000	0.0000000E+000	-5.97631	0.0000000E+000	0.0000000E+000	0.0000000E+000	5.97631	9.55236	84.0237	-9.05837e-07	-6.3424e-07	8.1853e-11	-6.34322e-07	0.268224	113404	14.6356	113419
0.0999041	69.3856	7.92007	69.8361	-6.51189	78.5244	0.268183	-0.001191	201144	2587.05	1	12	0.00474311	6.79177e-05	0	-0.000160922	-0.000244821	2.88143e-06	12.2627	0.0424254	0.0414574	-0.00901094	-6.50069	69.8763	69.427	7.91106	0.0142269	0.00162393	0.0143192	6.51189	2.58705e+06	2.26645e+07	2.28117e+07	-83.4881	0.0000000E+000	0.0000000E+000	0.0000000E+000	83.4881	0.0000000E+000	0.0000000E+000	0.0000000E+000	-83.4881	0.0000000E+000	0.0000000E+000	0.0000000E+000	-6.51189	0.0000000E+000	0.0000000E+000	0.0000000E+000	6.51189	8.76073	83.4881	2.41715e-06	-3.19406e-07	2.91583e-10	-3.19698e-07	0.268427	225174	205.559	225379
0.0315922	74.4821	13.9023	75.7684	-10.5728	221.408	0.268185	-0.000312658	362372	12199.7	1	12	0.00474505	6.26257e-05	0	-0.000261571	3.60827e-06	4.11892e-06	-0.29189	0.0657704	0.0657696	0.000335062	-10.5639	75.8331	74.5478	13.9026	0.012974	0.00242164	0.0131981	10.5728	1.21997e+07	6.53605e+07	6.64894e+07	-79.4272	0.0000000E+000	0.0000000E+000	0.0000000E+000	79.4272	0.0000000E+000	0.0000000E+000	0.0000000E+000	-79.4272	0.0000000E+000	0.0000000E+000	0.0000000E+000	-10.5728	0.0000000E+000	0.0000000E+000	0.0000000E+000	10.5728	5.35754	79.4272	-6.19045e-05	-8.38502e-08	-1.12816e-12	-8.38491e-08	0.268181	857757	11.5406	857746
0.0100092	84.3031	28.3054	88.9281	-18.5599	672.631	0.268185	-0.000686482	561763	56913.2	1	12	0.00474225	5.33268e-05	0	-0.00039308	8.00481e-05	1.96408e-06	2.0133	0.036831	0.0368083	-0.00129393	-18.5515	88.9626	84.3399	28.3041	0.0106602	0.00357924	0.011245	18.5599	5.69132e+07	1.69507e+08	1.78806e+08	-71.4401	0.0000000E+000	0.0000000E+000	0.0000000E+000	71.4401	0.0000000E+000	0.0000000E+000	0.0000000E+000	-71.4401	0.0000000E+000	0.0000000E+000	0.0000000E+000	-18.5599	0.0000000E+000	0.0000000E+000	0.0000000E+000	18.5599	2.97834	71.4401	1.28852e-05	-1.84104e-07	-5.49516e-11	-1.84049e-07	0.268105	390666	116.606	390549