File: txt/18482_R301_UA694_SOC00_C05.mpt
EC-Lab ASCII FILE
Nb header lines : 65

Potentio Electrochemical Impedance Spectroscopy

Run on channel : 5 (SN 65912)
User :
CE vs. WE compliance from -10 V to 10 V
Electrode connection : standard
Potential control : Ewe
Ewe ctrl range : min = -10.00 V, max = 10.00 V
Safety Limits :
	Do not start on E overload
Acquisition started on : 10/21/2025 09:26:41.171
Technique started on : 10/21/2025 09:26:43.225
Loaded Setting File :  C:\Users\Celltest\OneDrive - store-dot.com\Documents\EC-Lab\Data\@Biologic Test Protocols\anode half cell EIS SOC00.mps
Saved on :
	File : 18482_R301_UA694_SOC00_C05.mpr
	Directory : C:\Users\Celltest\OneDrive - store-dot.com\Documents\EC-Lab\Data\Gyutae\
	Host : 169.254.61.224
Device : VMP-3e (SN .003165)
Address : USB
EC-LAB for windows v11.62 (software)
Internet server v27.00 (firmware)
Command interpretor v12.03 (firmware)
Electrode material :
Initial state :
Electrolyte :
Comments :
Electrode surface area : 0.001 cm²
Characteristic mass : 0.001 g
Equivalent Weight : 0.000 g/eq.
Density : 0.000 g/cm3
Volume (V) : 0.001 cm³
Record Ece
Cycle Definition : Charge/Discharge alternance
Mode                Single sine
E (V)               0.0000
vs.                 Eoc
tE (h:m:s)          0:00:0.0000
record              0
dI                  0.000
unit dI             mA
dt (s)              0.000
fi                  100.000
unit fi             kHz
ff                  10.000
unit ff             mHz
Nd                  6
Points              per decade
spacing             Logarithmic
Va (mV)             5.0
pw                  0.10
Na                  2
corr                0
E range min (V)     -10.000
E range max (V)     10.000
I Range             Auto
Bandwidth           5
nc cycles           0
goto Ns'            0
nr cycles           0
inc. cycle          0

freq/Hz	Re(Z)/Ohm	-Im(Z)/Ohm	|Z|/Ohm	Phase(Z)/deg	time/s	<Ewe>/V	<I>/mA	Cs/µF	Cp/µF	cycle number	I Range	|Ewe|/V	|I|/A	Ns	(Q-Qo)/mA.h	<Ece>/V	|Ece|/V	Phase(Zce)/deg	|Zce|/Ohm	Re(Zce)/Ohm	-Im(Zce)/Ohm	Phase(Zwe-ce)/deg	|Zwe-ce|/Ohm	Re(Zwe-ce)/Ohm	-Im(Zwe-ce)/Ohm	Re(Y)/Ohm-1	Im(Y)/Ohm-1	|Y|/Ohm-1	Phase(Y)/deg	Re(C)/nF	Im(C)/nF	|C|/nF	Phase(C)/deg	Re(M)	Im(M)	|M|	Phase(M)/deg	Re(Permittivity)	Im(Permittivity)	|Permittivity|	Phase(Permittivity)/deg	Re(Resistivity)/Ohm.cm	Im(Resistivity)/Ohm.cm	|Resistivity|/Ohm.cm	Phase(Resistivity)/deg	Re(Conductivity)/mS/cm	Im(Conductivity)/mS/cm	|Conductivity|/mS/cm	Phase(Conductivity)/deg	Tan(Delta)	Loss Angle(Delta)/deg	dq/mA.h	Pwe/W	Pce/W	Pwe-ce/W	<Ewe-Ece>/V	Rwe/Ohm	Rce/Ohm	Rwe-ce/Ohm		Ewe-Ece/V
100004	1.06992	0.408444	1.14523	-20.8945	2.05352	0.257516	-0.00102696	3.89647	0.495624	1	9	0.0048812	0.00426221	0	-8.54516e-07	9.21806e-05	4.63189e-05	68.3294	0.0108673	0.00401299	-0.0100992	-20.351	1.14543	1.07393	0.398345	0.815767	0.311421	0.873189	20.8945	495.624	1298.28	1389.67	-69.1055	0.0000000E+000	0.0000000E+000	0.0000000E+000	69.1055	0.0000000E+000	0.0000000E+000	0.0000000E+000	-69.1055	0.0000000E+000	0.0000000E+000	0.0000000E+000	-20.8945	0.0000000E+000	0.0000000E+000	0.0000000E+000	20.8945	2.61949	69.1055	-8.54516e-07	-2.64459e-07	-9.46659e-11	-2.64364e-07	0.257424	250755	89.7606	250666
31621.1	1.42482	0.591214	1.54261	-22.5355	3.33054	0.257481	-0.00620332	8.5133	1.25048	1	9	0.00539993	0.00350052	0	-2.28855e-06	0.000187637	1.72185e-05	38.5822	0.00491883	0.00384512	-0.00306756	-22.3758	1.54499	1.42866	0.588147	0.598754	0.248447	0.648253	22.5355	1250.48	3013.64	3262.77	-67.4645	0.0000000E+000	0.0000000E+000	0.0000000E+000	67.4645	0.0000000E+000	0.0000000E+000	0.0000000E+000	-67.4645	0.0000000E+000	0.0000000E+000	0.0000000E+000	-22.5355	0.0000000E+000	0.0000000E+000	0.0000000E+000	22.5355	2.40998	67.4645	-4.30362e-07	-1.59724e-06	-1.16397e-09	-1.59607e-06	0.257294	41507	30.2478	41476.8
10002.2	1.88777	0.823392	2.05953	-23.5655	4.47955	0.257475	-0.00787912	19.3249	3.08883	1	9	0.00543094	0.00263698	0	2.51017e-06	5.39982e-05	1.26794e-05	-2.18241	0.00480829	0.0048048	0.000183104	-23.5168	2.06401	1.89258	0.823576	0.445055	0.19412	0.485548	23.5655	3088.84	7081.7	7726.02	-66.4345	0.0000000E+000	0.0000000E+000	0.0000000E+000	66.4345	0.0000000E+000	0.0000000E+000	0.0000000E+000	-66.4345	0.0000000E+000	0.0000000E+000	0.0000000E+000	-23.5655	0.0000000E+000	0.0000000E+000	0.0000000E+000	23.5655	2.29268	66.4345	-5.76794e-06	-2.02868e-06	-4.25458e-10	-2.02825e-06	0.257421	32678.2	6.85333	32671.3
3163.08	2.52179	1.19878	2.79222	-25.4249	5.63067	0.257437	-0.0358462	41.9731	7.73658	1	9	0.00543572	0.00194674	0	3.50527e-06	0.000187637	6.8265e-06	-3.31205	0.00350663	0.00350078	0.000202592	-25.3978	2.79547	2.52529	1.19898	0.323452	0.153759	0.358138	25.4249	7736.58	16274.9	18020.2	-64.5751	0.0000000E+000	0.0000000E+000	0.0000000E+000	64.5751	0.0000000E+000	0.0000000E+000	0.0000000E+000	-64.5751	0.0000000E+000	0.0000000E+000	0.0000000E+000	-25.4249	0.0000000E+000	0.0000000E+000	0.0000000E+000	25.4249	2.10364	64.5751	-5.3547e-06	-9.22814e-06	-6.72607e-09	-9.22141e-06	0.257249	7181.69	5.23449	7176.46
1000.32	3.33385	1.91268	3.84355	-29.8436	7.23085	0.257468	-0.0122335	83.1837	20.5996	1	10	0.00530914	0.00138131	0	-2.71458e-06	-0.000194188	1.27548e-05	32.1947	0.00923387	0.00781409	-0.00491978	-29.7221	3.84789	3.34166	1.90776	0.225673	0.129472	0.260176	29.8436	20599.6	35905.5	41395	-60.1564	0.0000000E+000	0.0000000E+000	0.0000000E+000	60.1564	0.0000000E+000	0.0000000E+000	0.0000000E+000	-60.1564	0.0000000E+000	0.0000000E+000	0.0000000E+000	-29.8436	0.0000000E+000	0.0000000E+000	0.0000000E+000	29.8436	1.74302	60.1564	-1.22812e-06	-3.14974e-06	2.3756e-09	-3.15212e-06	0.257662	21046.1	15.8734	21062
316.316	4.76636	3.65383	6.00572	-37.4733	8.58002	0.257442	-0.0124011	137.705	50.9703	1	10	0.00507102	0.000844366	0	-6.5265e-06	-0.000308735	7.57766e-06	-34.6278	0.00897438	0.00738466	0.00509963	-37.4691	6.01468	4.77375	3.65893	0.132147	0.101302	0.166508	37.4733	50970.3	66489.9	83778.8	-52.5267	0.0000000E+000	0.0000000E+000	0.0000000E+000	52.5267	0.0000000E+000	0.0000000E+000	0.0000000E+000	-52.5267	0.0000000E+000	0.0000000E+000	0.0000000E+000	-37.4733	0.0000000E+000	0.0000000E+000	0.0000000E+000	37.4733	1.30448	52.5267	-1.32074e-06	-3.19256e-06	3.82865e-09	-3.19639e-06	0.257751	20759.6	24.8958	20784.5
100.032	8.8068	6.3031	10.83	-35.5916	9.92686	0.257457	-0.0120101	252.422	85.5025	1	10	0.00501389	0.000462964	0	-1.18404e-05	0.000206728	8.71133e-06	73.9175	0.0188164	0.00521256	-0.01808	-35.4977	10.8237	8.81201	6.28502	0.0750865	0.05374	0.0923362	35.5916	85502.5	119466	146911	-54.4084	0.0000000E+000	0.0000000E+000	0.0000000E+000	54.4084	0.0000000E+000	0.0000000E+000	0.0000000E+000	-54.4084	0.0000000E+000	0.0000000E+000	0.0000000E+000	-35.5916	0.0000000E+000	0.0000000E+000	0.0000000E+000	35.5916	1.39722	54.4084	-1.08415e-06	-3.09209e-06	-2.48283e-09	-3.08961e-06	0.25725	21436.6	17.2128	21419.4
31.6296	14.9768	6.03841	16.1483	-21.9584	11.2555	0.257456	-0.0131086	833.306	116.518	1	10	0.0049982	0.000309518	0	-1.55593e-05	-6.05491e-05	7.9678e-06	30.7677	0.0257426	0.0221193	-0.0131688	-21.8858	16.1639	14.999	6.02524	0.0574335	0.0231562	0.0619259	21.9584	116518	288996	311602	-68.0416	0.0000000E+000	0.0000000E+000	0.0000000E+000	68.0416	0.0000000E+000	0.0000000E+000	0.0000000E+000	-68.0416	0.0000000E+000	0.0000000E+000	0.0000000E+000	-21.9584	0.0000000E+000	0.0000000E+000	0.0000000E+000	21.9584	2.48026	68.0416	-9.02418e-07	-3.37488e-06	7.93711e-10	-3.37568e-06	0.257517	19640.3	4.61905	19645
10.0032	18.6177	3.96657	19.0355	-12.0273	12.8188	0.257468	-0.00752889	4011.13	174.167	1	11	0.00499836	0.00026258	0	-1.89287e-05	0.000168545	2.50887e-05	75.7843	0.0955467	0.0234637	-0.0926209	-11.7399	19.0394	18.6412	3.87395	0.0513801	0.0109467	0.0525333	12.0273	174167	817478	835826	-77.9727	0.0000000E+000	0.0000000E+000	0.0000000E+000	77.9727	0.0000000E+000	0.0000000E+000	0.0000000E+000	-77.9727	0.0000000E+000	0.0000000E+000	0.0000000E+000	-12.0273	0.0000000E+000	0.0000000E+000	0.0000000E+000	12.0273	4.69365	77.9727	-2.92067e-06	-1.93845e-06	-1.26896e-09	-1.93718e-06	0.2573	34197.4	22.3865	34175
3.1604	20.6062	2.54653	20.763	-7.04493	14.3354	0.257453	-0.00717687	19775.6	297.473	1	11	0.00499342	0.000240496	0	-2.36399e-05	-0.00023237	2.75744e-06	-62.4107	0.0114656	0.00531009	0.0101619	-7.07096	20.7695	20.6115	2.5567	0.047799	0.00590703	0.0481626	7.04493	297473	2.40712e+06	2.42543e+06	-82.9551	0.0000000E+000	0.0000000E+000	0.0000000E+000	82.9551	0.0000000E+000	0.0000000E+000	0.0000000E+000	-82.9551	0.0000000E+000	0.0000000E+000	0.0000000E+000	-7.04493	0.0000000E+000	0.0000000E+000	0.0000000E+000	7.04493	8.09188	82.9551	-4.73192e-06	-1.8477e-06	1.66769e-09	-1.84937e-06	0.257685	35872.6	32.3776	35904.9
1.00006	21.9367	1.83843	22.0136	-4.79055	19.9756	0.257456	-0.00635434	86565.4	603.751	1	12	0.00499534	0.00022692	0	-2.42737e-05	-0.000175096	4.91026e-06	5.02081	0.0216387	0.0215556	-0.00189377	-4.78096	22.0349	21.9583	1.83654	0.0452677	0.00379372	0.0454264	4.79055	603751	7.20412e+06	7.22938e+06	-85.2095	0.0000000E+000	0.0000000E+000	0.0000000E+000	85.2095	0.0000000E+000	0.0000000E+000	0.0000000E+000	-85.2095	0.0000000E+000	0.0000000E+000	0.0000000E+000	-4.79055	0.0000000E+000	0.0000000E+000	0.0000000E+000	4.79055	11.9323	85.2095	2.14956e-06	-1.63596e-06	1.11262e-09	-1.63707e-06	0.257631	40516.5	27.5554	40544.1
0.316193	22.8035	1.80187	22.8746	-4.51797	34.32	0.257468	-0.00266385	279347	1733.34	1	12	0.00499906	0.000218542	0	-5.13041e-05	0.000206728	1.99552e-06	-3.31342	0.00913107	0.00911581	0.000527756	-4.51749	22.8837	22.8126	1.8024	0.0435808	0.00344363	0.0437166	4.51797	1.73334e+06	2.19363e+07	2.20046e+07	-85.482	0.0000000E+000	0.0000000E+000	0.0000000E+000	85.482	0.0000000E+000	0.0000000E+000	0.0000000E+000	-85.482	0.0000000E+000	0.0000000E+000	0.0000000E+000	-4.51797	0.0000000E+000	0.0000000E+000	0.0000000E+000	4.51797	12.6555	85.482	-2.0841e-05	-6.85857e-07	-5.50693e-10	-6.85306e-07	0.257261	96652.4	77.6048	96574.8
0.0999041	23.8185	2.96138	24.0019	-7.0873	79.5279	0.25746	-0.0037972	537950	8189.21	1	12	0.00499334	0.00020804	0	-0.000165466	0.000111272	2.69443e-06	0.354446	0.0129515	0.0129512	-8.01207e-05	-7.0833	24.0147	23.8314	2.9613	0.0413451	0.0051405	0.0416635	7.0873	8.18921e+06	6.5866e+07	6.63731e+07	-82.9127	0.0000000E+000	0.0000000E+000	0.0000000E+000	82.9127	0.0000000E+000	0.0000000E+000	0.0000000E+000	-82.9127	0.0000000E+000	0.0000000E+000	0.0000000E+000	-7.0873	0.0000000E+000	0.0000000E+000	0.0000000E+000	7.0873	8.04302	82.9127	-3.3801e-05	-9.77626e-07	-4.22521e-10	-9.77204e-07	0.257349	67802.6	29.3037	67773.3
0.0315922	25.568	6.18304	26.305	-13.5947	222.412	0.25746	-0.00104959	814776	45016	1	12	0.00499679	0.000189956	0	5.01105e-05	0.000264002	1.37917e-06	-42.794	0.00726046	0.00532773	0.0049325	-13.6024	26.3113	25.5733	6.18797	0.0369506	0.00893566	0.0380156	13.5947	4.5016e+07	1.86149e+08	1.91515e+08	-76.4053	0.0000000E+000	0.0000000E+000	0.0000000E+000	76.4053	0.0000000E+000	0.0000000E+000	0.0000000E+000	-76.4053	0.0000000E+000	0.0000000E+000	0.0000000E+000	-13.5947	0.0000000E+000	0.0000000E+000	0.0000000E+000	13.5947	4.13518	76.4053	0.000144598	-2.70227e-07	-2.77093e-10	-2.6995e-07	0.257196	245296	251.529	245045
0.0100092	29.4347	14.0023	32.5955	-25.4408	673.635	0.257463	0.000523843	1.13559e+06	209560	1	12	0.0049937	0.000153202	0	-6.14233e-05	3.4907e-05	3.61074e-06	-27.0779	0.0235685	0.0209851	0.0107284	-25.442	32.619	29.4557	14.0131	0.0277041	0.0131791	0.0306791	25.4408	2.09559e+08	4.40521e+08	4.87826e+08	-64.5592	0.0000000E+000	0.0000000E+000	0.0000000E+000	64.5592	0.0000000E+000	0.0000000E+000	0.0000000E+000	-64.5592	0.0000000E+000	0.0000000E+000	0.0000000E+000	-25.4408	0.0000000E+000	0.0000000E+000	0.0000000E+000	25.4408	2.10213	64.5592	-0.000277319	1.3487e-07	1.82858e-11	1.34852e-07	0.257429	491489	66.6363	491423