File: txt/18485_R301_UA694_SOC00_C07.mpt
EC-Lab ASCII FILE
Nb header lines : 65

Potentio Electrochemical Impedance Spectroscopy

Run on channel : 7 (SN 66126)
User :
CE vs. WE compliance from -10 V to 10 V
Electrode connection : standard
Potential control : Ewe
Ewe ctrl range : min = -10.00 V, max = 10.00 V
Safety Limits :
	Do not start on E overload
Acquisition started on : 10/21/2025 09:26:52.819
Technique started on : 10/21/2025 09:26:54.730
Loaded Setting File :  C:\Users\Celltest\OneDrive - store-dot.com\Documents\EC-Lab\Data\@Biologic Test Protocols\anode half cell EIS SOC00.mps
Saved on :
	File : 18485_R301_UA694_SOC00_C07.mpr
	Directory : C:\Users\Celltest\OneDrive - store-dot.com\Documents\EC-Lab\Data\Gyutae\
	Host : 169.254.61.224
Device : VMP-3e (SN .003165)
Address : USB
EC-LAB for windows v11.62 (software)
Internet server v27.00 (firmware)
Command interpretor v12.03 (firmware)
Electrode material :
Initial state :
Electrolyte :
Comments :
Electrode surface area : 0.001 cm²
Characteristic mass : 0.001 g
Equivalent Weight : 0.000 g/eq.
Density : 0.000 g/cm3
Volume (V) : 0.001 cm³
Record Ece
Cycle Definition : Charge/Discharge alternance
Mode                Single sine
E (V)               0.0000
vs.                 Eoc
tE (h:m:s)          0:00:0.0000
record              0
dI                  0.000
unit dI             mA
dt (s)              0.000
fi                  100.000
unit fi             kHz
ff                  10.000
unit ff             mHz
Nd                  6
Points              per decade
spacing             Logarithmic
Va (mV)             5.0
pw                  0.10
Na                  2
corr                0
E range min (V)     -10.000
E range max (V)     10.000
I Range             Auto
Bandwidth           5
nc cycles           0
goto Ns'            0
nr cycles           0
inc. cycle          0

freq/Hz	Re(Z)/Ohm	-Im(Z)/Ohm	|Z|/Ohm	Phase(Z)/deg	time/s	<Ewe>/V	<I>/mA	Cs/µF	Cp/µF	cycle number	I Range	|Ewe|/V	|I|/A	Ns	(Q-Qo)/mA.h	<Ece>/V	|Ece|/V	Phase(Zce)/deg	|Zce|/Ohm	Re(Zce)/Ohm	-Im(Zce)/Ohm	Phase(Zwe-ce)/deg	|Zwe-ce|/Ohm	Re(Zwe-ce)/Ohm	-Im(Zwe-ce)/Ohm	Re(Y)/Ohm-1	Im(Y)/Ohm-1	|Y|/Ohm-1	Phase(Y)/deg	Re(C)/nF	Im(C)/nF	|C|/nF	Phase(C)/deg	Re(M)	Im(M)	|M|	Phase(M)/deg	Re(Permittivity)	Im(Permittivity)	|Permittivity|	Phase(Permittivity)/deg	Re(Resistivity)/Ohm.cm	Im(Resistivity)/Ohm.cm	|Resistivity|/Ohm.cm	Phase(Resistivity)/deg	Re(Conductivity)/mS/cm	Im(Conductivity)/mS/cm	|Conductivity|/mS/cm	Phase(Conductivity)/deg	Tan(Delta)	Loss Angle(Delta)/deg	dq/mA.h	Pwe/W	Pce/W	Pwe-ce/W	<Ewe-Ece>/V	Rwe/Ohm	Rce/Ohm	Rwe-ce/Ohm		Ewe-Ece/V
100004	1.31819	0.514654	1.4151	-21.3268	1.91051	0.266032	0.0652449	3.09235	0.409021	1	9	0.00463261	0.0032737	0	7.38736e-07	-0.000135842	4.10539e-05	83.7588	0.0125405	0.00136334	-0.0124662	-20.8354	1.41189	1.31956	0.502187	0.658273	0.257005	0.706664	21.3268	409.021	1047.63	1124.65	-68.6732	0.0000000E+000	0.0000000E+000	0.0000000E+000	68.6732	0.0000000E+000	0.0000000E+000	0.0000000E+000	-68.6732	0.0000000E+000	0.0000000E+000	0.0000000E+000	-21.3268	0.0000000E+000	0.0000000E+000	0.0000000E+000	21.3268	2.56132	68.6732	7.38736e-07	1.73573e-05	-8.863e-09	1.73661e-05	0.266168	4077.44	2.08203	4079.52
31621.1	1.78555	0.780816	1.94881	-23.6196	3.43353	0.266023	0.0620054	6.44605	1.03479	1	9	0.00514412	0.00263962	0	2.74476e-05	-4.04649e-05	1.74054e-05	53.9684	0.00659389	0.00387874	-0.00533243	-23.4305	1.95024	1.78943	0.775484	0.470146	0.205594	0.513134	23.6196	1034.79	2366.33	2582.7	-66.3804	0.0000000E+000	0.0000000E+000	0.0000000E+000	66.3804	0.0000000E+000	0.0000000E+000	0.0000000E+000	-66.3804	0.0000000E+000	0.0000000E+000	0.0000000E+000	-23.6196	0.0000000E+000	0.0000000E+000	0.0000000E+000	23.6196	2.28677	66.3804	1.30192e-05	1.64949e-05	-2.50904e-09	1.64974e-05	0.266063	4290.32	0.652603	4290.97
10002.2	2.40195	1.07097	2.62989	-24.0309	4.33653	0.266022	0.0564572	14.8575	2.46391	1	9	0.00501509	0.00190696	0	4.79021e-05	-0.000460124	7.52266e-06	-34.9818	0.00394485	0.00323215	0.00226165	-24.0472	2.63376	2.40518	1.07323	0.347287	0.154846	0.380244	24.0309	2463.91	5526.01	6050.43	-65.9691	0.0000000E+000	0.0000000E+000	0.0000000E+000	65.9691	0.0000000E+000	0.0000000E+000	0.0000000E+000	-65.9691	0.0000000E+000	0.0000000E+000	0.0000000E+000	-24.0309	0.0000000E+000	0.0000000E+000	0.0000000E+000	24.0309	2.24278	65.9691	4.25576e-06	1.50188e-05	-2.59773e-08	1.50448e-05	0.266482	4711.92	8.14997	4720.07
3163.08	3.23746	1.54461	3.58706	-25.5061	5.23566	0.265847	0.0134123	32.5754	6.04022	1	9	0.00459365	0.00128062	0	5.4685e-05	-0.000288445	1.218e-05	-130.969	0.00951102	-0.00623588	0.00718146	-25.6526	3.58454	3.23123	1.5518	0.25161	0.120045	0.27878	25.5061	6040.22	12660.1	14027.2	-64.4939	0.0000000E+000	0.0000000E+000	0.0000000E+000	64.4939	0.0000000E+000	0.0000000E+000	0.0000000E+000	-64.4939	0.0000000E+000	0.0000000E+000	0.0000000E+000	-25.5061	0.0000000E+000	0.0000000E+000	0.0000000E+000	25.5061	2.09597	64.4939	2.54641e-06	3.56561e-06	-3.8687e-09	3.56948e-06	0.266136	19821.2	21.5061	19842.7
1000.32	4.32347	2.40149	4.94566	-29.0502	6.83386	0.265936	-0.0158433	66.2521	15.6212	1	10	0.00458057	0.00092618	0	5.23176e-05	-0.000135842	1.60701e-05	-5.36132	0.017351	0.0172751	0.00162121	-28.9697	4.96155	4.34074	2.40312	0.17676	0.0981824	0.202198	29.0502	15621.2	28123.2	32170.4	-60.9498	0.0000000E+000	0.0000000E+000	0.0000000E+000	60.9498	0.0000000E+000	0.0000000E+000	0.0000000E+000	-60.9498	0.0000000E+000	0.0000000E+000	0.0000000E+000	-29.0502	0.0000000E+000	0.0000000E+000	0.0000000E+000	29.0502	1.80032	60.9498	-2.6592e-06	-4.2133e-06	2.15219e-09	-4.21545e-06	0.266072	16785.4	8.57409	16793.9
316.316	5.88013	4.55593	7.43858	-37.7686	8.18402	0.265917	-0.0158992	110.439	41.4283	1	10	0.00450076	0.000605057	0	4.72768e-05	-0.000212144	5.14904e-06	72.2641	0.00851001	0.00259241	-0.00810553	-37.707	7.43567	5.88272	4.54783	0.106269	0.0823375	0.134434	37.7686	41428.3	53469.5	67640.9	-52.2314	0.0000000E+000	0.0000000E+000	0.0000000E+000	52.2314	0.0000000E+000	0.0000000E+000	0.0000000E+000	-52.2314	0.0000000E+000	0.0000000E+000	0.0000000E+000	-37.7686	0.0000000E+000	0.0000000E+000	0.0000000E+000	37.7686	1.29065	52.2314	-1.63612e-06	-4.22785e-06	3.37291e-09	-4.23123e-06	0.266129	16725.2	13.3431	16738.6
100.032	10.2512	9.09501	13.7042	-41.58	9.7458	0.265927	-0.0175186	174.935	77.0506	1	10	0.00484546	0.000353574	0	4.00994e-05	-7.86157e-05	8.55728e-06	-5.47989	0.0242022	0.0240916	0.00231123	-41.5205	13.7238	10.2752	9.09732	0.0545839	0.0484278	0.0729702	41.58	77050.6	86845.2	116099	-48.42	0.0000000E+000	0.0000000E+000	0.0000000E+000	48.42	0.0000000E+000	0.0000000E+000	0.0000000E+000	-48.42	0.0000000E+000	0.0000000E+000	0.0000000E+000	-41.58	0.0000000E+000	0.0000000E+000	0.0000000E+000	41.58	1.12712	48.42	-1.63344e-06	-4.65866e-06	1.37724e-09	-4.66004e-06	0.266006	15179.7	4.48757	15184.2
31.6296	20.5967	11.8792	23.7769	-29.9742	11.3145	0.26596	-0.00838799	423.585	105.731	1	11	0.00485286	0.0002041	0	3.54186e-05	-0.000288445	8.47983e-06	60.4102	0.0415474	0.0205156	-0.0361289	-29.8741	23.7766	20.6172	11.843	0.0364325	0.0210124	0.0420577	29.9742	105731	183322	211628	-60.0258	0.0000000E+000	0.0000000E+000	0.0000000E+000	60.0258	0.0000000E+000	0.0000000E+000	0.0000000E+000	-60.0258	0.0000000E+000	0.0000000E+000	0.0000000E+000	-29.9742	0.0000000E+000	0.0000000E+000	0.0000000E+000	29.9742	1.73385	60.0258	-1.42502e-06	-2.23087e-06	2.41948e-09	-2.23329e-06	0.266248	31707.2	34.3879	31741.6
10.0032	29.5289	8.80597	30.814	-16.6054	12.6468	0.265958	-0.00797761	1806.77	147.558	1	11	0.00484208	0.000157139	0	3.33738e-05	-0.000193068	7.28673e-06	41.8005	0.0463712	0.0345684	-0.0309083	-16.532	30.8383	29.5635	8.77506	0.0310994	0.00927432	0.0324528	16.6054	147558	494804	516337	-73.3946	0.0000000E+000	0.0000000E+000	0.0000000E+000	73.3946	0.0000000E+000	0.0000000E+000	0.0000000E+000	-73.3946	0.0000000E+000	0.0000000E+000	0.0000000E+000	-16.6054	0.0000000E+000	0.0000000E+000	0.0000000E+000	16.6054	3.35328	73.3946	3.12876e-07	-2.12171e-06	1.54022e-09	-2.12325e-06	0.266151	33338.1	24.2013	33362.3
3.1604	34.341	5.75356	34.8197	-9.5111	14.1634	0.265984	-0.00643877	8752.7	238.982	1	11	0.0048504	0.000139301	0	3.06016e-05	-0.000288445	4.85517e-06	-34.2817	0.0348539	0.028799	0.0196319	-9.53511	34.8513	34.3698	5.77319	0.0283246	0.00474555	0.0287194	9.5111	238982	1.4264e+06	1.44628e+06	-80.4889	0.0000000E+000	0.0000000E+000	0.0000000E+000	80.4889	0.0000000E+000	0.0000000E+000	0.0000000E+000	-80.4889	0.0000000E+000	0.0000000E+000	0.0000000E+000	-9.5111	0.0000000E+000	0.0000000E+000	0.0000000E+000	9.5111	5.96866	80.4889	4.7564e-07	-1.71261e-06	1.85723e-09	-1.71447e-06	0.266273	41309.8	44.7982	41354.6
1.00006	37.409	4.12692	37.6359	-6.29536	19.4836	0.265976	-0.0055429	38562.6	463.675	1	12	0.00484909	0.000128842	0	1.93549e-05	-0.000402898	2.60224e-06	15.8807	0.0201971	0.0194263	-0.00552665	-6.28376	37.6546	37.4284	4.1214	0.0264101	0.00291354	0.0265704	6.29536	463675	4.20304e+06	4.22853e+06	-83.7046	0.0000000E+000	0.0000000E+000	0.0000000E+000	83.7046	0.0000000E+000	0.0000000E+000	0.0000000E+000	-83.7046	0.0000000E+000	0.0000000E+000	0.0000000E+000	-6.29536	0.0000000E+000	0.0000000E+000	0.0000000E+000	6.29536	9.06462	83.7046	-7.451e-06	-1.47428e-06	2.23322e-09	-1.47651e-06	0.266379	47985.1	72.6872	48057.8
0.316193	39.6876	3.48788	39.8406	-5.02244	33.8282	0.265982	-0.00518819	144313	1106.06	1	12	0.00485025	0.000121742	0	-4.27539e-06	-2.13895e-05	2.28117e-06	-64.109	0.0187378	0.00818207	0.016857	-5.04555	39.8502	39.6958	3.50473	0.0250037	0.0021974	0.0251	5.02244	1.10606e+06	1.25855e+07	1.2634e+07	-84.9776	0.0000000E+000	0.0000000E+000	0.0000000E+000	84.9776	0.0000000E+000	0.0000000E+000	0.0000000E+000	-84.9776	0.0000000E+000	0.0000000E+000	0.0000000E+000	-5.02244	0.0000000E+000	0.0000000E+000	0.0000000E+000	5.02244	11.3787	84.9776	-5.00831e-06	-1.37996e-06	1.10973e-10	-1.38008e-06	0.266003	51266.7	4.12272	51270.8
0.0999041	41.4143	4.28254	41.6352	-5.90381	79.0373	0.265981	-0.00264333	371994	3935.66	1	12	0.00484997	0.000116487	0	5.96939e-06	-0.000460124	2.27097e-06	-22.3124	0.0194954	0.0180357	0.00740155	-5.91139	41.6539	41.4324	4.28994	0.0238908	0.00247048	0.0240182	5.90381	3.93566e+06	3.80598e+07	3.82628e+07	-84.0962	0.0000000E+000	0.0000000E+000	0.0000000E+000	84.0962	0.0000000E+000	0.0000000E+000	0.0000000E+000	-84.0962	0.0000000E+000	0.0000000E+000	0.0000000E+000	-5.90381	0.0000000E+000	0.0000000E+000	0.0000000E+000	5.90381	9.67051	84.0962	2.99376e-06	-7.03075e-07	1.21626e-09	-7.04291e-07	0.266441	100623	174.07	100797
0.0315922	43.9787	8.1248	44.7229	-10.467	221.922	0.265978	-0.000597457	620051	20464.1	1	12	0.00485075	0.000108462	0	-0.000162026	-0.000212144	2.75445e-06	-9.39962	0.0253954	0.0250544	0.00414756	-10.4664	44.7483	44.0037	8.12894	0.0219878	0.00406212	0.0223599	10.467	2.04641e+07	1.1077e+08	1.12645e+08	-79.533	0.0000000E+000	0.0000000E+000	0.0000000E+000	79.533	0.0000000E+000	0.0000000E+000	0.0000000E+000	-79.533	0.0000000E+000	0.0000000E+000	0.0000000E+000	-10.467	0.0000000E+000	0.0000000E+000	0.0000000E+000	10.467	5.4129	79.533	-0.000106096	-1.5891e-07	1.26747e-10	-1.59037e-07	0.26619	445184	355.078	445539
0.0100092	49.4125	17.8009	52.5211	-19.8116	673.145	0.265982	-0.000993361	893267	102612	1	12	0.00484824	9.23104e-05	0	-0.000426939	-0.000193068	2.73e-06	61.9501	0.0295741	0.0139069	-0.0261003	-19.7797	52.5253	49.4264	17.7748	0.017913	0.00645318	0.01904	19.8116	1.02612e+08	2.84834e+08	3.02753e+08	-70.1884	0.0000000E+000	0.0000000E+000	0.0000000E+000	70.1884	0.0000000E+000	0.0000000E+000	0.0000000E+000	-70.1884	0.0000000E+000	0.0000000E+000	0.0000000E+000	-19.8116	0.0000000E+000	0.0000000E+000	0.0000000E+000	19.8116	2.77585	70.1884	8.00202e-06	-2.64216e-07	1.91786e-10	-2.64408e-07	0.266175	267760	194.359	267954