File: txt/18484_R301_UA694_SOC00_C06.mpt
EC-Lab ASCII FILE
Nb header lines : 65

Potentio Electrochemical Impedance Spectroscopy

Run on channel : 6 (SN 65795)
User :
CE vs. WE compliance from -10 V to 10 V
Electrode connection : standard
Potential control : Ewe
Ewe ctrl range : min = -10.00 V, max = 10.00 V
Safety Limits :
	Do not start on E overload
Acquisition started on : 10/21/2025 09:26:46.959
Technique started on : 10/21/2025 09:26:48.738
Loaded Setting File :  C:\Users\Celltest\OneDrive - store-dot.com\Documents\EC-Lab\Data\@Biologic Test Protocols\anode half cell EIS SOC00.mps
Saved on :
	File : 18484_R301_UA694_SOC00_C06.mpr
	Directory : C:\Users\Celltest\OneDrive - store-dot.com\Documents\EC-Lab\Data\Gyutae\
	Host : 169.254.61.224
Device : VMP-3e (SN .003165)
Address : USB
EC-LAB for windows v11.62 (software)
Internet server v27.00 (firmware)
Command interpretor v12.03 (firmware)
Electrode material :
Initial state :
Electrolyte :
Comments :
Electrode surface area : 0.001 cm²
Characteristic mass : 0.001 g
Equivalent Weight : 0.000 g/eq.
Density : 0.000 g/cm3
Volume (V) : 0.001 cm³
Record Ece
Cycle Definition : Charge/Discharge alternance
Mode                Single sine
E (V)               0.0000
vs.                 Eoc
tE (h:m:s)          0:00:0.0000
record              0
dI                  0.000
unit dI             mA
dt (s)              0.000
fi                  100.000
unit fi             kHz
ff                  10.000
unit ff             mHz
Nd                  6
Points              per decade
spacing             Logarithmic
Va (mV)             5.0
pw                  0.10
Na                  2
corr                0
E range min (V)     -10.000
E range max (V)     10.000
I Range             Auto
Bandwidth           5
nc cycles           0
goto Ns'            0
nr cycles           0
inc. cycle          0

freq/Hz	Re(Z)/Ohm	-Im(Z)/Ohm	|Z|/Ohm	Phase(Z)/deg	time/s	<Ewe>/V	<I>/mA	Cs/µF	Cp/µF	cycle number	I Range	|Ewe|/V	|I|/A	Ns	(Q-Qo)/mA.h	<Ece>/V	|Ece|/V	Phase(Zce)/deg	|Zce|/Ohm	Re(Zce)/Ohm	-Im(Zce)/Ohm	Phase(Zwe-ce)/deg	|Zwe-ce|/Ohm	Re(Zwe-ce)/Ohm	-Im(Zwe-ce)/Ohm	Re(Y)/Ohm-1	Im(Y)/Ohm-1	|Y|/Ohm-1	Phase(Y)/deg	Re(C)/nF	Im(C)/nF	|C|/nF	Phase(C)/deg	Re(M)	Im(M)	|M|	Phase(M)/deg	Re(Permittivity)	Im(Permittivity)	|Permittivity|	Phase(Permittivity)/deg	Re(Resistivity)/Ohm.cm	Im(Resistivity)/Ohm.cm	|Resistivity|/Ohm.cm	Phase(Resistivity)/deg	Re(Conductivity)/mS/cm	Im(Conductivity)/mS/cm	|Conductivity|/mS/cm	Phase(Conductivity)/deg	Tan(Delta)	Loss Angle(Delta)/deg	dq/mA.h	Pwe/W	Pce/W	Pwe-ce/W	<Ewe-Ece>/V	Rwe/Ohm	Rce/Ohm	Rwe-ce/Ohm		Ewe-Ece/V
100004	1.22123	0.414749	1.28974	-18.7583	1.77854	0.26043	0.0581776	3.83723	0.396814	1	9	0.00452995	0.00351231	0	7.60818e-06	-5.65069e-05	4.51333e-05	64.9777	0.0128501	0.00543521	-0.011644	-18.1915	1.2912	1.22667	0.403105	0.734168	0.249335	0.775352	18.7583	396.814	1168.42	1233.96	-71.2417	0.0000000E+000	0.0000000E+000	0.0000000E+000	71.2417	0.0000000E+000	0.0000000E+000	0.0000000E+000	-71.2417	0.0000000E+000	0.0000000E+000	0.0000000E+000	-18.7583	0.0000000E+000	0.0000000E+000	0.0000000E+000	18.7583	2.9445	71.2417	7.60818e-06	1.51512e-05	-3.28744e-09	1.51545e-05	0.260486	4476.46	0.971283	4477.43
31621.1	1.60138	0.68683	1.74246	-23.2144	3.17553	0.26034	0.0491259	7.32813	1.13859	1	9	0.00507402	0.00291199	0	4.18722e-05	0.000325454	1.50003e-05	34.491	0.00515122	0.00424572	-0.00291702	-23.0715	1.74521	1.60563	0.683913	0.527437	0.226217	0.573902	23.2144	1138.59	2654.69	2888.56	-66.7856	0.0000000E+000	0.0000000E+000	0.0000000E+000	66.7856	0.0000000E+000	0.0000000E+000	0.0000000E+000	-66.7856	0.0000000E+000	0.0000000E+000	0.0000000E+000	-23.2144	0.0000000E+000	0.0000000E+000	0.0000000E+000	23.2144	2.33155	66.7856	-2.92684e-07	1.27894e-05	1.59882e-08	1.27734e-05	0.260014	5299.44	6.6249	5292.82
10002.2	2.16258	0.983073	2.37554	-24.4458	4.44856	0.260326	0.0497218	16.1859	2.77196	1	9	0.00542832	0.00228509	0	6.2357e-05	0.000229964	6.60755e-06	81.4151	0.00289159	0.000431643	-0.00285919	-24.3787	2.37475	2.16301	0.980214	0.38322	0.174206	0.420958	24.4458	2771.96	6097.78	6698.26	-65.5542	0.0000000E+000	0.0000000E+000	0.0000000E+000	65.5542	0.0000000E+000	0.0000000E+000	0.0000000E+000	-65.5542	0.0000000E+000	0.0000000E+000	0.0000000E+000	-24.4458	0.0000000E+000	0.0000000E+000	0.0000000E+000	24.4458	2.19981	65.5542	7.58125e-06	1.29439e-05	1.14342e-08	1.29325e-05	0.260096	5235.65	4.625	5231.02
3163.08	2.9069	1.42299	3.2365	-26.0828	5.89768	0.260314	0.0311714	35.3596	6.83534	1	9	0.00529539	0.00163615	0	8.35759e-05	1.98852e-05	2.74911e-06	26.9545	0.00168024	0.00149771	-0.000761621	-26.059	3.23752	2.9084	1.42223	0.277509	0.135847	0.308975	26.0828	6835.34	13963.3	15546.5	-63.9172	0.0000000E+000	0.0000000E+000	0.0000000E+000	63.9172	0.0000000E+000	0.0000000E+000	0.0000000E+000	-63.9172	0.0000000E+000	0.0000000E+000	0.0000000E+000	-26.0828	0.0000000E+000	0.0000000E+000	0.0000000E+000	26.0828	2.04281	63.9172	9.03782e-06	8.11433e-06	6.19849e-10	8.11371e-06	0.260294	8351.06	0.637932	8350.42
1000.32	3.91598	2.22437	4.50364	-29.5976	7.92481	0.260315	-0.00090249	71.5275	17.4486	1	10	0.00515713	0.0011451	0	8.38541e-05	0.000153571	4.16905e-06	-68.3907	0.00364077	0.00134081	0.00338489	-29.6266	4.50648	3.91733	2.22776	0.193069	0.109668	0.222043	29.5976	17448.6	30718.1	35327.9	-60.4024	0.0000000E+000	0.0000000E+000	0.0000000E+000	60.4024	0.0000000E+000	0.0000000E+000	0.0000000E+000	-60.4024	0.0000000E+000	0.0000000E+000	0.0000000E+000	-29.5976	0.0000000E+000	0.0000000E+000	0.0000000E+000	29.5976	1.76049	60.4024	-4.45544e-07	-2.34931e-07	-1.38597e-10	-2.34793e-07	0.260161	288440	170.164	288270
316.316	5.43392	4.20035	6.86807	-37.7036	9.27305	0.260309	-0.00121553	119.788	44.8038	1	10	0.00478573	0.000696808	0	8.28756e-05	0.000249062	1.07819e-05	-4.10198	0.0154733	0.0154337	0.00110683	-37.6323	6.88096	5.44935	4.20145	0.115198	0.0890463	0.145601	37.7036	44803.8	57961.9	73259.6	-52.2964	0.0000000E+000	0.0000000E+000	0.0000000E+000	52.2964	0.0000000E+000	0.0000000E+000	0.0000000E+000	-52.2964	0.0000000E+000	0.0000000E+000	0.0000000E+000	-37.7036	0.0000000E+000	0.0000000E+000	0.0000000E+000	37.7036	1.29368	52.2964	3.75542e-08	-3.16415e-07	-3.02743e-10	-3.16112e-07	0.26006	214152	204.899	213948
100.032	9.76977	7.99719	12.6255	-39.3026	10.6198	0.26032	-0.00082425	198.95	79.8217	1	10	0.00460944	0.00036509	0	8.33688e-05	0.000134473	1.16103e-05	-107.915	0.0318012	-0.00978208	0.0302593	-39.4368	12.6371	9.75999	8.02745	0.0612896	0.0501695	0.0792047	39.3026	79821.7	97514.1	126018	-50.6974	0.0000000E+000	0.0000000E+000	0.0000000E+000	50.6974	0.0000000E+000	0.0000000E+000	0.0000000E+000	-50.6974	0.0000000E+000	0.0000000E+000	0.0000000E+000	-39.3026	0.0000000E+000	0.0000000E+000	0.0000000E+000	39.3026	1.22165	50.6974	-6.01986e-07	-2.14569e-07	-1.1084e-10	-2.14458e-07	0.260185	315826	163.146	315663
31.6296	18.4279	9.26025	20.6237	-26.6802	12.1835	0.260294	-0.00511958	543.381	109.551	1	11	0.00456954	0.000221567	0	8.25921e-05	0.000191768	1.03963e-05	33.6474	0.0469219	0.0390608	-0.0259985	-26.567	20.647	18.4669	9.23425	0.0433252	0.0217715	0.0484879	26.6802	109551	218006	243983	-63.3198	0.0000000E+000	0.0000000E+000	0.0000000E+000	63.3198	0.0000000E+000	0.0000000E+000	0.0000000E+000	-63.3198	0.0000000E+000	0.0000000E+000	0.0000000E+000	-26.6802	0.0000000E+000	0.0000000E+000	0.0000000E+000	26.6802	1.99	63.3198	-4.43798e-07	-1.3326e-06	-9.81768e-10	-1.33161e-06	0.260102	50842.9	37.4577	50805.5
10.0032	24.8537	6.40563	25.6659	-14.4525	13.5158	0.26029	-0.00484463	2483.82	154.715	1	11	0.00456103	0.000177708	0	8.07543e-05	0.000134473	5.40757e-06	-53.9831	0.0304295	0.0178933	0.0246127	-14.4957	25.6893	24.8715	6.43024	0.0377293	0.00972412	0.0389623	14.4525	154715	600288	619905	-75.5475	0.0000000E+000	0.0000000E+000	0.0000000E+000	75.5475	0.0000000E+000	0.0000000E+000	0.0000000E+000	-75.5475	0.0000000E+000	0.0000000E+000	0.0000000E+000	-14.4525	0.0000000E+000	0.0000000E+000	0.0000000E+000	14.4525	3.87997	75.5475	-1.70287e-06	-1.26101e-06	-6.51474e-10	-1.26036e-06	0.260156	53727.5	27.7572	53699.8
3.1604	28.1857	4.1248	28.4859	-8.32579	15.0324	0.260302	-0.00429791	12208.9	255.989	1	11	0.00456445	0.000160236	0	7.75141e-05	0.000249062	6.59968e-06	-39.8841	0.0411874	0.0316048	0.0264109	-8.36909	28.521	28.2173	4.15121	0.0347351	0.00508327	0.0351051	8.32579	255989	1.74923e+06	1.76786e+06	-81.6742	0.0000000E+000	0.0000000E+000	0.0000000E+000	81.6742	0.0000000E+000	0.0000000E+000	0.0000000E+000	-81.6742	0.0000000E+000	0.0000000E+000	0.0000000E+000	-8.32579	0.0000000E+000	0.0000000E+000	0.0000000E+000	8.32579	6.83322	81.6742	-2.94319e-06	-1.11875e-06	-1.07045e-09	-1.11768e-06	0.260053	60564.7	57.9495	60506.7
1.00006	30.3568	2.93337	30.4981	-5.51935	20.6707	0.260309	-0.00398331	54253.2	501.894	1	12	0.00456734	0.000149758	0	7.88647e-05	-0.000113801	1.79757e-06	-1.7287	0.0120031	0.0119977	0.000362098	-5.51786	30.5101	30.3687	2.93373	0.0326369	0.0031537	0.0327889	5.51935	501894	5.19399e+06	5.21818e+06	-84.4807	0.0000000E+000	0.0000000E+000	0.0000000E+000	84.4807	0.0000000E+000	0.0000000E+000	0.0000000E+000	-84.4807	0.0000000E+000	0.0000000E+000	0.0000000E+000	-5.51935	0.0000000E+000	0.0000000E+000	0.0000000E+000	5.51935	10.3488	84.4807	1.56991e-06	-1.03689e-06	4.53304e-10	-1.03735e-06	0.260423	65350.1	28.5695	65378.7
0.316193	31.7779	2.5305	31.8785	-4.5529	35.014	0.260315	-0.00222201	198912	1253.37	1	12	0.00456523	0.000143207	0	5.5753e-05	-5.65069e-05	3.26568e-06	61.6377	0.0228039	0.0108329	-0.0200665	-4.51541	31.8877	31.7888	2.51043	0.0312701	0.00249006	0.0313691	4.5529	1.25337e+06	1.57397e+07	1.57895e+07	-85.4471	0.0000000E+000	0.0000000E+000	0.0000000E+000	85.4471	0.0000000E+000	0.0000000E+000	0.0000000E+000	-85.4471	0.0000000E+000	0.0000000E+000	0.0000000E+000	-4.5529	0.0000000E+000	0.0000000E+000	0.0000000E+000	4.5529	12.558	85.4471	-1.58374e-05	-5.78421e-07	1.25559e-10	-5.78547e-07	0.260371	117153	25.4306	117178
0.0999041	33.1269	3.67495	33.3301	-6.33026	80.2219	0.260309	-0.00281866	433496	5270.06	1	12	0.00456742	0.000137036	0	-1.12218e-05	0.000440042	1.90868e-06	39.9744	0.0139283	0.0106737	-0.00894816	-6.31296	33.3397	33.1375	3.666	0.02982	0.0033081	0.0300029	6.33026	5.27006e+06	4.75056e+07	4.7797e+07	-83.6697	0.0000000E+000	0.0000000E+000	0.0000000E+000	83.6697	0.0000000E+000	0.0000000E+000	0.0000000E+000	-83.6697	0.0000000E+000	0.0000000E+000	0.0000000E+000	-6.33026	0.0000000E+000	0.0000000E+000	0.0000000E+000	6.33026	9.01423	83.6697	-1.59822e-05	-7.33724e-07	-1.24033e-09	-7.32483e-07	0.259869	92352.3	156.118	92196.1
0.0315922	35.3306	7.24351	36.0655	-11.5863	223.106	0.260296	-0.000820864	695491	28054.6	1	12	0.00456543	0.000126587	0	0.000131316	-3.74089e-05	1.88637e-06	-81.786	0.0149018	0.00212903	0.0147489	-11.6085	36.0706	35.3328	7.25826	0.0271623	0.00556883	0.0277273	11.5863	2.80546e+07	1.36838e+08	1.39684e+08	-78.4137	0.0000000E+000	0.0000000E+000	0.0000000E+000	78.4137	0.0000000E+000	0.0000000E+000	0.0000000E+000	-78.4137	0.0000000E+000	0.0000000E+000	0.0000000E+000	-11.5863	0.0000000E+000	0.0000000E+000	0.0000000E+000	11.5863	4.87756	78.4137	8.56273e-05	-2.13668e-07	3.07076e-11	-2.13699e-07	0.260334	317101	45.5726	317146
0.0100092	39.9056	16.2	43.0685	-22.095	674.328	0.260294	0.000308997	981541	138872	1	12	0.00456308	0.000105949	0	-5.96038e-05	0.000229964	2.12244e-06	3.52487	0.0200326	0.0199947	-0.00123164	-22.0835	43.0866	39.9256	16.1987	0.0215137	0.00873361	0.0232188	22.095	1.38872e+08	3.42087e+08	3.692e+08	-67.905	0.0000000E+000	0.0000000E+000	0.0000000E+000	67.905	0.0000000E+000	0.0000000E+000	0.0000000E+000	-67.905	0.0000000E+000	0.0000000E+000	0.0000000E+000	-22.095	0.0000000E+000	0.0000000E+000	0.0000000E+000	22.095	2.46332	67.905	-0.000229488	8.04299e-08	7.1058e-11	8.03589e-08	0.260064	842384	744.227	841639