File: txt/18486_R301_UA694_SOC00_C08.mpt
EC-Lab ASCII FILE
Nb header lines : 65

Potentio Electrochemical Impedance Spectroscopy

Run on channel : 8 (SN 65398)
User :
CE vs. WE compliance from -10 V to 10 V
Electrode connection : standard
Potential control : Ewe
Ewe ctrl range : min = -10.00 V, max = 10.00 V
Safety Limits :
	Do not start on E overload
Acquisition started on : 10/21/2025 09:27:02.604
Technique started on : 10/21/2025 09:27:04.383
Loaded Setting File :  C:\Users\Celltest\OneDrive - store-dot.com\Documents\EC-Lab\Data\@Biologic Test Protocols\anode half cell EIS SOC00.mps
Saved on :
	File : 18486_R301_UA694_SOC00_C08.mpr
	Directory : C:\Users\Celltest\OneDrive - store-dot.com\Documents\EC-Lab\Data\Gyutae\
	Host : 169.254.61.224
Device : VMP-3e (SN .003165)
Address : USB
EC-LAB for windows v11.62 (software)
Internet server v27.00 (firmware)
Command interpretor v12.03 (firmware)
Electrode material :
Initial state :
Electrolyte :
Comments :
Electrode surface area : 0.001 cm²
Characteristic mass : 0.001 g
Equivalent Weight : 0.000 g/eq.
Density : 0.000 g/cm3
Volume (V) : 0.001 cm³
Record Ece
Cycle Definition : Charge/Discharge alternance
Mode                Single sine
E (V)               0.0000
vs.                 Eoc
tE (h:m:s)          0:00:0.0000
record              0
dI                  0.000
unit dI             mA
dt (s)              0.000
fi                  100.000
unit fi             kHz
ff                  10.000
unit ff             mHz
Nd                  6
Points              per decade
spacing             Logarithmic
Va (mV)             5.0
pw                  0.10
Na                  2
corr                0
E range min (V)     -10.000
E range max (V)     10.000
I Range             Auto
Bandwidth           5
nc cycles           0
goto Ns'            0
nr cycles           0
inc. cycle          0

freq/Hz	Re(Z)/Ohm	-Im(Z)/Ohm	|Z|/Ohm	Phase(Z)/deg	time/s	<Ewe>/V	<I>/mA	Cs/µF	Cp/µF	cycle number	I Range	|Ewe|/V	|I|/A	Ns	(Q-Qo)/mA.h	<Ece>/V	|Ece|/V	Phase(Zce)/deg	|Zce|/Ohm	Re(Zce)/Ohm	-Im(Zce)/Ohm	Phase(Zwe-ce)/deg	|Zwe-ce|/Ohm	Re(Zwe-ce)/Ohm	-Im(Zwe-ce)/Ohm	Re(Y)/Ohm-1	Im(Y)/Ohm-1	|Y|/Ohm-1	Phase(Y)/deg	Re(C)/nF	Im(C)/nF	|C|/nF	Phase(C)/deg	Re(M)	Im(M)	|M|	Phase(M)/deg	Re(Permittivity)	Im(Permittivity)	|Permittivity|	Phase(Permittivity)/deg	Re(Resistivity)/Ohm.cm	Im(Resistivity)/Ohm.cm	|Resistivity|/Ohm.cm	Phase(Resistivity)/deg	Re(Conductivity)/mS/cm	Im(Conductivity)/mS/cm	|Conductivity|/mS/cm	Phase(Conductivity)/deg	Tan(Delta)	Loss Angle(Delta)/deg	dq/mA.h	Pwe/W	Pce/W	Pwe-ce/W	<Ewe-Ece>/V	Rwe/Ohm	Rce/Ohm	Rwe-ce/Ohm		Ewe-Ece/V
100004	1.89367	0.00436252	1.89368	-0.131994	1.77853	0.269542	0.0342656	364.81	0.00193611	1	9	0.00148818	0.00078587	0	2.61767e-06	0.000216278	2.78532e-05	54.3044	0.0354425	0.0206799	-0.0287838	0.730881	1.91451	1.91435	-0.0244213	0.528072	0.00121654	0.528073	0.131994	1.93614	840.422	840.424	-89.868	0.0000000E+000	0.0000000E+000	0.0000000E+000	89.868	0.0000000E+000	0.0000000E+000	0.0000000E+000	-89.868	0.0000000E+000	0.0000000E+000	0.0000000E+000	-0.131994	0.0000000E+000	0.0000000E+000	0.0000000E+000	0.131994	434.077	89.868	2.61767e-06	9.23603e-06	7.41089e-09	9.22862e-06	0.269326	7866.26	6.3118	7859.95
31621.1	2.10245	0.876579	2.27787	-22.6328	3.30054	0.269546	-0.0161806	5.74185	0.85031	1	9	0.0052246	0.00229364	0	4.03149e-05	0.000178102	1.13893e-05	5.99979	0.00496562	0.00493842	-0.00051903	-22.5731	2.28223	2.10739	0.87606	0.405199	0.168941	0.439007	22.6328	850.31	2039.44	2209.6	-67.3671	0.0000000E+000	0.0000000E+000	0.0000000E+000	67.3671	0.0000000E+000	0.0000000E+000	0.0000000E+000	-67.3671	0.0000000E+000	0.0000000E+000	0.0000000E+000	-22.6328	0.0000000E+000	0.0000000E+000	0.0000000E+000	22.6328	2.39847	67.3671	3.21757e-05	-4.3614e-06	-2.88179e-09	-4.35852e-06	0.269368	16658.6	11.0071	16647.6
10002.2	2.82616	1.227	3.08102	-23.4684	4.32553	0.269547	-0.0169246	12.9682	2.05673	1	9	0.00490115	0.00159076	0	3.98885e-05	0.00019719	1.39134e-05	-62.0612	0.00874638	0.00409792	0.00772698	-23.5697	3.08786	2.83025	1.23472	0.297719	0.129257	0.324568	23.4684	2056.73	4737.3	5164.51	-66.5316	0.0000000E+000	0.0000000E+000	0.0000000E+000	66.5316	0.0000000E+000	0.0000000E+000	0.0000000E+000	-66.5316	0.0000000E+000	0.0000000E+000	0.0000000E+000	-23.4684	0.0000000E+000	0.0000000E+000	0.0000000E+000	23.4684	2.30331	66.5316	-2.70365e-06	-4.56198e-06	-3.33736e-09	-4.55864e-06	0.26935	15926.3	11.651	15914.6
3163.08	3.77207	1.77006	4.16673	-25.1386	5.43366	0.269465	-0.0317422	28.4264	5.1299	1	10	0.00476091	0.0011426	0	3.32507e-05	0.000139925	1.09069e-05	66.8455	0.00954566	0.00375346	-0.00877674	-25.0074	4.16641	3.77582	1.76129	0.217265	0.101953	0.239997	25.1386	5129.9	10932	12075.8	-64.8614	0.0000000E+000	0.0000000E+000	0.0000000E+000	64.8614	0.0000000E+000	0.0000000E+000	0.0000000E+000	-64.8614	0.0000000E+000	0.0000000E+000	0.0000000E+000	-25.1386	0.0000000E+000	0.0000000E+000	0.0000000E+000	25.1386	2.13104	64.8614	-2.54905e-06	-8.5534e-06	-4.44154e-09	-8.54896e-06	0.269325	8489.17	4.40819	8484.76
1000.32	5.04871	2.69339	5.72222	-28.079	6.78678	0.269498	-0.0142212	59.0721	13.0873	1	10	0.00457751	0.000799954	0	2.80779e-05	-8.91312e-05	5.9751e-06	33.0991	0.0074693	0.00625724	-0.0040789	-28.0135	5.72583	5.05497	2.68931	0.154188	0.0822563	0.174757	28.079	13087.3	24532	27804.6	-61.921	0.0000000E+000	0.0000000E+000	0.0000000E+000	61.921	0.0000000E+000	0.0000000E+000	0.0000000E+000	-61.921	0.0000000E+000	0.0000000E+000	0.0000000E+000	-28.079	0.0000000E+000	0.0000000E+000	0.0000000E+000	28.079	1.87448	61.921	-1.64958e-06	-3.83258e-06	1.26755e-09	-3.83384e-06	0.269587	18950.5	6.2675	18956.7
316.316	6.80735	4.87444	8.37259	-35.6048	8.13602	0.269495	-0.0154711	103.222	34.9868	1	10	0.00450732	0.000538343	0	2.23103e-05	-7.00431e-05	7.79262e-06	-84.1699	0.0144752	0.00147039	0.0144003	-35.679	8.38217	6.80882	4.88884	0.0971089	0.0695354	0.119437	35.6048	34986.8	48860.5	60095.2	-54.3952	0.0000000E+000	0.0000000E+000	0.0000000E+000	54.3952	0.0000000E+000	0.0000000E+000	0.0000000E+000	-54.3952	0.0000000E+000	0.0000000E+000	0.0000000E+000	-35.6048	0.0000000E+000	0.0000000E+000	0.0000000E+000	35.6048	1.39654	54.3952	-2.00926e-06	-4.16939e-06	1.08364e-09	-4.17047e-06	0.269565	17419.3	4.52736	17423.8
100.032	11.3757	9.63642	14.9086	-40.2681	9.69677	0.269494	-0.0150359	165.107	68.9796	1	10	0.00487032	0.000326677	0	1.61235e-05	0.00019719	1.77164e-05	-60.8084	0.0542323	0.0264508	0.0473444	-40.341	14.9594	11.4022	9.68377	0.0511803	0.043355	0.0670752	40.2681	68979.6	81429.9	106719	-49.7319	0.0000000E+000	0.0000000E+000	0.0000000E+000	49.7319	0.0000000E+000	0.0000000E+000	0.0000000E+000	-49.7319	0.0000000E+000	0.0000000E+000	0.0000000E+000	-40.2681	0.0000000E+000	0.0000000E+000	0.0000000E+000	40.2681	1.18049	49.7319	-2.06924e-06	-4.05207e-06	-2.96492e-09	-4.04911e-06	0.269297	17923.4	13.1146	17910.3
31.6296	22.3458	12.9377	25.8209	-30.0699	11.2656	0.269534	-0.00769149	388.927	97.6432	1	11	0.00487602	0.00018884	0	1.15517e-05	0.000254454	2.66565e-06	-29.2882	0.0141159	0.0123115	0.00690555	-30.0695	25.835	22.3581	12.9446	0.033516	0.0194051	0.0387283	30.0699	97643.2	168647	194875	-59.9301	0.0000000E+000	0.0000000E+000	0.0000000E+000	59.9301	0.0000000E+000	0.0000000E+000	0.0000000E+000	-59.9301	0.0000000E+000	0.0000000E+000	0.0000000E+000	-30.0699	0.0000000E+000	0.0000000E+000	0.0000000E+000	30.0699	1.72718	59.9301	-4.72434e-07	-2.07312e-06	-1.95713e-09	-2.07116e-06	0.269279	35043.1	33.0825	35010
10.0032	32.4346	10.0012	33.9416	-17.1371	12.5978	0.269542	-0.00694405	1590.85	138.124	1	11	0.00487116	0.000143516	0	8.31544e-06	0.000311718	6.89326e-06	-89.6134	0.0480313	0.000324052	0.0480302	-17.2144	33.9561	32.435	10.0492	0.0281543	0.00868138	0.0294624	17.1371	138124	447947	468758	-72.8629	0.0000000E+000	0.0000000E+000	0.0000000E+000	72.8629	0.0000000E+000	0.0000000E+000	0.0000000E+000	-72.8629	0.0000000E+000	0.0000000E+000	0.0000000E+000	-17.1371	0.0000000E+000	0.0000000E+000	0.0000000E+000	17.1371	3.24307	72.8629	-2.03315e-06	-1.87171e-06	-2.16458e-09	-1.86955e-06	0.26923	38816.3	44.89	38771.4
3.1604	38.0927	6.69033	38.6758	-9.96142	14.1144	0.269546	-0.00604063	7527.16	225.241	1	11	0.00487298	0.000125996	0	5.31456e-06	4.44852e-05	4.52753e-06	-135.993	0.035934	-0.0258456	0.0249651	-10.0045	38.6547	38.0669	6.7153	0.0254662	0.00447269	0.025856	9.96142	225241	1.28246e+06	1.30208e+06	-80.0386	0.0000000E+000	0.0000000E+000	0.0000000E+000	80.0386	0.0000000E+000	0.0000000E+000	0.0000000E+000	-80.0386	0.0000000E+000	0.0000000E+000	0.0000000E+000	-9.96142	0.0000000E+000	0.0000000E+000	0.0000000E+000	9.96142	5.6937	80.0386	-2.85043e-06	-1.62823e-06	-2.68719e-10	-1.62796e-06	0.269502	44622.2	7.36434	44614.9
1.00006	41.6272	4.68471	41.89	-6.42103	19.4356	0.26955	-0.00505989	33971.1	424.869	1	12	0.00487182	0.0001163	0	1.24367e-06	8.26613e-05	4.74419e-06	30.944	0.0407926	0.0349866	-0.0209755	-6.38719	41.9224	41.6622	4.66373	0.0237223	0.0026697	0.0238721	6.42103	424869	3.77528e+06	3.79911e+06	-83.579	0.0000000E+000	0.0000000E+000	0.0000000E+000	83.579	0.0000000E+000	0.0000000E+000	0.0000000E+000	-83.579	0.0000000E+000	0.0000000E+000	0.0000000E+000	-6.42103	0.0000000E+000	0.0000000E+000	0.0000000E+000	6.42103	8.88576	83.579	7.85361e-07	-1.36389e-06	-4.18257e-10	-1.36348e-06	0.269468	53272	16.3366	53255.6
0.316193	44.0737	3.97541	44.2527	-5.15407	33.776	0.269563	-0.00315885	126615	1021.81	1	12	0.00487239	0.000110104	0	-1.56264e-05	0.000139925	3.10604e-06	-4.43146	0.0282101	0.0281258	0.0021797	-5.15361	44.2809	44.1019	3.97759	0.0225061	0.00203003	0.0225975	5.15407	1.02181e+06	1.13284e+07	1.13744e+07	-84.8459	0.0000000E+000	0.0000000E+000	0.0000000E+000	84.8459	0.0000000E+000	0.0000000E+000	0.0000000E+000	-84.8459	0.0000000E+000	0.0000000E+000	0.0000000E+000	-5.15407	0.0000000E+000	0.0000000E+000	0.0000000E+000	5.15407	11.0866	84.8459	-1.20401e-05	-8.51509e-07	-4.42004e-10	-8.51067e-07	0.269423	85335.6	44.2963	85291.3
0.0999041	46.2869	5.04325	46.5608	-6.21822	78.9851	0.269551	-0.00280554	315883	3706.01	1	12	0.00487696	0.000104744	0	-9.81918e-05	0.000216278	3.57335e-06	30.2859	0.0341152	0.0294591	-0.0172048	-6.19326	46.5882	46.3163	5.02605	0.0213509	0.00232632	0.0214773	6.21822	3.70601e+06	3.40137e+07	3.4215e+07	-83.7818	0.0000000E+000	0.0000000E+000	0.0000000E+000	83.7818	0.0000000E+000	0.0000000E+000	0.0000000E+000	-83.7818	0.0000000E+000	0.0000000E+000	0.0000000E+000	-6.21822	0.0000000E+000	0.0000000E+000	0.0000000E+000	6.21822	9.17798	83.7818	-2.99382e-05	-7.56238e-07	-6.06776e-10	-7.55631e-07	0.269335	96078.1	77.0894	96001.1
0.0315922	49.3464	9.31036	50.217	-10.6846	221.87	0.269544	-0.00150237	541095	18599.6	1	12	0.00487129	9.70046e-05	0	-4.81146e-05	0.000120837	2.11305e-06	-14.1436	0.021783	0.0211227	0.00532273	-10.6861	50.2388	49.3675	9.31568	0.0195683	0.00369202	0.0199136	10.6846	1.85996e+07	9.85811e+07	1.0032e+08	-79.3154	0.0000000E+000	0.0000000E+000	0.0000000E+000	79.3154	0.0000000E+000	0.0000000E+000	0.0000000E+000	-79.3154	0.0000000E+000	0.0000000E+000	0.0000000E+000	-10.6846	0.0000000E+000	0.0000000E+000	0.0000000E+000	10.6846	5.30016	79.3154	5.58575e-05	-4.04956e-07	-1.81543e-10	-4.04774e-07	0.269423	179412	80.431	179332
0.0100092	55.3546	19.8699	58.8128	-19.746	673.093	0.269548	0.000371783	800250	91343	1	12	0.00487135	8.28281e-05	0	-2.43403e-06	0.000101749	3.90494e-06	-22.8988	0.0471451	0.0434298	0.0183444	-19.7485	58.8599	55.398	19.8883	0.0160033	0.00574451	0.0170031	19.746	9.1343e+07	2.54467e+08	2.70365e+08	-70.254	0.0000000E+000	0.0000000E+000	0.0000000E+000	70.254	0.0000000E+000	0.0000000E+000	0.0000000E+000	-70.254	0.0000000E+000	0.0000000E+000	0.0000000E+000	-19.746	0.0000000E+000	0.0000000E+000	0.0000000E+000	19.746	2.78584	70.254	-8.36416e-05	1.00213e-07	3.78287e-11	1.00176e-07	0.269447	725016	273.68	724742