File: txt/18503_R303_UC88_11mm_SOC50_C02.mpt
EC-Lab ASCII FILE
Nb header lines : 65

Potentio Electrochemical Impedance Spectroscopy

Run on channel : 2 (SN 66139)
User :
CE vs. WE compliance from -10 V to 10 V
Electrode connection : standard
Potential control : Ewe
Ewe ctrl range : min = -10.00 V, max = 10.00 V
Safety Limits :
	Do not start on E overload
Acquisition started on : 10/20/2025 14:14:46.495
Technique started on : 10/20/2025 14:14:49.190
Loaded Setting File :  C:\Users\Celltest\OneDrive - store-dot.com\Documents\EC-Lab\Data\txt_done\UC80_17231_EIS_50SOC.mps
Saved on :
	File : 18503_R303_UC88_11mm_SOC50_C02.mpr
	Directory : C:\Users\Celltest\OneDrive - store-dot.com\Documents\EC-Lab\Data\Michael\
	Host : 169.254.61.224
Device : VMP-3e (SN .003165)
Address : USB
EC-LAB for windows v11.62 (software)
Internet server v27.00 (firmware)
Command interpretor v12.03 (firmware)
Electrode material :
Initial state :
Electrolyte :
Comments :
Electrode surface area : 0.001 cm²
Characteristic mass : 0.001 g
Equivalent Weight : 0.000 g/eq.
Density : 0.000 g/cm3
Volume (V) : 0.001 cm³
Record Ece
Cycle Definition : Charge/Discharge alternance
Mode                Multi sine
E (V)               0.0000
vs.                 Eoc
tE (h:m:s)          0:00:0.0000
record              0
dI                  0.000
unit dI             mA
dt (s)              0.000
fi                  1.000
unit fi             MHz
ff                  0.100
unit ff             mHz
Nd                  10
Points              per decade
spacing             Logarithmic
Va (mV)             5.0
pw                  0.10
Na                  2
corr                0
E range min (V)     -10.000
E range max (V)     10.000
I Range             Auto
Bandwidth           5
nc cycles           0
goto Ns'            0
nr cycles           0
inc. cycle          0

freq/Hz	Re(Z)/Ohm	-Im(Z)/Ohm	|Z|/Ohm	Phase(Z)/deg	time/s	<Ewe>/V	<I>/mA	Cs/µF	Cp/µF	cycle number	I Range	|Ewe|/V	|I|/A	Ns	(Q-Qo)/mA.h	<Ece>/V	|Ece|/V	Phase(Zce)/deg	|Zce|/Ohm	Re(Zce)/Ohm	-Im(Zce)/Ohm	Phase(Zwe-ce)/deg	|Zwe-ce|/Ohm	Re(Zwe-ce)/Ohm	-Im(Zwe-ce)/Ohm	Re(Y)/Ohm-1	Im(Y)/Ohm-1	|Y|/Ohm-1	Phase(Y)/deg	Re(C)/nF	Im(C)/nF	|C|/nF	Phase(C)/deg	Re(M)	Im(M)	|M|	Phase(M)/deg	Re(Permittivity)	Im(Permittivity)	|Permittivity|	Phase(Permittivity)/deg	Re(Resistivity)/Ohm.cm	Im(Resistivity)/Ohm.cm	|Resistivity|/Ohm.cm	Phase(Resistivity)/deg	Re(Conductivity)/mS/cm	Im(Conductivity)/mS/cm	|Conductivity|/mS/cm	Phase(Conductivity)/deg	Tan(Delta)	Loss Angle(Delta)/deg	dq/mA.h	Pwe/W	Pce/W	Pwe-ce/W	<Ewe-Ece>/V	Rwe/Ohm	Rce/Ohm	Rwe-ce/Ohm		Ewe-Ece/V
1.00002e+06	0.915866	-0.310467	0.967057	18.726	2.69454	3.82456	-0.0505777	-0.512621	-0.0528352	1	9	0.000190623	0.000197117	0	-2.69356e-05	-0.000305111	0.000173574	4.23717	0.880564	0.878158	-0.0650606	11.8225	1.8329	1.79402	-0.375527	0.979326	-0.331979	1.03407	-18.726	-52.8352	155.862	164.573	-108.726	0.0000000E+000	0.0000000E+000	0.0000000E+000	108.726	0.0000000E+000	0.0000000E+000	0.0000000E+000	-108.726	0.0000000E+000	0.0000000E+000	0.0000000E+000	18.726	0.0000000E+000	0.0000000E+000	0.0000000E+000	-18.726	2.94996	71.274	-2.69356e-05	-0.000193438	1.54318e-08	-0.000193453	3.82487	75617.6	6.03252	75623.6
251206	0.679859	0.341805	0.760946	-26.6914	4.99252	3.82456	-0.0433892	1.85358	0.37399	1	9	0.00191012	0.00251019	0	-5.77846e-05	0.000267614	1.7111e-05	87.939	0.0068166	0.000245146	-0.0068122	-26.2231	0.758131	0.680104	0.334993	1.17412	0.590297	1.31415	26.6914	373.99	743.876	832.599	-63.3086	0.0000000E+000	0.0000000E+000	0.0000000E+000	63.3086	0.0000000E+000	0.0000000E+000	0.0000000E+000	-63.3086	0.0000000E+000	0.0000000E+000	0.0000000E+000	-26.6914	0.0000000E+000	0.0000000E+000	0.0000000E+000	26.6914	1.98902	63.3086	-6.67116e-06	-0.000165945	-1.16116e-08	-0.000165933	3.82429	88145.5	6.16776	88139.3
63093.8	1.2151	0.980797	1.56155	-38.9095	7.29654	3.8244	-0.0370574	2.5719	1.01462	1	9	0.00545788	0.00349517	0	-9.63392e-05	-0.000228748	2.05542e-05	56.0794	0.00588075	0.00328171	-0.00487992	-38.6945	1.56105	1.21838	0.975917	0.498312	0.402224	0.64039	38.9095	1014.62	1257	1615.39	-51.0905	0.0000000E+000	0.0000000E+000	0.0000000E+000	51.0905	0.0000000E+000	0.0000000E+000	0.0000000E+000	-51.0905	0.0000000E+000	0.0000000E+000	0.0000000E+000	-38.9095	0.0000000E+000	0.0000000E+000	0.0000000E+000	38.9095	1.23889	51.0905	-3.32571e-06	-0.000141722	8.47679e-09	-0.000141731	3.82463	103202	6.1728	103208
15847.7	2.39191	1.50122	2.82398	-32.1133	9.47054	3.8244	-0.0320665	6.68977	1.89048	1	9	0.00488406	0.00172949	0	-0.000124297	-9.51117e-05	4.44957e-06	-47.0118	0.00257276	0.00175423	0.00188196	-32.1267	2.82647	2.39366	1.5031	0.29993	0.188243	0.35411	32.1133	1890.48	3012.14	3556.25	-57.8867	0.0000000E+000	0.0000000E+000	0.0000000E+000	57.8867	0.0000000E+000	0.0000000E+000	0.0000000E+000	-57.8867	0.0000000E+000	0.0000000E+000	0.0000000E+000	-32.1133	0.0000000E+000	0.0000000E+000	0.0000000E+000	32.1133	1.59332	57.8867	-3.2029e-06	-0.000122635	3.0499e-09	-0.000122638	3.82449	119265	2.96608	119268
3983.6	3.82927	2.03292	4.33545	-27.9634	11.3491	3.82434	-0.0503461	19.6528	4.32113	1	10	0.00479423	0.00110582	0	-0.000144198	0.00017216	7.85861e-06	-22.2376	0.00710658	0.00657801	0.00268947	-27.954	4.34252	3.83585	2.03561	0.203727	0.108157	0.230657	27.9634	4321.13	8139.41	9215.32	-62.0366	0.0000000E+000	0.0000000E+000	0.0000000E+000	62.0366	0.0000000E+000	0.0000000E+000	0.0000000E+000	-62.0366	0.0000000E+000	0.0000000E+000	0.0000000E+000	-27.9634	0.0000000E+000	0.0000000E+000	0.0000000E+000	27.9634	1.88363	62.0366	-3.51346e-06	-0.00019254	-8.66758e-09	-0.000192532	3.82416	75960.9	3.41953	75957.5
1000.32	5.95378	2.81433	6.58544	-25.2999	14.1918	3.82428	-0.044192	56.5335	10.3249	1	10	0.0048736	0.000740057	0	-0.000177927	0.000133978	1.11357e-05	-21.4039	0.0150471	0.0140093	0.0054913	-25.2911	6.60045	5.96779	2.81982	0.137285	0.0648942	0.15185	25.2999	10324.9	21842.6	24160	-64.7001	0.0000000E+000	0.0000000E+000	0.0000000E+000	64.7001	0.0000000E+000	0.0000000E+000	0.0000000E+000	-64.7001	0.0000000E+000	0.0000000E+000	0.0000000E+000	-25.2999	0.0000000E+000	0.0000000E+000	0.0000000E+000	25.2999	2.11552	64.7001	-9.06389e-06	-0.000169003	-5.92078e-09	-0.000168997	3.82415	86537.9	3.03173	86534.9
251.044	9.14708	3.17861	9.68362	-19.1623	16.8931	3.82429	-0.0429515	199.45	21.4897	1	10	0.00480379	0.000496074	0	-0.000209391	0.000133978	7.54278e-06	-117.126	0.0152049	-0.00693279	0.0135324	-19.2514	9.68153	9.14015	3.19214	0.0975453	0.033897	0.103267	19.1623	21489.7	61841	65468.4	-70.8377	0.0000000E+000	0.0000000E+000	0.0000000E+000	70.8377	0.0000000E+000	0.0000000E+000	0.0000000E+000	-70.8377	0.0000000E+000	0.0000000E+000	0.0000000E+000	-19.1623	0.0000000E+000	0.0000000E+000	0.0000000E+000	19.1623	2.8777	70.8377	-5.54592e-06	-0.000164259	-5.75458e-09	-0.000164253	3.82416	89037.3	3.11929	89034.2
63.0823	11.7306	1.8329	11.8729	-8.88066	19.612	3.82429	-0.0390922	1376.49	32.8049	1	10	0.00478862	0.000403323	0	-0.00024115	-0.000133293	5.01982e-06	-15.6612	0.0124461	0.0119841	0.00335981	-8.88774	11.8853	11.7426	1.83626	0.0832157	0.0130025	0.0842254	8.88066	32804.9	209951	212498	-81.1193	0.0000000E+000	0.0000000E+000	0.0000000E+000	81.1193	0.0000000E+000	0.0000000E+000	0.0000000E+000	-81.1193	0.0000000E+000	0.0000000E+000	0.0000000E+000	-8.88066	0.0000000E+000	0.0000000E+000	0.0000000E+000	8.88066	6.4	81.1193	-4.69792e-06	-0.0001495	5.21074e-09	-0.000149505	3.82442	97827.4	3.40972	97830.8
15.8576	12.5442	0.800997	12.5698	-3.65359	22.27	3.82428	-0.0461738	12530	50.8814	1	10	0.00478859	0.00038096	0	-0.000275406	0.00017216	5.68488e-06	-50.5134	0.0149225	0.0094892	0.0115168	-3.70318	12.58	12.5537	0.812514	0.0793942	0.00506962	0.0795559	3.65359	50881.4	796842	798464	-86.3464	0.0000000E+000	0.0000000E+000	0.0000000E+000	86.3464	0.0000000E+000	0.0000000E+000	0.0000000E+000	-86.3464	0.0000000E+000	0.0000000E+000	0.0000000E+000	-3.65359	0.0000000E+000	0.0000000E+000	0.0000000E+000	3.65359	15.6608	86.3464	-6.99623e-06	-0.000176582	-7.94929e-09	-0.000176574	3.82411	82823.5	3.72852	82819.8
3.97785	12.888	0.526654	12.8987	-2.34004	25.4274	3.82436	-0.0306724	75970.7	126.65	1	11	0.00478485	0.000370955	0	-0.000305169	0.00040125	3.68094e-06	7.30392	0.00992286	0.00984235	-0.00126152	-2.33266	12.9085	12.8978	0.525393	0.0774625	0.00316543	0.0775271	2.34004	126650	3.09929e+06	3.10188e+06	-87.66	0.0000000E+000	0.0000000E+000	0.0000000E+000	87.66	0.0000000E+000	0.0000000E+000	0.0000000E+000	-87.66	0.0000000E+000	0.0000000E+000	0.0000000E+000	-2.34004	0.0000000E+000	0.0000000E+000	0.0000000E+000	2.34004	24.4714	87.66	-3.98316e-06	-0.000117302	-1.23073e-08	-0.00011729	3.82396	124684	13.0818	124671
1.00469	13.2638	0.68617	13.2815	-2.96142	240.239	3.82432	-0.0167618	230863	616.2	1	11	0.00497828	0.000374827	0	-0.00293402	-0.000171475	2.26322e-07	67.2189	0.000603803	0.0002338	-0.000556701	-2.95897	13.2817	13.264	0.685613	0.0751919	0.00388987	0.0752925	2.96142	616200	1.19113e+07	1.19272e+07	-87.0386	0.0000000E+000	0.0000000E+000	0.0000000E+000	87.0386	0.0000000E+000	0.0000000E+000	0.0000000E+000	-87.0386	0.0000000E+000	0.0000000E+000	0.0000000E+000	-2.96142	0.0000000E+000	0.0000000E+000	0.0000000E+000	2.96142	19.3302	87.0386	-0.00257311	-6.41026e-05	2.87423e-09	-6.41054e-05	3.82449	228157	10.2301	228167
0.251173	13.9273	1.35945	13.9935	-5.57498	240.243	3.82432	-0.0167618	466105	4399	1	11	0.00500419	0.000357607	0	-0.00293402	-0.000171475	2.85584e-07	-126.835	0.000798597	-0.000478766	0.000639172	-5.57778	13.9931	13.9269	1.36009	0.0711236	0.00694237	0.0714616	5.57498	4.399e+06	4.50671e+07	4.52813e+07	-84.425	0.0000000E+000	0.0000000E+000	0.0000000E+000	84.425	0.0000000E+000	0.0000000E+000	0.0000000E+000	-84.425	0.0000000E+000	0.0000000E+000	0.0000000E+000	-5.57498	0.0000000E+000	0.0000000E+000	0.0000000E+000	5.57498	10.2449	84.425	0.000000000000000E+000	-6.41026e-05	2.87423e-09	-6.41054e-05	3.82449	228157	10.2301	228167
0.0602816	15.3478	2.42876	15.5388	-8.99238	240.246	3.82432	-0.0167618	1.08705e+06	26557.4	1	11	0.00499846	0.000321677	0	-0.00293402	-0.000171475	6.32336e-07	14.808	0.00196575	0.00190046	-0.000502409	-8.98946	15.5406	15.3497	2.42826	0.0635641	0.0100589	0.0643551	8.99238	2.65574e+07	1.67821e+08	1.6991e+08	-81.0076	0.0000000E+000	0.0000000E+000	0.0000000E+000	81.0076	0.0000000E+000	0.0000000E+000	0.0000000E+000	-81.0076	0.0000000E+000	0.0000000E+000	0.0000000E+000	-8.99238	0.0000000E+000	0.0000000E+000	0.0000000E+000	8.99238	6.31919	81.0076	0.000000000000000E+000	-6.41026e-05	2.87423e-09	-6.41054e-05	3.82449	228157	10.2301	228167
0.00796479	22.016	4.40029	22.4514	-11.3026	20329.2	3.82428	-0.00048034	4.54114e+06	174437	1	11	0.00499331	0.000222405	0	-0.0211261	-3.78392e-05	1.81786e-07	16.3068	0.000817366	0.000784485	-0.0002295	-11.3017	22.4521	22.0168	4.40006	0.0436768	0.00872958	0.0445406	11.3026	1.74437e+08	8.72763e+08	8.90025e+08	-78.6974	0.0000000E+000	0.0000000E+000	0.0000000E+000	78.6974	0.0000000E+000	0.0000000E+000	0.0000000E+000	-78.6974	0.0000000E+000	0.0000000E+000	0.0000000E+000	-11.3026	0.0000000E+000	0.0000000E+000	0.0000000E+000	11.3026	5.00331	78.6974	-0.018192	-1.83696e-06	1.81757e-11	-1.83697e-06	3.82432	7.9616e+06	78.7758	7.96168e+06
0.0019912	25.1281	6.74959	26.0188	-15.0352	20329.2	3.82428	-0.00048034	1.18421e+07	796907	1	11	0.00500655	0.00019242	0	-0.0211261	-3.78392e-05	4.7504e-07	-26.3173	0.00246876	0.00221288	0.0010945	-15.0362	26.0212	25.1303	6.75068	0.037118	0.00997015	0.0384337	15.0352	7.96907e+08	2.96682e+09	3.07198e+09	-74.9648	0.0000000E+000	0.0000000E+000	0.0000000E+000	74.9648	0.0000000E+000	0.0000000E+000	0.0000000E+000	-74.9648	0.0000000E+000	0.0000000E+000	0.0000000E+000	-15.0352	0.0000000E+000	0.0000000E+000	0.0000000E+000	15.0352	3.72291	74.9648	0.000000000000000E+000	-1.83696e-06	1.81757e-11	-1.83697e-06	3.82432	7.9616e+06	78.7758	7.96168e+06
0.000497799	26.5503	18.0221	32.0891	-34.1683	20329.2	3.82428	-0.00048034	1.77403e+07	5.59571e+06	1	11	0.00500673	0.000156026	0	-0.0211261	-3.78392e-05	2.99553e-07	50.4021	0.00191989	0.00122373	-0.00147935	-34.1649	32.0893	26.5515	18.0206	0.0257841	0.017502	0.0311632	34.1683	5.59571e+09	8.24364e+09	9.96341e+09	-55.8317	0.0000000E+000	0.0000000E+000	0.0000000E+000	55.8317	0.0000000E+000	0.0000000E+000	0.0000000E+000	-55.8317	0.0000000E+000	0.0000000E+000	0.0000000E+000	-34.1683	0.0000000E+000	0.0000000E+000	0.0000000E+000	34.1683	1.47321	55.8317	0.000000000000000E+000	-1.83696e-06	1.81757e-11	-1.83697e-06	3.82432	7.9616e+06	78.7758	7.96168e+06
9.95598e-05	34.83	91.5705	97.9708	-69.175	20329.2	3.82428	-0.00048034	1.74574e+07	1.5251e+07	1	11	0.00500943	5.11319e-05	0	-0.0211261	-3.78392e-05	2.85411e-06	-93.9705	0.0558186	-0.00386502	0.0556846	-69.1887	98.0215	34.8261	91.6262	0.00362877	0.0095403	0.0102071	69.175	1.5251e+10	5.80091e+09	1.6317e+10	-20.825	0.0000000E+000	0.0000000E+000	0.0000000E+000	20.825	0.0000000E+000	0.0000000E+000	0.0000000E+000	-20.825	0.0000000E+000	0.0000000E+000	0.0000000E+000	-69.175	0.0000000E+000	0.0000000E+000	0.0000000E+000	69.175	0.380363	20.825	0.000000000000000E+000	-1.83696e-06	1.81757e-11	-1.83697e-06	3.82432	7.9616e+06	78.7758	7.96168e+06