File: txt/18505_R303_UC88_11mm_SOC50_C04.mpt
EC-Lab ASCII FILE
Nb header lines : 65

Potentio Electrochemical Impedance Spectroscopy

Run on channel : 4 (SN 66756)
User :
CE vs. WE compliance from -10 V to 10 V
Electrode connection : standard
Potential control : Ewe
Ewe ctrl range : min = -10.00 V, max = 10.00 V
Safety Limits :
	Do not start on E overload
Acquisition started on : 10/20/2025 14:15:27.182
Technique started on : 10/20/2025 14:15:29.417
Loaded Setting File :  C:\Users\Celltest\OneDrive - store-dot.com\Documents\EC-Lab\Data\txt_done\UC80_17231_EIS_50SOC.mps
Saved on :
	File : 18505_R303_UC88_11mm_SOC50_C04.mpr
	Directory : C:\Users\Celltest\OneDrive - store-dot.com\Documents\EC-Lab\Data\Michael\
	Host : 169.254.61.224
Device : VMP-3e (SN .003165)
Address : USB
EC-LAB for windows v11.62 (software)
Internet server v27.00 (firmware)
Command interpretor v12.03 (firmware)
Electrode material :
Initial state :
Electrolyte :
Comments :
Electrode surface area : 0.001 cm²
Characteristic mass : 0.001 g
Equivalent Weight : 0.000 g/eq.
Density : 0.000 g/cm3
Volume (V) : 0.001 cm³
Record Ece
Cycle Definition : Charge/Discharge alternance
Mode                Multi sine
E (V)               0.0000
vs.                 Eoc
tE (h:m:s)          0:00:0.0000
record              0
dI                  0.000
unit dI             mA
dt (s)              0.000
fi                  1.000
unit fi             MHz
ff                  0.100
unit ff             mHz
Nd                  10
Points              per decade
spacing             Logarithmic
Va (mV)             5.0
pw                  0.10
Na                  2
corr                0
E range min (V)     -10.000
E range max (V)     10.000
I Range             Auto
Bandwidth           5
nc cycles           0
goto Ns'            0
nr cycles           0
inc. cycle          0

freq/Hz	Re(Z)/Ohm	-Im(Z)/Ohm	|Z|/Ohm	Phase(Z)/deg	time/s	<Ewe>/V	<I>/mA	Cs/µF	Cp/µF	cycle number	I Range	|Ewe|/V	|I|/A	Ns	(Q-Qo)/mA.h	<Ece>/V	|Ece|/V	Phase(Zce)/deg	|Zce|/Ohm	Re(Zce)/Ohm	-Im(Zce)/Ohm	Phase(Zwe-ce)/deg	|Zwe-ce|/Ohm	Re(Zwe-ce)/Ohm	-Im(Zwe-ce)/Ohm	Re(Y)/Ohm-1	Im(Y)/Ohm-1	|Y|/Ohm-1	Phase(Y)/deg	Re(C)/nF	Im(C)/nF	|C|/nF	Phase(C)/deg	Re(M)	Im(M)	|M|	Phase(M)/deg	Re(Permittivity)	Im(Permittivity)	|Permittivity|	Phase(Permittivity)/deg	Re(Resistivity)/Ohm.cm	Im(Resistivity)/Ohm.cm	|Resistivity|/Ohm.cm	Phase(Resistivity)/deg	Re(Conductivity)/mS/cm	Im(Conductivity)/mS/cm	|Conductivity|/mS/cm	Phase(Conductivity)/deg	Tan(Delta)	Loss Angle(Delta)/deg	dq/mA.h	Pwe/W	Pce/W	Pwe-ce/W	<Ewe-Ece>/V	Rwe/Ohm	Rce/Ohm	Rwe-ce/Ohm		Ewe-Ece/V
1.00002e+06	3.97935	1.72335	4.33649	-23.4161	2.23453	3.82603	0.0749705	0.0923506	0.0145851	1	10	0.000193961	4.47276e-05	0	1.26863e-05	-0.000168381	0.000191788	-66.9627	4.2879	1.67799	3.94595	-45.0605	8.00914	5.65733	5.66929	0.21161	0.0916423	0.230601	23.4161	14.5851	33.6781	36.7007	-66.5839	0.0000000E+000	0.0000000E+000	0.0000000E+000	66.5839	0.0000000E+000	0.0000000E+000	0.0000000E+000	-66.5839	0.0000000E+000	0.0000000E+000	0.0000000E+000	-23.4161	0.0000000E+000	0.0000000E+000	0.0000000E+000	23.4161	2.30908	66.5839	1.26863e-05	0.00028684	-1.26236e-08	0.000286852	3.8262	51033.8	2.24597	51036.1
251206	0.859183	0.234609	0.890638	-15.2729	4.94651	3.82466	-0.019268	2.70051	0.187384	1	9	0.00134052	0.00150512	0	2.5845e-06	-0.000225711	6.13339e-05	80.4213	0.0407502	0.00678094	-0.040182	-12.6542	0.887522	0.865964	0.194427	1.08314	0.295762	1.12279	15.2729	187.384	686.235	711.359	-74.7271	0.0000000E+000	0.0000000E+000	0.0000000E+000	74.7271	0.0000000E+000	0.0000000E+000	0.0000000E+000	-74.7271	0.0000000E+000	0.0000000E+000	0.0000000E+000	-15.2729	0.0000000E+000	0.0000000E+000	0.0000000E+000	15.2729	3.66219	74.7271	-2.91374e-06	-7.36937e-05	4.34901e-09	-7.3698e-05	3.82488	198497	11.7143	198509
63093.8	1.2884	0.948869	1.6001	-36.3705	7.24652	3.82456	-0.0295993	2.65844	0.934851	1	9	0.0050898	0.00318092	0	-9.31911e-06	-0.000206601	2.1748e-05	46.2818	0.00683702	0.00472515	-0.00494144	-36.1278	1.60099	1.29313	0.943927	0.503217	0.370603	0.624959	36.3705	934.851	1269.37	1576.47	-53.6295	0.0000000E+000	0.0000000E+000	0.0000000E+000	53.6295	0.0000000E+000	0.0000000E+000	0.0000000E+000	-53.6295	0.0000000E+000	0.0000000E+000	0.0000000E+000	-36.3705	0.0000000E+000	0.0000000E+000	0.0000000E+000	36.3705	1.35783	53.6295	-1.04365e-05	-0.000113205	6.11526e-09	-0.000113211	3.82477	129211	6.97993	129218
15847.7	2.44934	1.55447	2.90097	-32.4012	9.54652	3.82454	-0.026168	6.46058	1.85502	1	9	0.00531798	0.00183317	0	-1.98921e-05	-9.19415e-05	1.33608e-05	-74.4283	0.00728836	0.00195652	0.00702084	-32.4974	2.90639	2.4513	1.56149	0.291046	0.184712	0.344712	32.4012	1855.02	2922.91	3461.87	-57.5988	0.0000000E+000	0.0000000E+000	0.0000000E+000	57.5988	0.0000000E+000	0.0000000E+000	0.0000000E+000	-57.5988	0.0000000E+000	0.0000000E+000	0.0000000E+000	-32.4012	0.0000000E+000	0.0000000E+000	0.0000000E+000	32.4012	1.57567	57.5988	-8.90923e-07	-0.000100081	2.40593e-09	-0.000100083	3.82463	146153	3.51351	146157
3983.6	3.97241	2.22231	4.55178	-29.2242	11.9201	3.82456	-0.0227451	17.9779	4.28535	1	10	0.00547225	0.00120222	0	-3.86086e-05	-0.000149271	1.24199e-05	-60.231	0.0103308	0.0051293	0.00896751	-29.2911	4.56064	3.97754	2.23128	0.191731	0.107261	0.219694	29.2242	4285.35	7660.12	8777.34	-60.7758	0.0000000E+000	0.0000000E+000	0.0000000E+000	60.7758	0.0000000E+000	0.0000000E+000	0.0000000E+000	-60.7758	0.0000000E+000	0.0000000E+000	0.0000000E+000	-29.2242	0.0000000E+000	0.0000000E+000	0.0000000E+000	29.2242	1.78752	60.7758	-1.39844e-06	-8.69901e-05	3.39519e-09	-8.69935e-05	3.82471	168149	6.56279	168155
1000.32	6.3494	3.29635	7.15408	-27.4365	14.7258	3.82452	-0.0157884	48.2668	10.2472	1	10	0.00502746	0.00070274	0	-5.12517e-05	-9.19415e-05	4.29585e-06	-14.5355	0.006113	0.00591734	0.00153424	-27.4256	7.16004	6.35532	3.29788	0.124058	0.0644059	0.13978	27.4365	10247.2	19738.2	22239.6	-62.5635	0.0000000E+000	0.0000000E+000	0.0000000E+000	62.5635	0.0000000E+000	0.0000000E+000	0.0000000E+000	-62.5635	0.0000000E+000	0.0000000E+000	0.0000000E+000	-27.4365	0.0000000E+000	0.0000000E+000	0.0000000E+000	27.4365	1.92619	62.5635	-2.31215e-06	-6.03829e-05	1.45161e-09	-6.03843e-05	3.82461	242237	5.82338	242243
251.044	10.1573	3.65136	10.7936	-19.7726	17.4261	3.82453	-0.0196304	173.626	19.8696	1	10	0.00477265	0.000442172	0	-6.41643e-05	8.00481e-05	9.50687e-06	-35.7158	0.0215004	0.0174566	0.0125512	-19.8039	10.8143	10.1747	3.66391	0.0871849	0.0313414	0.0926471	19.7726	19869.6	55272.7	58735.6	-70.2274	0.0000000E+000	0.0000000E+000	0.0000000E+000	70.2274	0.0000000E+000	0.0000000E+000	0.0000000E+000	-70.2274	0.0000000E+000	0.0000000E+000	0.0000000E+000	-19.7726	0.0000000E+000	0.0000000E+000	0.0000000E+000	19.7726	2.78178	70.2274	-2.44101e-06	-7.50772e-05	-1.57138e-09	-7.50757e-05	3.82445	194827	4.07775	194822
63.0823	13.0531	2.08477	13.2186	-9.0743	20.1449	3.82453	-0.015613	1210.19	30.1024	1	10	0.0047365	0.000358321	0	-7.68946e-05	-7.28316e-05	5.24492e-06	-44.2593	0.0146375	0.0104832	0.0102156	-9.11083	13.2305	13.0636	2.09499	0.0747043	0.0119313	0.0756511	9.0743	30102.4	188477	190866	-80.9257	0.0000000E+000	0.0000000E+000	0.0000000E+000	80.9257	0.0000000E+000	0.0000000E+000	0.0000000E+000	-80.9257	0.0000000E+000	0.0000000E+000	0.0000000E+000	-9.0743	0.0000000E+000	0.0000000E+000	0.0000000E+000	9.0743	6.26119	80.9257	-1.82276e-06	-5.97126e-05	1.13712e-09	-5.97137e-05	3.8246	244957	4.66479	244962
15.8576	13.942	1.23194	13.9963	-5.04968	23.039	3.82452	-0.0216734	8146.9	63.1175	1	11	0.0047341	0.00033824	0	-9.53277e-05	4.18282e-05	7.24616e-06	41.4118	0.0214231	0.0160668	-0.0141707	-4.98617	14.011	13.958	1.21777	0.0711703	0.00628878	0.0714476	5.04968	63117.4	714302	717085	-84.9503	0.0000000E+000	0.0000000E+000	0.0000000E+000	84.9503	0.0000000E+000	0.0000000E+000	0.0000000E+000	-84.9503	0.0000000E+000	0.0000000E+000	0.0000000E+000	-5.04968	0.0000000E+000	0.0000000E+000	0.0000000E+000	5.04968	11.317	84.9503	-6.22861e-06	-8.28905e-05	-9.06561e-10	-8.28896e-05	3.82448	176461	1.92993	176459
3.97785	14.376	0.552859	14.3866	-2.20235	25.9513	3.82454	-0.00930796	72369.8	106.873	1	11	0.00474101	0.000329543	0	-0.000101916	-0.000130161	3.65516e-06	37.2432	0.0110916	0.00882971	-0.00671262	-2.1743	14.3952	14.3848	0.546146	0.0694578	0.00267115	0.0695091	2.20235	106873	2.77902e+06	2.78108e+06	-87.7977	0.0000000E+000	0.0000000E+000	0.0000000E+000	87.7977	0.0000000E+000	0.0000000E+000	0.0000000E+000	-87.7977	0.0000000E+000	0.0000000E+000	0.0000000E+000	-2.20235	0.0000000E+000	0.0000000E+000	0.0000000E+000	2.20235	26.003	87.7977	6.58806e-07	-3.55987e-05	1.21154e-09	-3.55999e-05	3.82467	410890	13.9839	410904
1.00469	14.767	0.736515	14.7854	-2.8553	240.765	3.82451	-0.00740237	215082	533.708	1	11	0.00506065	0.000342274	0	-0.00190228	-9.19415e-05	6.07147e-07	-13.7692	0.00177386	0.00172289	0.000422199	-2.8566	14.7871	14.7687	0.736937	0.0675505	0.00336912	0.0676344	2.8553	533708	1.07008e+07	1.07141e+07	-87.1447	0.0000000E+000	0.0000000E+000	0.0000000E+000	87.1447	0.0000000E+000	0.0000000E+000	0.0000000E+000	-87.1447	0.0000000E+000	0.0000000E+000	0.0000000E+000	-2.8553	0.0000000E+000	0.0000000E+000	0.0000000E+000	2.8553	20.0499	87.1447	-0.00178764	-2.83104e-05	6.80585e-10	-2.83111e-05	3.8246	516660	12.4206	516673
0.251173	15.4885	1.40794	15.5524	-5.19404	240.769	3.82451	-0.00740237	450051	3688.39	1	11	0.00508649	0.000327055	0	-0.00190228	-9.19415e-05	4.83222e-07	-20.9631	0.0014775	0.0013797	0.000528598	-5.19552	15.5538	15.4899	1.40847	0.0640347	0.0058209	0.0642988	5.19404	3.68839e+06	4.05753e+07	4.07426e+07	-84.806	0.0000000E+000	0.0000000E+000	0.0000000E+000	84.806	0.0000000E+000	0.0000000E+000	0.0000000E+000	-84.806	0.0000000E+000	0.0000000E+000	0.0000000E+000	-5.19404	0.0000000E+000	0.0000000E+000	0.0000000E+000	5.19404	11.0008	84.806	0.000000000000000E+000	-2.83104e-05	6.80585e-10	-2.83111e-05	3.8246	516660	12.4206	516673
0.0602816	16.9338	2.372	17.0991	-7.97384	240.773	3.82451	-0.00740237	1.11306e+06	21419.3	1	11	0.00508114	0.000297159	0	-0.00190228	-9.19415e-05	4.52746e-07	-41.6327	0.00152358	0.00113875	0.00101219	-7.97667	17.1003	16.9349	2.37301	0.0579172	0.00811277	0.0584827	7.97384	2.14193e+07	1.52913e+08	1.54405e+08	-82.0262	0.0000000E+000	0.0000000E+000	0.0000000E+000	82.0262	0.0000000E+000	0.0000000E+000	0.0000000E+000	-82.0262	0.0000000E+000	0.0000000E+000	0.0000000E+000	-7.97384	0.0000000E+000	0.0000000E+000	0.0000000E+000	7.97384	7.13902	82.0262	0.000000000000000E+000	-2.83104e-05	6.80585e-10	-2.83111e-05	3.8246	516660	12.4206	516673
0.00796479	23.4668	4.07456	23.8179	-9.8501	20329.7	3.82449	0.000143019	4.90417e+06	143522	1	11	0.00507183	0.000212942	0	-0.0147008	-9.19415e-05	3.35245e-07	6.80821	0.00157435	0.00156325	-0.000186633	-9.84902	23.8194	23.4684	4.07437	0.0413663	0.00718246	0.0419852	9.8501	1.43522e+08	8.26595e+08	8.38962e+08	-80.1499	0.0000000E+000	0.0000000E+000	0.0000000E+000	80.1499	0.0000000E+000	0.0000000E+000	0.0000000E+000	-80.1499	0.0000000E+000	0.0000000E+000	0.0000000E+000	-9.8501	0.0000000E+000	0.0000000E+000	0.0000000E+000	9.8501	5.75935	80.1499	-0.0127986	5.46975e-07	-1.31494e-11	5.46988e-07	3.82458	2.67411e+07	642.862	2.67418e+07
0.0019912	26.3295	6.61865	27.1487	-14.1105	20329.7	3.82449	0.000143019	1.20764e+07	717759	1	11	0.00508542	0.000187317	0	-0.0147008	-9.19415e-05	4.05025e-07	41.1904	0.00216224	0.00162714	-0.00142397	-14.1068	27.1499	26.3311	6.61723	0.0357228	0.00897992	0.0368342	14.1105	7.17759e+08	2.8553e+09	2.94413e+09	-75.8895	0.0000000E+000	0.0000000E+000	0.0000000E+000	75.8895	0.0000000E+000	0.0000000E+000	0.0000000E+000	-75.8895	0.0000000E+000	0.0000000E+000	0.0000000E+000	-14.1105	0.0000000E+000	0.0000000E+000	0.0000000E+000	14.1105	3.97808	75.8895	0.000000000000000E+000	5.46975e-07	-1.31494e-11	5.46988e-07	3.82458	2.67411e+07	642.862	2.67418e+07
0.000497799	27.5571	18.0437	32.9389	-33.2158	20329.7	3.82449	0.000143019	1.7719e+07	5.31709e+06	1	11	0.00508655	0.000154424	0	-0.0147008	-9.19415e-05	6.59565e-07	-46.695	0.00427114	0.00292949	0.00310816	-33.2175	32.9431	27.5601	18.0468	0.0253989	0.0166306	0.0303592	33.2158	5.31709e+09	8.12048e+09	9.70636e+09	-56.7842	0.0000000E+000	0.0000000E+000	0.0000000E+000	56.7842	0.0000000E+000	0.0000000E+000	0.0000000E+000	-56.7842	0.0000000E+000	0.0000000E+000	0.0000000E+000	-33.2158	0.0000000E+000	0.0000000E+000	0.0000000E+000	33.2158	1.52724	56.7842	0.000000000000000E+000	5.46975e-07	-1.31494e-11	5.46988e-07	3.82458	2.67411e+07	642.862	2.67418e+07
9.95598e-05	35.214	90.1861	96.8171	-68.6713	20329.7	3.82449	0.000143019	1.77254e+07	1.53805e+07	1	11	0.00508738	5.25462e-05	0	-0.0147008	-9.19415e-05	2.52045e-06	-10.3494	0.0479663	0.0471859	0.00861717	-68.6472	96.8423	35.2612	90.1947	0.00375674	0.00962133	0.0103287	68.6713	1.53805e+10	6.00548e+09	1.65114e+10	-21.3287	0.0000000E+000	0.0000000E+000	0.0000000E+000	21.3287	0.0000000E+000	0.0000000E+000	0.0000000E+000	-21.3287	0.0000000E+000	0.0000000E+000	0.0000000E+000	-68.6713	0.0000000E+000	0.0000000E+000	0.0000000E+000	68.6713	0.39046	21.3286	0.000000000000000E+000	5.46975e-07	-1.31494e-11	5.46988e-07	3.82458	2.67411e+07	642.862	2.67418e+07