File: txt/18504_R303_UC88_11mm_SOC50_C03.mpt
EC-Lab ASCII FILE
Nb header lines : 65

Potentio Electrochemical Impedance Spectroscopy

Run on channel : 3 (SN 65921)
User :
CE vs. WE compliance from -10 V to 10 V
Electrode connection : standard
Potential control : Ewe
Ewe ctrl range : min = -10.00 V, max = 10.00 V
Safety Limits :
	Do not start on E overload
Acquisition started on : 10/20/2025 14:15:05.382
Technique started on : 10/20/2025 14:15:08.076
Loaded Setting File :  C:\Users\Celltest\OneDrive - store-dot.com\Documents\EC-Lab\Data\txt_done\UC80_17231_EIS_50SOC.mps
Saved on :
	File : 18504_R303_UC88_11mm_SOC50_C03.mpr
	Directory : C:\Users\Celltest\OneDrive - store-dot.com\Documents\EC-Lab\Data\Michael\
	Host : 169.254.61.224
Device : VMP-3e (SN .003165)
Address : USB
EC-LAB for windows v11.62 (software)
Internet server v27.00 (firmware)
Command interpretor v12.03 (firmware)
Electrode material :
Initial state :
Electrolyte :
Comments :
Electrode surface area : 0.001 cm²
Characteristic mass : 0.001 g
Equivalent Weight : 0.000 g/eq.
Density : 0.000 g/cm3
Volume (V) : 0.001 cm³
Record Ece
Cycle Definition : Charge/Discharge alternance
Mode                Multi sine
E (V)               0.0000
vs.                 Eoc
tE (h:m:s)          0:00:0.0000
record              0
dI                  0.000
unit dI             mA
dt (s)              0.000
fi                  1.000
unit fi             MHz
ff                  0.100
unit ff             mHz
Nd                  10
Points              per decade
spacing             Logarithmic
Va (mV)             5.0
pw                  0.10
Na                  2
corr                0
E range min (V)     -10.000
E range max (V)     10.000
I Range             Auto
Bandwidth           5
nc cycles           0
goto Ns'            0
nr cycles           0
inc. cycle          0

freq/Hz	Re(Z)/Ohm	-Im(Z)/Ohm	|Z|/Ohm	Phase(Z)/deg	time/s	<Ewe>/V	<I>/mA	Cs/µF	Cp/µF	cycle number	I Range	|Ewe|/V	|I|/A	Ns	(Q-Qo)/mA.h	<Ece>/V	|Ece|/V	Phase(Zce)/deg	|Zce|/Ohm	Re(Zce)/Ohm	-Im(Zce)/Ohm	Phase(Zwe-ce)/deg	|Zwe-ce|/Ohm	Re(Zwe-ce)/Ohm	-Im(Zwe-ce)/Ohm	Re(Y)/Ohm-1	Im(Y)/Ohm-1	|Y|/Ohm-1	Phase(Y)/deg	Re(C)/nF	Im(C)/nF	|C|/nF	Phase(C)/deg	Re(M)	Im(M)	|M|	Phase(M)/deg	Re(Permittivity)	Im(Permittivity)	|Permittivity|	Phase(Permittivity)/deg	Re(Resistivity)/Ohm.cm	Im(Resistivity)/Ohm.cm	|Resistivity|/Ohm.cm	Phase(Resistivity)/deg	Re(Conductivity)/mS/cm	Im(Conductivity)/mS/cm	|Conductivity|/mS/cm	Phase(Conductivity)/deg	Tan(Delta)	Loss Angle(Delta)/deg	dq/mA.h	Pwe/W	Pce/W	Pwe-ce/W	<Ewe-Ece>/V	Rwe/Ohm	Rce/Ohm	Rwe-ce/Ohm		Ewe-Ece/V
1.00002e+06	0.902889	-0.322193	0.958653	19.6388	2.69356	3.82611	0.036765	-0.493965	-0.0557962	1	9	0.000214526	0.000223779	0	-5.5804e-06	0.000415931	0.00018767	13.3359	0.838642	0.816028	-0.19344	16.698	1.79459	1.71892	-0.515633	0.982451	-0.350585	1.04313	-19.6388	-55.7962	156.359	166.016	-109.639	0.0000000E+000	0.0000000E+000	0.0000000E+000	109.639	0.0000000E+000	0.0000000E+000	0.0000000E+000	-109.639	0.0000000E+000	0.0000000E+000	0.0000000E+000	19.6388	0.0000000E+000	0.0000000E+000	0.0000000E+000	-19.6388	2.80232	70.3612	-5.5804e-06	0.000140667	1.52917e-08	0.000140652	3.8257	104070	11.3132	104058
251206	0.803842	0.377395	0.888025	-25.1495	4.99155	3.82569	0.0175216	1.67878	0.303204	1	9	0.00206748	0.00232818	0	5.88195e-06	-4.23269e-05	5.13108e-05	90.0313	0.022039	-1.20522e-05	-0.022039	-23.8492	0.878875	0.80383	0.355356	1.01934	0.47857	1.12609	25.1495	303.204	645.817	713.451	-64.8505	0.0000000E+000	0.0000000E+000	0.0000000E+000	64.8505	0.0000000E+000	0.0000000E+000	0.0000000E+000	-64.8505	0.0000000E+000	0.0000000E+000	0.0000000E+000	-25.1495	0.0000000E+000	0.0000000E+000	0.0000000E+000	25.1495	2.12998	64.8505	2.99954e-06	6.7032e-05	-7.41634e-10	6.70328e-05	3.82573	218342	2.41571	218344
63093.8	1.34423	1.12	1.74967	-39.8008	7.29153	3.82559	0.0177454	2.25224	0.922865	1	9	0.00534879	0.00305702	0	-3.50518e-06	0.00012952	2.33227e-05	46.416	0.00762922	0.00525971	-0.00552633	-39.5516	1.75019	1.34949	1.11448	0.439096	0.365851	0.571535	39.8008	922.865	1107.62	1441.7	-50.1992	0.0000000E+000	0.0000000E+000	0.0000000E+000	50.1992	0.0000000E+000	0.0000000E+000	0.0000000E+000	-50.1992	0.0000000E+000	0.0000000E+000	0.0000000E+000	-39.8008	0.0000000E+000	0.0000000E+000	0.0000000E+000	39.8008	1.2002	50.1992	1.20586e-07	6.78864e-05	2.29837e-09	6.78841e-05	3.82546	215583	7.29879	215575
15847.7	2.73668	1.8665	3.31258	-34.2952	9.59152	3.82558	0.0261363	5.38056	1.70824	1	9	0.00519459	0.00156814	0	6.14354e-06	-0.00029055	1.35887e-05	-116.373	0.0086655	-0.00384934	0.00776361	-34.4436	3.31379	2.73283	1.87426	0.249396	0.170096	0.301879	34.2952	1708.24	2504.63	3031.71	-55.7048	0.0000000E+000	0.0000000E+000	0.0000000E+000	55.7048	0.0000000E+000	0.0000000E+000	0.0000000E+000	-55.7048	0.0000000E+000	0.0000000E+000	0.0000000E+000	-34.2952	0.0000000E+000	0.0000000E+000	0.0000000E+000	34.2952	1.46621	55.7048	2.214e-06	9.99866e-05	-7.59391e-09	9.99942e-05	3.82587	146370	11.1167	146381
3983.6	4.54218	2.67465	5.27116	-30.4916	11.594	3.82554	-0.0262781	14.9375	3.8459	1	10	0.00527029	0.000999835	0	3.1653e-06	-0.000118703	7.47291e-06	-124.197	0.00747414	-0.00420073	0.00618195	-30.5727	5.27068	4.53798	2.68083	0.163475	0.0962618	0.189712	30.4916	3845.9	6531.25	7579.46	-59.5084	0.0000000E+000	0.0000000E+000	0.0000000E+000	59.5084	0.0000000E+000	0.0000000E+000	0.0000000E+000	-59.5084	0.0000000E+000	0.0000000E+000	0.0000000E+000	-30.4916	0.0000000E+000	0.0000000E+000	0.0000000E+000	30.4916	1.69823	59.5084	-1.96616e-06	-0.000100528	3.11929e-09	-0.000100531	3.82566	145579	4.5172	145584
1000.32	7.44927	3.85961	8.38977	-27.3895	14.2228	3.82549	-0.0250997	41.2228	8.72417	1	10	0.00483332	0.000576097	0	-1.39874e-05	-6.1421e-05	1.0485e-05	-108.295	0.0182	-0.00571304	0.0172801	-27.5122	8.39267	7.44356	3.87689	0.105831	0.0548331	0.119193	27.3895	8724.17	16838.2	18964	-62.6105	0.0000000E+000	0.0000000E+000	0.0000000E+000	62.6105	0.0000000E+000	0.0000000E+000	0.0000000E+000	-62.6105	0.0000000E+000	0.0000000E+000	0.0000000E+000	-27.3895	0.0000000E+000	0.0000000E+000	0.0000000E+000	27.3895	1.93006	62.6105	-3.07485e-06	-9.60189e-05	1.54165e-09	-9.60204e-05	3.82555	152412	2.44708	152414
251.044	11.8486	4.1013	12.5383	-19.0929	16.923	3.8255	-0.0248797	154.578	16.539	1	10	0.00474118	0.000378135	0	-3.2374e-05	-0.000214174	7.96644e-06	-41.8665	0.0210677	0.0156892	0.0140606	-19.1301	12.5578	11.8643	4.11536	0.075368	0.026088	0.0797553	19.0929	16539	47781.1	50562.6	-70.9071	0.0000000E+000	0.0000000E+000	0.0000000E+000	70.9071	0.0000000E+000	0.0000000E+000	0.0000000E+000	-70.9071	0.0000000E+000	0.0000000E+000	0.0000000E+000	-19.0929	0.0000000E+000	0.0000000E+000	0.0000000E+000	19.0929	2.88899	70.9071	-2.68814e-06	-9.51774e-05	5.32858e-09	-9.51827e-05	3.82571	153759	8.60835	153768
63.0823	14.9886	2.23341	15.1541	-8.47513	19.6429	3.82551	-0.0233062	1129.65	24.537	1	10	0.00474027	0.000312805	0	-4.89548e-05	-0.000137797	9.04417e-06	-107.036	0.0289132	-0.00847091	0.0276444	-8.58326	15.1498	14.9802	2.26106	0.0652681	0.00972543	0.0659887	8.47513	24537	164670	166488	-81.5249	0.0000000E+000	0.0000000E+000	0.0000000E+000	81.5249	0.0000000E+000	0.0000000E+000	0.0000000E+000	-81.5249	0.0000000E+000	0.0000000E+000	0.0000000E+000	-8.47513	0.0000000E+000	0.0000000E+000	0.0000000E+000	8.47513	6.71108	81.5249	-3.09488e-06	-8.91579e-05	3.21152e-09	-8.91611e-05	3.82565	164142	5.91248	164147
15.8576	15.8858	0.941265	15.9136	-3.39093	22.548	3.82554	-0.0229089	10662.8	37.3041	1	11	0.00472476	0.0002969	0	-6.65146e-05	-0.000271456	1.13333e-05	74.9731	0.038172	0.00989696	-0.0368667	-3.25638	15.9214	15.8957	0.904398	0.0627292	0.00371684	0.0628392	3.39093	37304.1	629583	630687	-86.6091	0.0000000E+000	0.0000000E+000	0.0000000E+000	86.6091	0.0000000E+000	0.0000000E+000	0.0000000E+000	-86.6091	0.0000000E+000	0.0000000E+000	0.0000000E+000	-3.39093	0.0000000E+000	0.0000000E+000	0.0000000E+000	3.39093	16.877	86.6091	-1.63717e-06	-8.76391e-05	6.21876e-09	-8.76453e-05	3.82582	166989	11.8493	167001
3.97785	16.306	0.642614	16.3186	-2.25684	25.4593	3.82554	-0.0217207	62261.7	96.5504	1	11	0.00473378	0.000290084	0	-8.31105e-05	-0.000309644	3.1971e-06	74.4394	0.0110213	0.00295654	-0.0106173	-2.21919	16.3212	16.3089	0.631997	0.0612321	0.00241314	0.0612796	2.25684	96550.4	2.44991e+06	2.45182e+06	-87.7432	0.0000000E+000	0.0000000E+000	0.0000000E+000	87.7432	0.0000000E+000	0.0000000E+000	0.0000000E+000	-87.7432	0.0000000E+000	0.0000000E+000	0.0000000E+000	-2.25684	0.0000000E+000	0.0000000E+000	0.0000000E+000	2.25684	25.3744	87.7432	-4.55456e-07	-8.30933e-05	6.72567e-09	-8.31e-05	3.82585	176124	14.2557	176139
1.00469	16.741	0.828261	16.7614	-2.8324	240.271	3.82553	-0.011206	191258	467.015	1	11	0.00503826	0.000300586	0	-0.00208307	0.00012952	4.34758e-07	-3.54997	0.00144637	0.00144359	8.95577e-05	-2.83247	16.7629	16.7424	0.828351	0.0595878	0.00294811	0.0596607	2.8324	467015	9.43939e+06	9.45094e+06	-87.1676	0.0000000E+000	0.0000000E+000	0.0000000E+000	87.1676	0.0000000E+000	0.0000000E+000	0.0000000E+000	-87.1676	0.0000000E+000	0.0000000E+000	0.0000000E+000	-2.8324	0.0000000E+000	0.0000000E+000	0.0000000E+000	2.8324	20.2122	87.1676	-0.00196083	-4.28688e-05	-1.45139e-09	-4.28673e-05	3.8254	341383	11.5581	341371
0.251173	17.5719	1.55415	17.6405	-5.05438	240.274	3.82553	-0.011206	407713	3164.59	1	11	0.00506626	0.000287195	0	-0.00208307	0.00012952	5.70299e-07	-2.42725	0.00198576	0.00198397	8.40985e-05	-5.05408	17.6425	17.5739	1.55423	0.0564674	0.00499426	0.0566878	5.05438	3.16459e+06	3.57803e+07	3.592e+07	-84.9456	0.0000000E+000	0.0000000E+000	0.0000000E+000	84.9456	0.0000000E+000	0.0000000E+000	0.0000000E+000	-84.9456	0.0000000E+000	0.0000000E+000	0.0000000E+000	-5.05438	0.0000000E+000	0.0000000E+000	0.0000000E+000	5.05438	11.3065	84.9456	0.000000000000000E+000	-4.28688e-05	-1.45139e-09	-4.28673e-05	3.8254	341383	11.5581	341371
0.0602816	19.1304	2.63214	19.3106	-7.83413	240.277	3.82553	-0.011206	1.00306e+06	18636.1	1	11	0.00505782	0.00026192	0	-0.00208307	0.00012952	6.47443e-07	5.70064	0.00247192	0.00245969	-0.000245538	-7.83242	19.313	19.1328	2.6319	0.0513018	0.00705861	0.0517851	7.83413	1.86361e+07	1.35446e+08	1.36722e+08	-82.1659	0.0000000E+000	0.0000000E+000	0.0000000E+000	82.1659	0.0000000E+000	0.0000000E+000	0.0000000E+000	-82.1659	0.0000000E+000	0.0000000E+000	0.0000000E+000	-7.83413	0.0000000E+000	0.0000000E+000	0.0000000E+000	7.83413	7.26797	82.1659	0.000000000000000E+000	-4.28688e-05	-1.45139e-09	-4.28673e-05	3.8254	341383	11.5581	341371
0.00796479	26.6948	4.54497	27.079	-9.66233	20329.1	3.82554	-3.55671e-05	4.39658e+06	123855	1	11	0.00505411	0.000186643	0	-0.0121495	0.00022499	6.61348e-07	168.204	0.00354338	-0.00346855	-0.000724373	-9.66205	27.0754	26.6913	4.54424	0.0364052	0.00619822	0.036929	9.66233	1.23855e+08	7.2746e+08	7.37928e+08	-80.3377	0.0000000E+000	0.0000000E+000	0.0000000E+000	80.3377	0.0000000E+000	0.0000000E+000	0.0000000E+000	-80.3377	0.0000000E+000	0.0000000E+000	0.0000000E+000	-9.66233	0.0000000E+000	0.0000000E+000	0.0000000E+000	9.66233	5.87349	80.3377	-0.0100664	-1.36063e-07	-8.00223e-12	-1.36055e-07	3.82531	1.07558e+08	6325.8	1.07552e+08
0.0019912	29.8133	7.14934	30.6586	-13.4851	20329.1	3.82554	-3.55671e-05	1.118e+07	607950	1	11	0.00506581	0.000165233	0	-0.0121495	0.00022499	2.20712e-07	-1.23744	0.00133576	0.00133545	2.88467e-05	-13.4846	30.6599	29.8147	7.14936	0.0317181	0.0076061	0.0326173	13.4851	6.07951e+08	2.5352e+09	2.60708e+09	-76.5149	0.0000000E+000	0.0000000E+000	0.0000000E+000	76.5149	0.0000000E+000	0.0000000E+000	0.0000000E+000	-76.5149	0.0000000E+000	0.0000000E+000	0.0000000E+000	-13.4851	0.0000000E+000	0.0000000E+000	0.0000000E+000	13.4851	4.17008	76.5149	0.000000000000000E+000	-1.36063e-07	-8.00223e-12	-1.36055e-07	3.82531	1.07558e+08	6325.8	1.07552e+08
0.000497799	31.394	19.1051	36.7504	-31.323	20329.1	3.82554	-3.55671e-05	1.67346e+07	4.52264e+06	1	11	0.00506583	0.000137844	0	-0.0121495	0.00022499	3.97419e-07	153.843	0.0028831	-0.00258785	-0.00127095	-31.3234	36.7475	31.3915	19.1039	0.0232446	0.0141457	0.0272106	31.323	4.52264e+09	7.43171e+09	8.69969e+09	-58.677	0.0000000E+000	0.0000000E+000	0.0000000E+000	58.677	0.0000000E+000	0.0000000E+000	0.0000000E+000	-58.677	0.0000000E+000	0.0000000E+000	0.0000000E+000	-31.323	0.0000000E+000	0.0000000E+000	0.0000000E+000	31.323	1.64323	58.677	0.000000000000000E+000	-1.36063e-07	-8.00223e-12	-1.36055e-07	3.82531	1.07558e+08	6325.8	1.07552e+08
9.95598e-05	41.43	91.8232	100.737	-65.7155	20329.1	3.82554	-3.55671e-05	1.74094e+07	1.44647e+07	1	11	0.00506097	5.02394e-05	0	-0.0121495	0.00022499	3.76957e-06	-92.0396	0.0750322	-0.0026704	0.0749846	-65.7344	100.804	41.4273	91.8982	0.0040826	0.00904845	0.00992684	65.7155	1.44647e+10	6.52638e+09	1.58689e+10	-24.2845	0.0000000E+000	0.0000000E+000	0.0000000E+000	24.2845	0.0000000E+000	0.0000000E+000	0.0000000E+000	-24.2845	0.0000000E+000	0.0000000E+000	0.0000000E+000	-65.7155	0.0000000E+000	0.0000000E+000	0.0000000E+000	65.7155	0.451193	24.2845	0.000000000000000E+000	-1.36063e-07	-8.00223e-12	-1.36055e-07	3.82531	1.07558e+08	6325.8	1.07552e+08