File: txt/18506_R303_UC88_11mm_SOC50_C05.mpt
EC-Lab ASCII FILE
Nb header lines : 65

Potentio Electrochemical Impedance Spectroscopy

Run on channel : 5 (SN 65912)
User :
CE vs. WE compliance from -10 V to 10 V
Electrode connection : standard
Potential control : Ewe
Ewe ctrl range : min = -10.00 V, max = 10.00 V
Safety Limits :
	Do not start on E overload
Acquisition started on : 10/20/2025 14:15:43.480
Technique started on : 10/20/2025 14:15:46.349
Loaded Setting File :  C:\Users\Celltest\OneDrive - store-dot.com\Documents\EC-Lab\Data\txt_done\UC80_17231_EIS_50SOC.mps
Saved on :
	File : 18506_R303_UC88_11mm_SOC50_C05.mpr
	Directory : C:\Users\Celltest\OneDrive - store-dot.com\Documents\EC-Lab\Data\Michael\
	Host : 169.254.61.224
Device : VMP-3e (SN .003165)
Address : USB
EC-LAB for windows v11.62 (software)
Internet server v27.00 (firmware)
Command interpretor v12.03 (firmware)
Electrode material :
Initial state :
Electrolyte :
Comments :
Electrode surface area : 0.001 cm²
Characteristic mass : 0.001 g
Equivalent Weight : 0.000 g/eq.
Density : 0.000 g/cm3
Volume (V) : 0.001 cm³
Record Ece
Cycle Definition : Charge/Discharge alternance
Mode                Multi sine
E (V)               0.0000
vs.                 Eoc
tE (h:m:s)          0:00:0.0000
record              0
dI                  0.000
unit dI             mA
dt (s)              0.000
fi                  1.000
unit fi             MHz
ff                  0.100
unit ff             mHz
Nd                  10
Points              per decade
spacing             Logarithmic
Va (mV)             5.0
pw                  0.10
Na                  2
corr                0
E range min (V)     -10.000
E range max (V)     10.000
I Range             Auto
Bandwidth           5
nc cycles           0
goto Ns'            0
nr cycles           0
inc. cycle          0

freq/Hz	Re(Z)/Ohm	-Im(Z)/Ohm	|Z|/Ohm	Phase(Z)/deg	time/s	<Ewe>/V	<I>/mA	Cs/µF	Cp/µF	cycle number	I Range	|Ewe|/V	|I|/A	Ns	(Q-Qo)/mA.h	<Ece>/V	|Ece|/V	Phase(Zce)/deg	|Zce|/Ohm	Re(Zce)/Ohm	-Im(Zce)/Ohm	Phase(Zwe-ce)/deg	|Zwe-ce|/Ohm	Re(Zwe-ce)/Ohm	-Im(Zwe-ce)/Ohm	Re(Y)/Ohm-1	Im(Y)/Ohm-1	|Y|/Ohm-1	Phase(Y)/deg	Re(C)/nF	Im(C)/nF	|C|/nF	Phase(C)/deg	Re(M)	Im(M)	|M|	Phase(M)/deg	Re(Permittivity)	Im(Permittivity)	|Permittivity|	Phase(Permittivity)/deg	Re(Resistivity)/Ohm.cm	Im(Resistivity)/Ohm.cm	|Resistivity|/Ohm.cm	Phase(Resistivity)/deg	Re(Conductivity)/mS/cm	Im(Conductivity)/mS/cm	|Conductivity|/mS/cm	Phase(Conductivity)/deg	Tan(Delta)	Loss Angle(Delta)/deg	dq/mA.h	Pwe/W	Pce/W	Pwe-ce/W	<Ewe-Ece>/V	Rwe/Ohm	Rce/Ohm	Rwe-ce/Ohm		Ewe-Ece/V
1.00002e+06	0.945145	-0.176874	0.961552	10.5997	2.86856	3.82732	0.102984	-0.899805	-0.030446	1	9	0.000203546	0.000211685	0	3.70849e-05	0.000149454	0.000196682	0.578476	0.929126	0.929078	-0.00938058	5.67524	1.88345	1.87422	-0.186254	1.02224	-0.191301	1.03999	-10.5997	-30.446	162.691	165.516	-100.6	0.0000000E+000	0.0000000E+000	0.0000000E+000	100.6	0.0000000E+000	0.0000000E+000	0.0000000E+000	-100.6	0.0000000E+000	0.0000000E+000	0.0000000E+000	10.5997	0.0000000E+000	0.0000000E+000	0.0000000E+000	-10.5997	5.34361	79.4003	3.70849e-05	0.000394152	1.53914e-08	0.000394136	3.82717	37164.3	1.45124	37162.9
251206	0.806869	0.354776	0.881421	-23.7348	5.16855	3.82569	-0.021211	1.78581	0.289319	1	9	0.00239537	0.00271763	0	3.99422e-05	-9.87315e-05	5.14969e-05	103.729	0.0189492	-0.00449733	-0.0184078	-22.7443	0.870025	0.802372	0.336368	1.03857	0.456654	1.13453	23.7348	289.319	658	718.797	-66.2652	0.0000000E+000	0.0000000E+000	0.0000000E+000	66.2652	0.0000000E+000	0.0000000E+000	0.0000000E+000	-66.2652	0.0000000E+000	0.0000000E+000	0.0000000E+000	-23.7348	0.0000000E+000	0.0000000E+000	0.0000000E+000	23.7348	2.27431	66.2652	-2.3779e-06	-8.11466e-05	2.09419e-09	-8.11487e-05	3.82579	180364	4.65474	180368
63093.8	1.34641	1.00694	1.6813	-36.7918	7.46656	3.82539	-0.0156622	2.50512	0.898565	1	9	0.00549348	0.00326741	0	-1.40341e-05	-0.00023237	2.07435e-05	105.527	0.00634861	-0.00169948	-0.00611691	-36.6591	1.67628	1.34471	1.00083	0.476309	0.356218	0.594779	36.7918	898.565	1201.5	1500.34	-53.2082	0.0000000E+000	0.0000000E+000	0.0000000E+000	53.2082	0.0000000E+000	0.0000000E+000	0.0000000E+000	-53.2082	0.0000000E+000	0.0000000E+000	0.0000000E+000	-36.7918	0.0000000E+000	0.0000000E+000	0.0000000E+000	36.7918	1.33713	53.2082	-7.87337e-06	-5.99142e-05	3.63943e-09	-5.99178e-05	3.82563	244243	14.8363	244258
15847.7	2.63102	1.57743	3.06766	-30.9448	9.89253	3.8254	-0.00992733	6.36656	1.68341	1	9	0.00505861	0.00164901	0	-2.31425e-05	-0.000117823	1.08009e-05	-56.7133	0.00654993	0.00359479	0.00547532	-30.9978	3.07356	2.63462	1.5829	0.279582	0.167623	0.325981	30.9448	1683.41	2807.78	3273.76	-59.0552	0.0000000E+000	0.0000000E+000	0.0000000E+000	59.0552	0.0000000E+000	0.0000000E+000	0.0000000E+000	-59.0552	0.0000000E+000	0.0000000E+000	0.0000000E+000	-30.9448	0.0000000E+000	0.0000000E+000	0.0000000E+000	30.9448	1.66792	59.0552	-1.04797e-07	-3.7976e-05	1.16967e-09	-3.79772e-05	3.82551	385340	11.8685	385352
3983.6	4.08575	1.97477	4.53796	-25.7959	11.7731	3.82527	-0.0280133	20.2315	3.83124	1	10	0.00492461	0.0010852	0	-3.25087e-05	0.000264002	6.81486e-06	5.11374	0.0062798	0.00625481	-0.000559739	-25.7552	4.54335	4.09201	1.97421	0.198404	0.0958947	0.220363	25.7959	3831.24	7926.74	8804.07	-64.2041	0.0000000E+000	0.0000000E+000	0.0000000E+000	64.2041	0.0000000E+000	0.0000000E+000	0.0000000E+000	-64.2041	0.0000000E+000	0.0000000E+000	0.0000000E+000	-25.7959	0.0000000E+000	0.0000000E+000	0.0000000E+000	25.7959	2.06898	64.2041	-1.37163e-06	-0.000107159	-7.39557e-09	-0.000107151	3.82501	136552	9.42414	136542
1000.32	6.06608	2.66599	6.62607	-23.7251	14.4008	3.82526	-0.00407183	59.6792	9.66112	1	10	0.00469114	0.000707982	0	-3.73733e-05	0.000111272	1.53094e-05	-34.5595	0.021624	0.0178082	0.0122665	-23.7601	6.64731	6.08388	2.67825	0.138164	0.0607221	0.150919	23.7251	9661.13	21982.5	24011.8	-66.2749	0.0000000E+000	0.0000000E+000	0.0000000E+000	66.2749	0.0000000E+000	0.0000000E+000	0.0000000E+000	-66.2749	0.0000000E+000	0.0000000E+000	0.0000000E+000	-23.7251	0.0000000E+000	0.0000000E+000	0.0000000E+000	23.7251	2.27536	66.2749	-8.89526e-07	-1.55758e-05	-4.5308e-10	-1.55754e-05	3.82515	939446	27.3272	939418
251.044	9.10425	3.01157	9.58942	-18.3036	17.101	3.82526	-0.00391918	210.512	20.7624	1	10	0.00464216	0.000484091	0	-3.99278e-05	-0.000194188	6.05068e-06	-57.0622	0.0124991	0.00679609	0.01049	-18.3503	9.59917	9.11105	3.02206	0.0990056	0.0327498	0.104282	18.3036	20762.4	62766.7	66111.6	-71.6964	0.0000000E+000	0.0000000E+000	0.0000000E+000	71.6964	0.0000000E+000	0.0000000E+000	0.0000000E+000	-71.6964	0.0000000E+000	0.0000000E+000	0.0000000E+000	-18.3036	0.0000000E+000	0.0000000E+000	0.0000000E+000	18.3036	3.02309	71.6964	-5.0023e-07	-1.49919e-05	7.61055e-10	-1.49926e-05	3.82546	976038	49.5481	976087
63.0823	11.5403	1.73123	11.6694	-8.53167	19.8219	3.82528	0.000705299	1457.33	32.0752	1	10	0.00463631	0.000397305	0	-4.2245e-05	0.000283093	1.21857e-05	9.72814	0.0306708	0.0302298	-0.00518256	-8.48461	11.6985	11.5705	1.72605	0.0847458	0.0127132	0.0856941	8.53167	32075.2	213811	216204	-81.4683	0.0000000E+000	0.0000000E+000	0.0000000E+000	81.4683	0.0000000E+000	0.0000000E+000	0.0000000E+000	-81.4683	0.0000000E+000	0.0000000E+000	0.0000000E+000	-8.53167	0.0000000E+000	0.0000000E+000	0.0000000E+000	8.53167	6.66595	81.4683	1.91813e-07	2.69797e-06	1.99665e-10	2.69777e-06	3.825	5.42363e+06	401.38	5.42323e+06
15.8576	12.2848	0.744106	12.3073	-3.46625	22.48	3.82526	-0.00889366	13488	49.3051	1	10	0.00463199	0.000376361	0	-4.24813e-05	0.000187637	1.16901e-05	-15.3561	0.0310608	0.0299519	0.00822543	-3.49596	12.3377	12.3148	0.752332	0.0811039	0.00491257	0.0812525	3.46625	49305.1	814001	815493	-86.5338	0.0000000E+000	0.0000000E+000	0.0000000E+000	86.5338	0.0000000E+000	0.0000000E+000	0.0000000E+000	-86.5338	0.0000000E+000	0.0000000E+000	0.0000000E+000	-3.46625	0.0000000E+000	0.0000000E+000	0.0000000E+000	3.46625	16.5095	86.5338	3.2525e-07	-3.40206e-05	-1.66878e-09	-3.40189e-05	3.82507	430111	21.0978	430090
3.97785	12.6022	0.478985	12.6113	-2.17665	25.6354	3.82533	0.0012426	83531.3	120.496	1	11	0.00463075	0.00036719	0	-4.01007e-05	-0.000213279	4.84763e-06	-16.0607	0.0132019	0.0126867	0.00365239	-2.19103	12.6241	12.6149	0.482638	0.0792367	0.00301163	0.0792939	2.17665	120496	3.17028e+06	3.17257e+06	-87.8233	0.0000000E+000	0.0000000E+000	0.0000000E+000	87.8233	0.0000000E+000	0.0000000E+000	0.0000000E+000	-87.8233	0.0000000E+000	0.0000000E+000	0.0000000E+000	-2.17665	0.0000000E+000	0.0000000E+000	0.0000000E+000	2.17665	26.3102	87.8233	3.46747e-06	4.75335e-06	-2.6502e-10	4.75362e-06	3.82554	3.07849e+06	171.639	3.07866e+06
1.00469	12.9265	0.616464	12.9412	-2.73037	240.447	3.82531	0.00200777	256968	583.105	1	11	0.00507555	0.000392201	0	-0.00137782	0.000187637	6.22025e-07	-11.8902	0.00158598	0.00155195	0.00032677	-2.73149	12.9427	12.928	0.616791	0.077185	0.00368095	0.0772727	2.73037	583106	1.2227e+07	1.22409e+07	-87.2696	0.0000000E+000	0.0000000E+000	0.0000000E+000	87.2696	0.0000000E+000	0.0000000E+000	0.0000000E+000	-87.2696	0.0000000E+000	0.0000000E+000	0.0000000E+000	-2.73037	0.0000000E+000	0.0000000E+000	0.0000000E+000	2.73037	20.9687	87.2696	-0.00134306	7.68037e-06	3.76732e-10	7.68e-06	3.82513	1.90525e+06	93.4551	1.90516e+06
0.251173	13.5164	1.2024	13.5697	-5.08357	240.451	3.82531	0.00200777	526986	4137.63	1	11	0.00510525	0.000376223	0	-0.00137782	0.000187637	7.20983e-07	-6.32909	0.00191637	0.00190469	0.000211258	-5.08375	13.5716	13.5183	1.20261	0.0734036	0.00652988	0.0736934	5.08357	4.13763e+06	4.65119e+07	4.66955e+07	-84.9164	0.0000000E+000	0.0000000E+000	0.0000000E+000	84.9164	0.0000000E+000	0.0000000E+000	0.0000000E+000	-84.9164	0.0000000E+000	0.0000000E+000	0.0000000E+000	-5.08357	0.0000000E+000	0.0000000E+000	0.0000000E+000	5.08357	11.2412	84.9164	0.000000000000000E+000	7.68037e-06	3.76732e-10	7.68e-06	3.82513	1.90525e+06	93.4551	1.90516e+06
0.0602816	14.7439	2.22779	14.9113	-8.59235	240.455	3.82531	0.00200777	1.18511e+06	26453.3	1	11	0.0050957	0.000341735	0	-0.00137782	0.000187637	8.1844e-07	-11.6246	0.00239496	0.00234583	0.00048258	-8.59284	14.9137	14.7463	2.22828	0.0663107	0.0100195	0.0670634	8.59235	2.64533e+07	1.75073e+08	1.7706e+08	-81.4077	0.0000000E+000	0.0000000E+000	0.0000000E+000	81.4077	0.0000000E+000	0.0000000E+000	0.0000000E+000	-81.4077	0.0000000E+000	0.0000000E+000	0.0000000E+000	-8.59235	0.0000000E+000	0.0000000E+000	0.0000000E+000	8.59235	6.61817	81.4077	0.000000000000000E+000	7.68037e-06	3.76732e-10	7.68e-06	3.82513	1.90525e+06	93.4551	1.90516e+06
0.00796479	20.9231	4.10004	21.3211	-11.087	20329.4	3.82531	-0.000766564	4.87369e+06	180226	1	11	0.00508957	0.000238711	0	-0.0214837	-0.00023237	2.92288e-07	59.3317	0.00122444	0.000624549	-0.00105319	-11.0839	21.3215	20.9238	4.09899	0.0460266	0.00901926	0.046902	11.087	1.80226e+08	9.19719e+08	9.37211e+08	-78.9129	0.0000000E+000	0.0000000E+000	0.0000000E+000	78.9129	0.0000000E+000	0.0000000E+000	0.0000000E+000	-78.9129	0.0000000E+000	0.0000000E+000	0.0000000E+000	-11.087	0.0000000E+000	0.0000000E+000	0.0000000E+000	11.087	5.10315	78.9129	-0.0201059	-2.93235e-06	1.78126e-10	-2.93253e-06	3.82555	4.99021e+06	303.132	4.99051e+06
0.0019912	23.8059	6.47749	24.6715	-15.2214	20329.4	3.82531	-0.000766564	1.23396e+07	850595	1	11	0.00510095	0.000206755	0	-0.0214837	-0.00023237	2.1052e-07	-71.6945	0.00101821	0.000319803	0.000966684	-15.2234	24.672	23.8063	6.47845	0.0391107	0.0106418	0.0405327	15.2214	8.50595e+08	3.12609e+09	3.23975e+09	-74.7786	0.0000000E+000	0.0000000E+000	0.0000000E+000	74.7786	0.0000000E+000	0.0000000E+000	0.0000000E+000	-74.7786	0.0000000E+000	0.0000000E+000	0.0000000E+000	-15.2214	0.0000000E+000	0.0000000E+000	0.0000000E+000	15.2214	3.67518	74.7786	0.000000000000000E+000	-2.93235e-06	1.78126e-10	-2.93253e-06	3.82555	4.99021e+06	303.132	4.99051e+06
0.000497799	24.8084	17.9099	30.5978	-35.8267	20329.4	3.82531	-0.000766564	1.78514e+07	6.11619e+06	1	11	0.0051013	0.000166721	0	-0.0214837	-0.00023237	5.62555e-07	18.7133	0.00337422	0.00319584	-0.00108256	-35.8215	30.5997	24.8116	17.9089	0.0264984	0.01913	0.0326821	35.8267	6.11619e+09	8.47199e+09	1.0449e+10	-54.1733	0.0000000E+000	0.0000000E+000	0.0000000E+000	54.1733	0.0000000E+000	0.0000000E+000	0.0000000E+000	-54.1733	0.0000000E+000	0.0000000E+000	0.0000000E+000	-35.8267	0.0000000E+000	0.0000000E+000	0.0000000E+000	35.8267	1.38517	54.1733	0.000000000000000E+000	-2.93235e-06	1.78126e-10	-2.93253e-06	3.82555	4.99021e+06	303.132	4.99051e+06
9.95598e-05	31.7153	93.1852	98.4344	-71.2041	20329.4	3.82531	-0.000766564	1.71549e+07	1.53741e+07	1	11	0.00510018	5.1813e-05	0	-0.0214837	-0.00023237	2.63959e-06	90.7956	0.0509446	-0.000707371	-0.0509397	-71.195	98.386	31.7146	93.1342	0.00327322	0.00961729	0.010159	71.2041	1.53741e+10	5.23252e+09	1.62401e+10	-18.7959	0.0000000E+000	0.0000000E+000	0.0000000E+000	18.7959	0.0000000E+000	0.0000000E+000	0.0000000E+000	-18.7959	0.0000000E+000	0.0000000E+000	0.0000000E+000	-71.2041	0.0000000E+000	0.0000000E+000	0.0000000E+000	71.2041	0.340347	18.7959	0.000000000000000E+000	-2.93235e-06	1.78126e-10	-2.93253e-06	3.82555	4.99021e+06	303.132	4.99051e+06