File: txt/18502_R303_UC88_11mm_SOC50_C01.mpt
EC-Lab ASCII FILE
Nb header lines : 65

Potentio Electrochemical Impedance Spectroscopy

Run on channel : 1 (SN 66354)
User :
CE vs. WE compliance from -10 V to 10 V
Electrode connection : standard
Potential control : Ewe
Ewe ctrl range : min = -10.00 V, max = 10.00 V
Safety Limits :
	Do not start on E overload
Acquisition started on : 10/20/2025 14:14:33.280
Technique started on : 10/20/2025 14:14:35.975
Loaded Setting File :  C:\Users\Celltest\OneDrive - store-dot.com\Documents\EC-Lab\Data\txt_done\18445_R297_UC61_11mm_SOC50.mps
Saved on :
	File : 18502_R303_UC88_11mm_SOC50_C01.mpr
	Directory : C:\Users\Celltest\OneDrive - store-dot.com\Documents\EC-Lab\Data\Michael\
	Host : 169.254.61.224
Device : VMP-3e (SN .003165)
Address : USB
EC-LAB for windows v11.62 (software)
Internet server v27.00 (firmware)
Command interpretor v12.03 (firmware)
Electrode material :
Initial state :
Electrolyte :
Comments :
Electrode surface area : 0.001 cm²
Characteristic mass : 0.001 g
Equivalent Weight : 0.000 g/eq.
Density : 0.000 g/cm3
Volume (V) : 0.001 cm³
Record Ece
Cycle Definition : Charge/Discharge alternance
Mode                Multi sine
E (V)               0.0000
vs.                 Eoc
tE (h:m:s)          0:00:0.0000
record              0
dI                  0.000
unit dI             mA
dt (s)              0.000
fi                  1.000
unit fi             MHz
ff                  0.100
unit ff             mHz
Nd                  10
Points              per decade
spacing             Logarithmic
Va (mV)             5.0
pw                  0.10
Na                  2
corr                0
E range min (V)     -10.000
E range max (V)     10.000
I Range             Auto
Bandwidth           5
nc cycles           0
goto Ns'            0
nr cycles           0
inc. cycle          0

freq/Hz	Re(Z)/Ohm	-Im(Z)/Ohm	|Z|/Ohm	Phase(Z)/deg	time/s	<Ewe>/V	<I>/mA	Cs/µF	Cp/µF	cycle number	I Range	|Ewe|/V	|I|/A	Ns	(Q-Qo)/mA.h	<Ece>/V	|Ece|/V	Phase(Zce)/deg	|Zce|/Ohm	Re(Zce)/Ohm	-Im(Zce)/Ohm	Phase(Zwe-ce)/deg	|Zwe-ce|/Ohm	Re(Zwe-ce)/Ohm	-Im(Zwe-ce)/Ohm	Re(Y)/Ohm-1	Im(Y)/Ohm-1	|Y|/Ohm-1	Phase(Y)/deg	Re(C)/nF	Im(C)/nF	|C|/nF	Phase(C)/deg	Re(M)	Im(M)	|M|	Phase(M)/deg	Re(Permittivity)	Im(Permittivity)	|Permittivity|	Phase(Permittivity)/deg	Re(Resistivity)/Ohm.cm	Im(Resistivity)/Ohm.cm	|Resistivity|/Ohm.cm	Phase(Resistivity)/deg	Re(Conductivity)/mS/cm	Im(Conductivity)/mS/cm	|Conductivity|/mS/cm	Phase(Conductivity)/deg	Tan(Delta)	Loss Angle(Delta)/deg	dq/mA.h	Pwe/W	Pce/W	Pwe-ce/W	<Ewe-Ece>/V	Rwe/Ohm	Rce/Ohm	Rwe-ce/Ohm		Ewe-Ece/V
1.00002e+06	1.08158	-0.00534886	1.08159	0.283349	2.69457	3.8259	0.0540887	-29.7544	-0.000727687	1	9	0.00020976	0.000193936	0	9.47418e-06	0.000193113	0.000203854	-5.7916	1.05114	1.04578	0.106071	-2.71072	2.12974	2.12736	0.100722	0.92455	-0.00457228	0.924562	-0.283349	-0.727686	147.144	147.146	-90.2833	0.0000000E+000	0.0000000E+000	0.0000000E+000	90.2833	0.0000000E+000	0.0000000E+000	0.0000000E+000	-90.2833	0.0000000E+000	0.0000000E+000	0.0000000E+000	0.283349	0.0000000E+000	0.0000000E+000	0.0000000E+000	-0.283349	202.208	89.7167	9.47418e-06	0.000206938	1.04452e-08	0.000206928	3.82571	70733.9	3.5703	70730.4
251206	0.652214	0.380267	0.754974	-30.2439	4.99654	3.82561	0.0406772	1.6661	0.422683	1	9	0.00194957	0.00258229	0	3.9155e-05	0.000174035	6.42482e-05	117.472	0.0248803	-0.0114776	-0.0220747	-29.2066	0.73406	0.640736	0.358192	1.14426	0.667152	1.32455	30.2439	422.683	724.963	839.185	-59.7561	0.0000000E+000	0.0000000E+000	0.0000000E+000	59.7561	0.0000000E+000	0.0000000E+000	0.0000000E+000	-59.7561	0.0000000E+000	0.0000000E+000	0.0000000E+000	-30.2439	0.0000000E+000	0.0000000E+000	0.0000000E+000	30.2439	1.71515	59.7561	3.64701e-06	0.000155615	7.07927e-09	0.000155608	3.82543	94048	4.27845	94043.7
63093.8	1.16902	1.03566	1.56179	-41.5385	7.29655	3.82553	0.0634768	2.43565	1.07104	1	9	0.00543218	0.00347817	0	0.000101304	2.33964e-06	2.88521e-05	87.111	0.00829521	0.00041809	-0.00828466	-41.3	1.55663	1.16944	1.02738	0.479263	0.424591	0.64029	41.5385	1071.04	1208.95	1615.14	-48.4615	0.0000000E+000	0.0000000E+000	0.0000000E+000	48.4615	0.0000000E+000	0.0000000E+000	0.0000000E+000	-48.4615	0.0000000E+000	0.0000000E+000	0.0000000E+000	-41.5385	0.0000000E+000	0.0000000E+000	0.0000000E+000	41.5385	1.12877	48.4615	-4.93905e-06	0.000242832	1.48513e-10	0.000242832	3.82553	60266.6	0.0368582	60266.5
15847.7	2.39955	1.77018	2.98185	-36.4167	9.96754	3.82553	0.0574043	5.6733	1.99941	1	9	0.00498075	0.00167036	0	0.000146459	0.000116803	1.19414e-05	-83.0411	0.00714899	0.00086615	0.00709632	-36.5164	2.98676	2.40042	1.77728	0.269873	0.199089	0.335363	36.4167	1999.41	2710.28	3367.98	-53.5833	0.0000000E+000	0.0000000E+000	0.0000000E+000	53.5833	0.0000000E+000	0.0000000E+000	0.0000000E+000	-53.5833	0.0000000E+000	0.0000000E+000	0.0000000E+000	-36.4167	0.0000000E+000	0.0000000E+000	0.0000000E+000	36.4167	1.35554	53.5833	5.86048e-06	0.000219602	6.70503e-09	0.000219596	3.82542	66641.9	2.03475	66639.9
3983.6	4.14714	2.74322	4.97232	-33.4836	11.8461	3.82542	-0.0329391	14.5641	4.43288	1	10	0.00481297	0.000967953	0	0.000158208	-5.48923e-05	9.34267e-06	-39.6991	0.00965199	0.00742633	0.00616527	-33.4956	4.98192	4.15456	2.74939	0.167737	0.110954	0.201113	33.4836	4432.88	6701.53	8034.98	-56.5164	0.0000000E+000	0.0000000E+000	0.0000000E+000	56.5164	0.0000000E+000	0.0000000E+000	0.0000000E+000	-56.5164	0.0000000E+000	0.0000000E+000	0.0000000E+000	-33.4836	0.0000000E+000	0.0000000E+000	0.0000000E+000	33.4836	1.51178	56.5164	-2.35103e-06	-0.000126006	1.8081e-09	-0.000126008	3.82547	116136	1.66648	116138
1000.32	7.17921	4.25525	8.34555	-30.656	14.4748	3.82536	-0.0137864	37.3901	9.72066	1	10	0.00450825	0.000540198	0	0.000147284	0.000135881	6.11467e-06	64.6494	0.0113193	0.00484643	-0.0102293	-30.5786	8.34451	7.18406	4.24502	0.103078	0.0610963	0.119824	30.656	9720.66	16400.2	19064.5	-59.344	0.0000000E+000	0.0000000E+000	0.0000000E+000	59.344	0.0000000E+000	0.0000000E+000	0.0000000E+000	-59.344	0.0000000E+000	0.0000000E+000	0.0000000E+000	-30.656	0.0000000E+000	0.0000000E+000	0.0000000E+000	30.656	1.68714	59.344	-1.51035e-06	-5.2738e-05	-1.87331e-09	-5.27361e-05	3.82523	277474	9.85615	277464
251.044	12.1678	4.89657	13.1161	-21.9208	17.3881	3.82536	-0.0143454	129.473	18.0448	1	10	0.00494858	0.00037729	0	0.000135611	-5.48923e-05	1.2073e-05	-47.0852	0.0319991	0.0217885	0.0234351	-21.9801	13.1451	12.1896	4.92	0.0707299	0.028463	0.0762421	21.9208	18044.8	44840.7	48335.3	-68.0792	0.0000000E+000	0.0000000E+000	0.0000000E+000	68.0792	0.0000000E+000	0.0000000E+000	0.0000000E+000	-68.0792	0.0000000E+000	0.0000000E+000	0.0000000E+000	-21.9208	0.0000000E+000	0.0000000E+000	0.0000000E+000	21.9208	2.48497	68.0792	-1.82421e-06	-5.48764e-05	7.87454e-10	-5.48772e-05	3.82541	266660	3.82646	266664
63.0823	16.0651	2.77465	16.3029	-9.79904	20.109	3.82537	-0.00878858	909.295	26.3383	1	10	0.00493986	0.000303004	0	0.000126218	7.86489e-05	2.66766e-06	27.7275	0.00880404	0.00779308	-0.00409622	-9.7802	16.3099	16.0729	2.77055	0.0604437	0.0104394	0.0613386	9.79904	26338.3	152498	154756	-80.201	0.0000000E+000	0.0000000E+000	0.0000000E+000	80.201	0.0000000E+000	0.0000000E+000	0.0000000E+000	-80.201	0.0000000E+000	0.0000000E+000	0.0000000E+000	-9.79904	0.0000000E+000	0.0000000E+000	0.0000000E+000	9.79904	5.78996	80.201	-9.57767e-07	-3.36196e-05	-6.91212e-10	-3.36189e-05	3.82529	435266	8.94898	435257
15.8576	17.4321	1.19317	17.4729	-3.91561	23.002	3.82543	-0.00937648	8411.62	39.2246	1	11	0.00494167	0.00028282	0	0.000118229	0.000269422	1.81337e-05	131.607	0.0641174	-0.0425753	-0.0479414	-3.76792	17.4272	17.3895	1.14523	0.057098	0.00390818	0.0572316	3.91561	39224.5	573065	574406	-86.0844	0.0000000E+000	0.0000000E+000	0.0000000E+000	86.0844	0.0000000E+000	0.0000000E+000	0.0000000E+000	-86.0844	0.0000000E+000	0.0000000E+000	0.0000000E+000	-3.91561	0.0000000E+000	0.0000000E+000	0.0000000E+000	3.91561	14.6099	86.0844	-8.41718e-07	-3.5869e-05	-2.52623e-09	-3.58665e-05	3.82516	407981	28.7338	407952
3.97785	17.865	0.729489	17.8799	-2.33829	25.9144	3.82543	-0.00779065	54847	91.2981	1	11	0.00493425	0.000275967	0	0.000114741	0.000116803	7.68204e-06	-57.2551	0.0278368	0.0150569	0.0234132	-2.41122	17.8959	17.88	0.752902	0.0558823	0.00228187	0.0559288	2.33829	91298.2	2.23587e+06	2.23773e+06	-87.6617	0.0000000E+000	0.0000000E+000	0.0000000E+000	87.6617	0.0000000E+000	0.0000000E+000	0.0000000E+000	-87.6617	0.0000000E+000	0.0000000E+000	0.0000000E+000	-2.33829	0.0000000E+000	0.0000000E+000	0.0000000E+000	2.33829	24.4897	87.6617	2.15139e-06	-2.98026e-05	-9.09975e-10	-2.98017e-05	3.82531	491028	14.9928	491013
1.00469	18.3764	0.88061	18.3975	-2.74356	240.726	3.82541	-0.00149151	179888	412.148	1	11	0.00500668	0.00027214	0	-0.00108102	0.000154958	4.34438e-07	-14.9008	0.00159638	0.0015427	0.000410504	-2.7446	18.399	18.3779	0.881021	0.054293	0.00260176	0.0543553	2.74356	412149	8.60062e+06	8.6105e+06	-87.2564	0.0000000E+000	0.0000000E+000	0.0000000E+000	87.2564	0.0000000E+000	0.0000000E+000	0.0000000E+000	-87.2564	0.0000000E+000	0.0000000E+000	0.0000000E+000	-2.74356	0.0000000E+000	0.0000000E+000	0.0000000E+000	2.74356	20.8678	87.2564	-0.00118298	-5.70565e-06	-2.31122e-10	-5.70542e-06	3.82526	2.56479e+06	103.893	2.56468e+06
0.251173	19.2532	1.62148	19.3214	-4.81402	240.732	3.82541	-0.00149151	390781	2752.21	1	11	0.00503397	0.000260539	0	-0.00108102	0.000154958	6.90576e-07	-20.0074	0.00265057	0.00249061	0.000906873	-4.81608	19.324	19.2557	1.62239	0.0515735	0.00434345	0.0517561	4.81402	2.75221e+06	3.26793e+07	3.2795e+07	-85.186	0.0000000E+000	0.0000000E+000	0.0000000E+000	85.186	0.0000000E+000	0.0000000E+000	0.0000000E+000	-85.186	0.0000000E+000	0.0000000E+000	0.0000000E+000	-4.81402	0.0000000E+000	0.0000000E+000	0.0000000E+000	4.81402	11.8738	85.186	0.000000000000000E+000	-5.70565e-06	-2.31122e-10	-5.70542e-06	3.82526	2.56479e+06	103.893	2.56468e+06
0.0602816	20.9888	2.68018	21.1592	-7.27707	240.738	3.82541	-0.00149151	985078	15805.3	1	11	0.00502838	0.000237645	0	-0.00108102	0.000154958	3.65334e-07	-61.7109	0.00153731	0.000728563	0.00135371	-7.28046	21.1601	20.9895	2.68154	0.0468801	0.00598641	0.0472608	7.27707	1.58053e+07	1.23772e+08	1.24777e+08	-82.7229	0.0000000E+000	0.0000000E+000	0.0000000E+000	82.7229	0.0000000E+000	0.0000000E+000	0.0000000E+000	-82.7229	0.0000000E+000	0.0000000E+000	0.0000000E+000	-7.27707	0.0000000E+000	0.0000000E+000	0.0000000E+000	7.27707	7.83109	82.7229	0.000000000000000E+000	-5.70565e-06	-2.31122e-10	-5.70542e-06	3.82526	2.56479e+06	103.893	2.56468e+06
0.00796479	29.2275	4.31771	29.5447	-8.40339	20329.6	3.8254	0.00056194	4.62799e+06	98841.5	1	11	0.00502087	0.000169941	0	-0.00499899	5.95716e-05	7.46091e-07	-14.5102	0.00439029	0.00425025	0.0011	-8.40429	29.5491	29.2318	4.31881	0.0334836	0.00494645	0.033847	8.40339	9.88415e+07	6.6908e+08	6.76341e+08	-81.5966	0.0000000E+000	0.0000000E+000	0.0000000E+000	81.5966	0.0000000E+000	0.0000000E+000	0.0000000E+000	-81.5966	0.0000000E+000	0.0000000E+000	0.0000000E+000	-8.40339	0.0000000E+000	0.0000000E+000	0.0000000E+000	8.40339	6.76922	81.5966	-0.00391797	2.14965e-06	3.34756e-11	2.14961e-06	3.82535	6.8075e+06	106.011	6.80739e+06
0.0019912	32.2841	6.96496	33.0269	-12.1744	20329.6	3.8254	0.00056194	1.14759e+07	510375	1	11	0.00503348	0.000152405	0	-0.00499899	5.95716e-05	7.04554e-07	-36.0688	0.00462289	0.00373673	0.00272176	-12.1776	33.0311	32.2879	6.96768	0.0295974	0.00638534	0.0302784	12.1744	5.10375e+08	2.3657e+09	2.42013e+09	-77.8256	0.0000000E+000	0.0000000E+000	0.0000000E+000	77.8256	0.0000000E+000	0.0000000E+000	0.0000000E+000	-77.8256	0.0000000E+000	0.0000000E+000	0.0000000E+000	-12.1744	0.0000000E+000	0.0000000E+000	0.0000000E+000	12.1744	4.63522	77.8256	0.000000000000000E+000	2.14965e-06	3.34756e-11	2.14961e-06	3.82535	6.8075e+06	106.011	6.80739e+06
0.000497799	34.0123	18.8579	38.8903	-29.0058	20329.6	3.8254	0.00056194	1.6954e+07	3.98635e+06	1	11	0.00503494	0.000129465	0	-0.00499899	5.95716e-05	3.51386e-07	-82.5001	0.00271414	0.000354263	0.00269092	-29.0091	38.8919	34.0127	18.8606	0.0224881	0.0124684	0.0257133	29.0058	3.98635e+09	7.18984e+09	8.22099e+09	-60.9942	0.0000000E+000	0.0000000E+000	0.0000000E+000	60.9942	0.0000000E+000	0.0000000E+000	0.0000000E+000	-60.9942	0.0000000E+000	0.0000000E+000	0.0000000E+000	-29.0058	0.0000000E+000	0.0000000E+000	0.0000000E+000	29.0058	1.80361	60.9942	0.000000000000000E+000	2.14965e-06	3.34756e-11	2.14961e-06	3.82535	6.8075e+06	106.011	6.80739e+06
9.95598e-05	42.112	88.9099	98.3788	-64.6555	20329.6	3.8254	0.00056194	1.79798e+07	1.46853e+07	1	11	0.00503587	5.11886e-05	0	-0.00499899	5.95716e-05	1.63032e-06	-89.9186	0.0318492	4.5229e-05	0.0318492	-64.6634	98.4076	42.1121	88.9417	0.00435114	0.00918643	0.0101648	64.6555	1.46853e+10	6.95567e+09	1.62493e+10	-25.3445	0.0000000E+000	0.0000000E+000	0.0000000E+000	25.3445	0.0000000E+000	0.0000000E+000	0.0000000E+000	-25.3445	0.0000000E+000	0.0000000E+000	0.0000000E+000	-64.6555	0.0000000E+000	0.0000000E+000	0.0000000E+000	64.6555	0.473649	25.3445	0.000000000000000E+000	2.14965e-06	3.34756e-11	2.14961e-06	3.82535	6.8075e+06	106.011	6.80739e+06