File: txt/18573_R297_UC90_SOC50_C04.mpt
EC-Lab ASCII FILE
Nb header lines : 65

Potentio Electrochemical Impedance Spectroscopy

Run on channel : 4 (SN 66756)
User :
CE vs. WE compliance from -10 V to 10 V
Electrode connection : standard
Potential control : Ewe
Ewe ctrl range : min = -10.00 V, max = 10.00 V
Safety Limits :
	Do not start on E overload
Acquisition started on : 10/21/2025 16:34:50.544
Technique started on : 10/21/2025 16:34:53.238
Loaded Setting File :  C:\Users\Celltest\OneDrive - store-dot.com\Documents\EC-Lab\Data\@Biologic Test Protocols\cathode half cell EIS SOC50.mps
Saved on :
	File : 18573_R297_UC90_SOC50_C04.mpr
	Directory : C:\Users\Celltest\OneDrive - store-dot.com\Documents\EC-Lab\Data\Michael\
	Host : 169.254.61.224
Device : VMP-3e (SN .003165)
Address : USB
EC-LAB for windows v11.62 (software)
Internet server v27.00 (firmware)
Command interpretor v12.03 (firmware)
Electrode material :
Initial state :
Electrolyte :
Comments :
Electrode surface area : 0.001 cm²
Characteristic mass : 0.001 g
Equivalent Weight : 0.000 g/eq.
Density : 0.000 g/cm3
Volume (V) : 0.001 cm³
Record Ece
Cycle Definition : Charge/Discharge alternance
Mode                Multi sine
E (V)               0.0000
vs.                 Eoc
tE (h:m:s)          0:00:0.0000
record              0
dI                  0.000
unit dI             mA
dt (s)              0.000
fi                  1.000
unit fi             MHz
ff                  0.100
unit ff             mHz
Nd                  10
Points              per decade
spacing             Logarithmic
Va (mV)             5.0
pw                  0.10
Na                  2
corr                0
E range min (V)     -10.000
E range max (V)     10.000
I Range             Auto
Bandwidth           5
nc cycles           0
goto Ns'            0
nr cycles           0
inc. cycle          0

freq/Hz	Re(Z)/Ohm	-Im(Z)/Ohm	|Z|/Ohm	Phase(Z)/deg	time/s	<Ewe>/V	<I>/mA	Cs/µF	Cp/µF	cycle number	I Range	|Ewe|/V	|I|/A	Ns	(Q-Qo)/mA.h	<Ece>/V	|Ece|/V	Phase(Zce)/deg	|Zce|/Ohm	Re(Zce)/Ohm	-Im(Zce)/Ohm	Phase(Zwe-ce)/deg	|Zwe-ce|/Ohm	Re(Zwe-ce)/Ohm	-Im(Zwe-ce)/Ohm	Re(Y)/Ohm-1	Im(Y)/Ohm-1	|Y|/Ohm-1	Phase(Y)/deg	Re(C)/nF	Im(C)/nF	|C|/nF	Phase(C)/deg	Re(M)	Im(M)	|M|	Phase(M)/deg	Re(Permittivity)	Im(Permittivity)	|Permittivity|	Phase(Permittivity)/deg	Re(Resistivity)/Ohm.cm	Im(Resistivity)/Ohm.cm	|Resistivity|/Ohm.cm	Phase(Resistivity)/deg	Re(Conductivity)/mS/cm	Im(Conductivity)/mS/cm	|Conductivity|/mS/cm	Phase(Conductivity)/deg	Tan(Delta)	Loss Angle(Delta)/deg	dq/mA.h	Pwe/W	Pce/W	Pwe-ce/W	<Ewe-Ece>/V	Rwe/Ohm	Rce/Ohm	Rwe-ce/Ohm		Ewe-Ece/V
1.00002e+06	0.938345	-0.283244	0.980162	16.7967	2.69355	3.89053	0.0799054	-0.56189	-0.0469221	1	9	0.00019669	0.000200671	0	3.34308e-05	-0.000321261	0.000187148	12.782	0.932611	0.9095	-0.206333	14.8393	1.9116	1.84784	-0.489578	0.976712	-0.294826	1.02024	-16.7967	-46.9221	155.446	162.373	-106.797	0.0000000E+000	0.0000000E+000	0.0000000E+000	106.797	0.0000000E+000	0.0000000E+000	0.0000000E+000	-106.797	0.0000000E+000	0.0000000E+000	0.0000000E+000	16.7967	0.0000000E+000	0.0000000E+000	0.0000000E+000	-16.7967	3.31285	73.2033	3.34308e-05	0.000310875	-2.56705e-08	0.000310901	3.89086	48689.2	4.02051	48693.3
251206	0.760903	0.331023	0.829789	-23.5109	4.99354	3.88913	0.0101968	1.91396	0.304588	1	9	0.00180646	0.00217701	0	4.12246e-05	-5.37216e-05	5.34836e-05	78.3521	0.0245674	0.00496007	-0.0240615	-21.8411	0.825089	0.765863	0.306961	1.10508	0.480754	1.20513	23.5109	304.588	700.138	763.523	-66.4891	0.0000000E+000	0.0000000E+000	0.0000000E+000	66.4891	0.0000000E+000	0.0000000E+000	0.0000000E+000	-66.4891	0.0000000E+000	0.0000000E+000	0.0000000E+000	-23.5109	0.0000000E+000	0.0000000E+000	0.0000000E+000	23.5109	2.29864	66.4891	-1.22232e-06	3.96568e-05	-5.47791e-10	3.96574e-05	3.88918	381405	5.26845	381410
63093.8	1.23803	0.825266	1.48788	-33.6872	7.29353	3.88901	0.00762337	3.05661	0.940353	1	9	0.00536246	0.00360409	0	6.93525e-05	4.18282e-05	1.63657e-05	45.0511	0.00454086	0.00320801	-0.00321374	-33.5158	1.48877	1.24124	0.822052	0.559237	0.372784	0.672097	33.6872	940.353	1410.68	1695.37	-56.3128	0.0000000E+000	0.0000000E+000	0.0000000E+000	56.3128	0.0000000E+000	0.0000000E+000	0.0000000E+000	-56.3128	0.0000000E+000	0.0000000E+000	0.0000000E+000	-33.6872	0.0000000E+000	0.0000000E+000	0.0000000E+000	33.6872	1.50016	56.3128	5.52575e-06	2.96473e-05	3.18872e-10	2.9647e-05	3.88896	510143	5.48684	510137
15847.7	2.11295	1.41004	2.54023	-33.7164	9.59151	3.88901	0.0079963	7.12236	2.19452	1	9	0.00528749	0.0020815	0	7.26006e-05	4.18282e-05	1.17718e-05	-67.5452	0.00565544	0.00216012	0.00522665	-33.7873	2.54493	2.11511	1.41526	0.327449	0.218517	0.393665	33.7164	2194.52	3288.5	3953.5	-56.2836	0.0000000E+000	0.0000000E+000	0.0000000E+000	56.2836	0.0000000E+000	0.0000000E+000	0.0000000E+000	-56.2836	0.0000000E+000	0.0000000E+000	0.0000000E+000	-33.7164	0.0000000E+000	0.0000000E+000	0.0000000E+000	33.7164	1.49851	56.2836	-7.30675e-07	3.10977e-05	3.34471e-10	3.10974e-05	3.88897	486351	5.23094	486346
3983.6	3.5167	2.41153	4.26411	-34.4399	11.8621	3.88899	0.0165374	16.5673	5.29883	1	10	0.00525718	0.00123289	0	7.48442e-05	-0.000111051	9.35992e-06	32.2666	0.00759186	0.00641947	-0.00405298	-34.3463	4.26712	3.52312	2.40748	0.19341	0.132628	0.234515	34.4399	5298.83	7727.2	9369.48	-55.5601	0.0000000E+000	0.0000000E+000	0.0000000E+000	55.5601	0.0000000E+000	0.0000000E+000	0.0000000E+000	-55.5601	0.0000000E+000	0.0000000E+000	0.0000000E+000	-34.4399	0.0000000E+000	0.0000000E+000	0.0000000E+000	34.4399	1.45828	55.5601	7.6065e-07	6.43137e-05	-1.8365e-09	6.43155e-05	3.8891	235164	6.71518	235170
1000.32	6.08638	4.20878	7.39986	-34.6642	14.4908	3.88897	0.0108488	37.8028	12.229	1	10	0.00468021	0.000632473	0	8.24152e-05	-5.37216e-05	1.35119e-05	-10.0233	0.0213636	0.0210375	0.0037183	-34.5954	7.41928	6.10742	4.2125	0.111151	0.0768616	0.135138	34.6642	12229	17684.5	21500.9	-55.3358	0.0000000E+000	0.0000000E+000	0.0000000E+000	55.3358	0.0000000E+000	0.0000000E+000	0.0000000E+000	-55.3358	0.0000000E+000	0.0000000E+000	0.0000000E+000	-34.6642	0.0000000E+000	0.0000000E+000	0.0000000E+000	34.6642	1.44611	55.3358	1.66656e-06	4.21908e-05	-5.82817e-10	4.21914e-05	3.88902	358469	4.95183	358474
251.044	11.4042	6.09729	12.9319	-28.1313	17.19	3.88896	0.0104534	103.976	23.1144	1	10	0.00452092	0.000349595	0	9.08324e-05	0.000175598	8.20106e-06	-97.99	0.0234587	-0.00326076	0.023231	-28.2288	12.94	11.401	6.12052	0.0681935	0.0364598	0.0773283	28.1313	23114.4	43232.7	49023.9	-61.8687	0.0000000E+000	0.0000000E+000	0.0000000E+000	61.8687	0.0000000E+000	0.0000000E+000	0.0000000E+000	-61.8687	0.0000000E+000	0.0000000E+000	0.0000000E+000	-28.1313	0.0000000E+000	0.0000000E+000	0.0000000E+000	28.1313	1.87038	61.8687	1.01137e-06	4.0653e-05	1.8356e-09	4.06511e-05	3.88879	372027	16.7981	372011
63.0823	17.2573	4.38551	17.8058	-14.2584	20.13	3.88897	0.00926723	575.298	34.8985	1	10	0.00487354	0.000273705	0	9.83044e-05	-7.28316e-05	1.21582e-05	-13.4989	0.044421	0.0431939	0.010369	-14.2565	17.8503	17.3005	4.39587	0.0544313	0.0138323	0.0561613	14.2584	34898.5	137329	141694	-75.7416	0.0000000E+000	0.0000000E+000	0.0000000E+000	75.7416	0.0000000E+000	0.0000000E+000	0.0000000E+000	-75.7416	0.0000000E+000	0.0000000E+000	0.0000000E+000	-14.2584	0.0000000E+000	0.0000000E+000	0.0000000E+000	14.2584	3.93508	75.7416	1.83498e-06	3.60399e-05	-6.74947e-10	3.60406e-05	3.88904	419647	7.85904	419655
15.8576	19.5769	1.84911	19.664	-5.3958	23.034	3.88897	0.0150166	5427.76	47.9957	1	11	0.00487207	0.000247766	0	0.000109083	-0.000149271	1.7908e-05	56.6128	0.0722779	0.0397741	-0.0603499	-5.21015	19.698	19.6166	1.78876	0.050629	0.0047821	0.0508544	5.3958	47995.7	508139	510401	-84.6042	0.0000000E+000	0.0000000E+000	0.0000000E+000	84.6042	0.0000000E+000	0.0000000E+000	0.0000000E+000	-84.6042	0.0000000E+000	0.0000000E+000	0.0000000E+000	-5.3958	0.0000000E+000	0.0000000E+000	0.0000000E+000	5.3958	10.5872	84.6042	1.81992e-06	5.83989e-05	-2.24154e-09	5.84012e-05	3.88912	258979	9.94046	258989
3.97785	20.285	0.955346	20.3075	-2.69641	25.9463	3.88899	0.0163688	41880.4	92.6868	1	11	0.00488086	0.000240347	0	0.000125042	-0.000149271	6.67788e-06	-17.4067	0.0277843	0.0265119	0.00831174	-2.71629	20.3344	20.3116	0.963658	0.0491883	0.00231658	0.0492428	2.69641	92686.8	1.96804e+06	1.97022e+06	-87.3036	0.0000000E+000	0.0000000E+000	0.0000000E+000	87.3036	0.0000000E+000	0.0000000E+000	0.0000000E+000	-87.3036	0.0000000E+000	0.0000000E+000	0.0000000E+000	-2.69641	0.0000000E+000	0.0000000E+000	0.0000000E+000	2.69641	21.2332	87.3036	5.3573e-06	6.36581e-05	-2.44339e-09	6.36605e-05	3.88914	237586	9.11928	237595
1.00469	20.7575	1.09008	20.7861	-3.00614	240.759	3.88895	0.00799455	145320	399.67	1	11	0.00506324	0.000243588	0	-0.000108564	-5.37216e-05	2.98279e-07	-28.2084	0.00122452	0.00107909	0.000578806	-3.00758	20.7872	20.7585	1.09066	0.048043	0.00252299	0.0481092	3.00614	399670	7.61055e+06	7.62104e+06	-86.9939	0.0000000E+000	0.0000000E+000	0.0000000E+000	86.9939	0.0000000E+000	0.0000000E+000	0.0000000E+000	-86.9939	0.0000000E+000	0.0000000E+000	0.0000000E+000	-3.00614	0.0000000E+000	0.0000000E+000	0.0000000E+000	3.00614	19.0421	86.9939	-0.000259208	3.10904e-05	-4.2948e-10	3.10908e-05	3.889	486450	6.71978	486457
0.251173	21.7862	1.90165	21.869	-4.98855	240.763	3.88895	0.00799455	333208	2519.54	1	11	0.00509116	0.000232803	0	-0.000108564	-5.37216e-05	6.29097e-07	8.89044	0.00270228	0.00266981	-0.000417625	-4.98685	21.8716	21.7888	1.90124	0.0455536	0.00397625	0.0457269	4.98855	2.51954e+06	2.88649e+07	2.89746e+07	-85.0115	0.0000000E+000	0.0000000E+000	0.0000000E+000	85.0115	0.0000000E+000	0.0000000E+000	0.0000000E+000	-85.0115	0.0000000E+000	0.0000000E+000	0.0000000E+000	-4.98855	0.0000000E+000	0.0000000E+000	0.0000000E+000	4.98855	11.4564	85.0115	0.000000000000000E+000	3.10904e-05	-4.2948e-10	3.10908e-05	3.889	486450	6.71978	486457
0.0602816	23.8041	3.41641	24.048	-8.16743	240.767	3.88895	0.00799455	772797	15597.2	1	11	0.00508399	0.00021141	0	-0.000108564	-5.37216e-05	7.93321e-07	-17.6503	0.00375252	0.00357587	0.00113779	-8.1689	24.0517	23.8076	3.41755	0.0411617	0.00590762	0.0415835	8.16743	1.55972e+07	1.08675e+08	1.09788e+08	-81.8326	0.0000000E+000	0.0000000E+000	0.0000000E+000	81.8326	0.0000000E+000	0.0000000E+000	0.0000000E+000	-81.8326	0.0000000E+000	0.0000000E+000	0.0000000E+000	-8.16743	0.0000000E+000	0.0000000E+000	0.0000000E+000	8.16743	6.96757	81.8326	0.000000000000000E+000	3.10904e-05	-4.2948e-10	3.10908e-05	3.889	486450	6.71978	486457
0.00796479	29.4595	5.64894	29.9962	-10.8549	20329.7	3.88896	-0.000913294	3.53736e+06	125453	1	11	0.00507505	0.00016919	0	-0.0140615	-0.000283041	4.83602e-07	-13.5688	0.00285834	0.00277856	0.000670603	-10.8551	29.9991	29.4623	5.64961	0.0327411	0.00627819	0.0333376	10.8549	1.25453e+08	6.54243e+08	6.66162e+08	-79.1451	0.0000000E+000	0.0000000E+000	0.0000000E+000	79.1451	0.0000000E+000	0.0000000E+000	0.0000000E+000	-79.1451	0.0000000E+000	0.0000000E+000	0.0000000E+000	-10.8549	0.0000000E+000	0.0000000E+000	0.0000000E+000	10.8549	5.21505	79.1451	-0.0139529	-3.55176e-06	2.585e-10	-3.55202e-06	3.88924	4.25816e+06	309.912	4.25847e+06
0.0019912	33.6544	10.0838	35.1326	-16.6796	20329.7	3.88896	-0.000913294	7.92654e+06	652991	1	11	0.00508976	0.000144873	0	-0.0140615	-0.000283041	3.17392e-07	-56.0038	0.00219083	0.00122498	0.00181636	-16.6819	35.1343	33.6556	10.0856	0.027266	0.00816961	0.0284636	16.6796	6.52991e+08	2.17935e+09	2.27507e+09	-73.3204	0.0000000E+000	0.0000000E+000	0.0000000E+000	73.3204	0.0000000E+000	0.0000000E+000	0.0000000E+000	-73.3204	0.0000000E+000	0.0000000E+000	0.0000000E+000	-16.6796	0.0000000E+000	0.0000000E+000	0.0000000E+000	16.6796	3.33749	73.3204	0.000000000000000E+000	-3.55176e-06	2.585e-10	-3.55202e-06	3.88924	4.25816e+06	309.912	4.25847e+06
0.000497799	37.325	24.5456	44.6726	-33.3296	20329.7	3.88896	-0.000913294	1.30254e+07	3.93239e+06	1	11	0.00509053	0.000113952	0	-0.0140615	-0.000283041	1.40285e-06	-37.59	0.0123109	0.0097551	0.00750974	-33.3308	44.6849	37.3347	24.5531	0.0187033	0.0122996	0.0223851	33.3296	3.93239e+09	5.97975e+09	7.1569e+09	-56.6704	0.0000000E+000	0.0000000E+000	0.0000000E+000	56.6704	0.0000000E+000	0.0000000E+000	0.0000000E+000	-56.6704	0.0000000E+000	0.0000000E+000	0.0000000E+000	-33.3296	0.0000000E+000	0.0000000E+000	0.0000000E+000	33.3296	1.52064	56.6704	0.000000000000000E+000	-3.55176e-06	2.585e-10	-3.55202e-06	3.88924	4.25816e+06	309.912	4.25847e+06
9.95598e-05	48.9527	133.336	142.038	-69.8399	20329.7	3.88896	-0.000913294	1.19892e+07	1.05651e+07	1	11	0.00509292	3.5856e-05	0	-0.0140615	-0.000283041	2.75008e-06	-63.847	0.076698	0.0338062	0.0688457	-69.8367	142.114	48.9865	133.405	0.00242642	0.00660902	0.00704036	69.8399	1.05651e+10	3.87884e+09	1.12546e+10	-20.1601	0.0000000E+000	0.0000000E+000	0.0000000E+000	20.1601	0.0000000E+000	0.0000000E+000	0.0000000E+000	-20.1601	0.0000000E+000	0.0000000E+000	0.0000000E+000	-69.8399	0.0000000E+000	0.0000000E+000	0.0000000E+000	69.8399	0.367138	20.1601	0.000000000000000E+000	-3.55176e-06	2.585e-10	-3.55202e-06	3.88924	4.25816e+06	309.912	4.25847e+06