File: txt/18571_R297_UC90_SOC50_C02.mpt
EC-Lab ASCII FILE
Nb header lines : 65

Potentio Electrochemical Impedance Spectroscopy

Run on channel : 2 (SN 66139)
User :
CE vs. WE compliance from -10 V to 10 V
Electrode connection : standard
Potential control : Ewe
Ewe ctrl range : min = -10.00 V, max = 10.00 V
Safety Limits :
	Do not start on E overload
Acquisition started on : 10/21/2025 16:34:32.262
Technique started on : 10/21/2025 16:34:34.956
Loaded Setting File :  C:\Users\Celltest\OneDrive - store-dot.com\Documents\EC-Lab\Data\@Biologic Test Protocols\cathode half cell EIS SOC50.mps
Saved on :
	File : 18571_R297_UC90_SOC50_C02.mpr
	Directory : C:\Users\Celltest\OneDrive - store-dot.com\Documents\EC-Lab\Data\Michael\
	Host : 169.254.61.224
Device : VMP-3e (SN .003165)
Address : USB
EC-LAB for windows v11.62 (software)
Internet server v27.00 (firmware)
Command interpretor v12.03 (firmware)
Electrode material :
Initial state :
Electrolyte :
Comments :
Electrode surface area : 0.001 cm²
Characteristic mass : 0.001 g
Equivalent Weight : 0.000 g/eq.
Density : 0.000 g/cm3
Volume (V) : 0.001 cm³
Record Ece
Cycle Definition : Charge/Discharge alternance
Mode                Multi sine
E (V)               0.0000
vs.                 Eoc
tE (h:m:s)          0:00:0.0000
record              0
dI                  0.000
unit dI             mA
dt (s)              0.000
fi                  1.000
unit fi             MHz
ff                  0.100
unit ff             mHz
Nd                  10
Points              per decade
spacing             Logarithmic
Va (mV)             5.0
pw                  0.10
Na                  2
corr                0
E range min (V)     -10.000
E range max (V)     10.000
I Range             Auto
Bandwidth           5
nc cycles           0
goto Ns'            0
nr cycles           0
inc. cycle          0

freq/Hz	Re(Z)/Ohm	-Im(Z)/Ohm	|Z|/Ohm	Phase(Z)/deg	time/s	<Ewe>/V	<I>/mA	Cs/µF	Cp/µF	cycle number	I Range	|Ewe|/V	|I|/A	Ns	(Q-Qo)/mA.h	<Ece>/V	|Ece|/V	Phase(Zce)/deg	|Zce|/Ohm	Re(Zce)/Ohm	-Im(Zce)/Ohm	Phase(Zwe-ce)/deg	|Zwe-ce|/Ohm	Re(Zwe-ce)/Ohm	-Im(Zwe-ce)/Ohm	Re(Y)/Ohm-1	Im(Y)/Ohm-1	|Y|/Ohm-1	Phase(Y)/deg	Re(C)/nF	Im(C)/nF	|C|/nF	Phase(C)/deg	Re(M)	Im(M)	|M|	Phase(M)/deg	Re(Permittivity)	Im(Permittivity)	|Permittivity|	Phase(Permittivity)/deg	Re(Resistivity)/Ohm.cm	Im(Resistivity)/Ohm.cm	|Resistivity|/Ohm.cm	Phase(Resistivity)/deg	Re(Conductivity)/mS/cm	Im(Conductivity)/mS/cm	|Conductivity|/mS/cm	Phase(Conductivity)/deg	Tan(Delta)	Loss Angle(Delta)/deg	dq/mA.h	Pwe/W	Pce/W	Pwe-ce/W	<Ewe-Ece>/V	Rwe/Ohm	Rce/Ohm	Rwe-ce/Ohm		Ewe-Ece/V
1.00002e+06	0.932688	-0.339084	0.992414	19.979	2.69355	3.88424	-0.0056964	-0.469358	-0.0547941	1	9	0.000201103	0.00020264	0	-2.14233e-05	0.000191251	0.000186224	9.99975	0.918992	0.905031	-0.159577	15.1815	1.90417	1.83772	-0.498662	0.947001	-0.344288	1.00764	-19.979	-54.7941	150.717	160.369	-109.979	0.0000000E+000	0.0000000E+000	0.0000000E+000	109.979	0.0000000E+000	0.0000000E+000	0.0000000E+000	-109.979	0.0000000E+000	0.0000000E+000	0.0000000E+000	19.979	0.0000000E+000	0.0000000E+000	0.0000000E+000	-19.979	2.75061	70.021	-2.14233e-05	-2.21262e-05	-1.08944e-09	-2.21251e-05	3.88405	681876	33.574	681843
251206	0.80115	0.207758	0.82765	-14.538	4.99354	3.88422	-0.00547286	3.04953	0.192156	1	9	0.00195336	0.00236013	0	-2.41557e-05	-0.000114203	2.54902e-05	74.3531	0.0108004	0.00291294	-0.0104001	-13.7907	0.827929	0.804063	0.197358	1.16955	0.303294	1.20824	14.538	192.156	740.986	765.496	-75.462	0.0000000E+000	0.0000000E+000	0.0000000E+000	75.462	0.0000000E+000	0.0000000E+000	0.0000000E+000	-75.462	0.0000000E+000	0.0000000E+000	0.0000000E+000	-14.538	0.0000000E+000	0.0000000E+000	0.0000000E+000	14.538	3.85617	75.462	-2.04256e-06	-2.12578e-05	6.25015e-10	-2.12584e-05	3.88433	709723	20.8671	709744
63093.8	1.10477	0.567806	1.24214	-27.2012	7.29155	3.8841	-0.00625499	4.44256	0.928301	1	9	0.00529623	0.00426378	0	-7.30194e-05	0.000153069	1.13129e-05	30.4203	0.00265326	0.00228799	-0.00134345	-27.098	1.24357	1.10706	0.566462	0.716025	0.368006	0.805059	27.2012	928.301	1806.18	2030.77	-62.7988	0.0000000E+000	0.0000000E+000	0.0000000E+000	62.7988	0.0000000E+000	0.0000000E+000	0.0000000E+000	-62.7988	0.0000000E+000	0.0000000E+000	0.0000000E+000	-27.2012	0.0000000E+000	0.0000000E+000	0.0000000E+000	27.2012	1.94569	62.7988	-1.31766e-05	-2.4295e-05	-9.57446e-10	-2.42941e-05	3.88395	620961	24.4716	620937
15847.7	1.69166	1.09979	2.01773	-33.0289	9.58855	3.8841	-0.00655299	9.13156	2.71292	1	9	0.00520267	0.00257848	0	-8.03148e-05	0.000286705	5.40959e-06	1.23768	0.00209798	0.00209749	-4.53161e-05	-32.9954	2.01946	1.69375	1.09974	0.415514	0.270137	0.495607	33.0289	2712.92	4172.92	4977.27	-56.9711	0.0000000E+000	0.0000000E+000	0.0000000E+000	56.9711	0.0000000E+000	0.0000000E+000	0.0000000E+000	-56.9711	0.0000000E+000	0.0000000E+000	0.0000000E+000	-33.0289	0.0000000E+000	0.0000000E+000	0.0000000E+000	33.0289	1.53816	56.9711	-1.59919e-06	-2.54524e-05	-1.87877e-09	-2.54506e-05	3.88381	592722	43.7518	592678
3983.6	2.81642	2.05977	3.48925	-36.1796	11.5611	3.88406	-0.0109108	19.3966	6.75924	1	9	0.00483269	0.00138502	0	-8.88692e-05	1.94333e-05	9.19398e-06	-58.2115	0.00663815	0.00349688	0.00564242	-36.2204	3.49541	2.81992	2.06541	0.231331	0.169182	0.286594	36.1796	6759.24	9242.25	11450.2	-53.8204	0.0000000E+000	0.0000000E+000	0.0000000E+000	53.8204	0.0000000E+000	0.0000000E+000	0.0000000E+000	-53.8204	0.0000000E+000	0.0000000E+000	0.0000000E+000	-36.1796	0.0000000E+000	0.0000000E+000	0.0000000E+000	36.1796	1.36735	53.8204	-4.10718e-07	-4.23782e-05	-2.12033e-10	-4.2378e-05	3.88404	355984	1.78111	355982
1000.32	5.17578	3.75674	6.39545	-35.9733	14.6128	3.88403	-0.0414838	42.3516	14.6134	1	10	0.004819	0.000753505	0	-0.00012263	3.85242e-05	9.46762e-06	77.8834	0.0125648	0.00263737	-0.0122849	-35.8703	6.39038	5.17841	3.74446	0.126542	0.0918479	0.156361	35.9733	14613.4	20133.3	24877.7	-54.0267	0.0000000E+000	0.0000000E+000	0.0000000E+000	54.0267	0.0000000E+000	0.0000000E+000	0.0000000E+000	-54.0267	0.0000000E+000	0.0000000E+000	0.0000000E+000	-35.9733	0.0000000E+000	0.0000000E+000	0.0000000E+000	35.9733	1.37773	54.0267	-4.60904e-06	-0.000161124	-1.59813e-09	-0.000161123	3.88399	93627.6	0.928656	93626.7
251.044	9.97817	5.0648	11.19	-26.9118	17.315	3.88403	-0.0405339	125.172	25.6432	1	10	0.00468021	0.000418249	0	-0.000153783	-5.69301e-05	9.81142e-06	-74.2098	0.0234583	0.00638336	0.0225731	-26.9999	11.2059	9.98456	5.08737	0.0796876	0.0404485	0.0893655	26.9118	25643.2	50519.7	56655.2	-63.0882	0.0000000E+000	0.0000000E+000	0.0000000E+000	63.0882	0.0000000E+000	0.0000000E+000	0.0000000E+000	-63.0882	0.0000000E+000	0.0000000E+000	0.0000000E+000	-26.9118	0.0000000E+000	0.0000000E+000	0.0000000E+000	26.9118	1.9701	63.0882	-4.97004e-06	-0.000157435	2.3076e-09	-0.000157437	3.88409	95822	1.40451	95823.4
63.0823	14.519	3.08378	14.8429	-11.9912	20.0359	3.88403	-0.0394908	818.142	35.315	1	10	0.00467093	0.000314692	0	-0.00018442	0.000305796	5.30894e-06	-4.57426	0.0168703	0.0168165	0.00134542	-11.9828	14.8596	14.5358	3.08513	0.0659022	0.0139974	0.0673723	11.9912	35315	166270	169979	-78.0088	0.0000000E+000	0.0000000E+000	0.0000000E+000	78.0088	0.0000000E+000	0.0000000E+000	0.0000000E+000	-78.0088	0.0000000E+000	0.0000000E+000	0.0000000E+000	-11.9912	0.0000000E+000	0.0000000E+000	0.0000000E+000	11.9912	4.70818	78.0088	-4.81845e-06	-0.000153384	-1.20761e-08	-0.000153371	3.88373	98352.8	7.74347	98345.1
15.8576	15.8812	1.1606	15.9236	-4.17974	22.9411	3.88405	-0.0315156	8647.71	45.9393	1	11	0.00466852	0.000293183	0	-0.000210783	0.000133978	3.22267e-05	-104.733	0.10992	-0.0279546	0.106306	-4.56905	15.9038	15.8533	1.26691	0.062633	0.00457721	0.0628	4.17974	45939.3	628617	630294	-85.8203	0.0000000E+000	0.0000000E+000	0.0000000E+000	85.8203	0.0000000E+000	0.0000000E+000	0.0000000E+000	-85.8203	0.0000000E+000	0.0000000E+000	0.0000000E+000	-4.17974	0.0000000E+000	0.0000000E+000	0.0000000E+000	4.17974	13.6836	85.8203	-3.20418e-06	-0.000122408	-4.22241e-09	-0.000122404	3.88392	123242	4.25117	123238
3.97785	16.2854	0.704557	16.3006	-2.47725	25.8513	3.88407	-0.028997	56787.8	106.091	1	11	0.0046616	0.000285977	0	-0.000238556	0.000114888	1.07115e-06	-57.9851	0.00374558	0.00198568	0.00317592	-2.4881	16.3028	16.2874	0.707733	0.06129	0.00265159	0.0613473	2.47725	106091	2.45223e+06	2.45452e+06	-87.5228	0.0000000E+000	0.0000000E+000	0.0000000E+000	87.5228	0.0000000E+000	0.0000000E+000	0.0000000E+000	-87.5228	0.0000000E+000	0.0000000E+000	0.0000000E+000	-2.47725	0.0000000E+000	0.0000000E+000	0.0000000E+000	2.47725	23.1144	87.5228	-7.30809e-06	-0.000112626	-3.3314e-09	-0.000112623	3.88395	133947	3.96205	133943
1.00469	16.7488	0.87678	16.7718	-2.99663	240.666	3.88403	-0.0215612	180674	493.764	1	11	0.00497821	0.000296821	0	-0.00273829	-0.000190566	1.28306e-07	153.098	0.000432267	-0.000385488	-0.000195585	-2.99603	16.7714	16.7485	0.876585	0.0595425	0.00311697	0.059624	2.99663	493764	9.4322e+06	9.44512e+06	-87.0034	0.0000000E+000	0.0000000E+000	0.0000000E+000	87.0034	0.0000000E+000	0.0000000E+000	0.0000000E+000	-87.0034	0.0000000E+000	0.0000000E+000	0.0000000E+000	-2.99663	0.0000000E+000	0.0000000E+000	0.0000000E+000	2.99663	19.1027	87.0034	-0.00245342	-8.37444e-05	4.10884e-09	-8.37485e-05	3.88422	180139	8.83836	180148
0.251173	17.5924	1.6415	17.6688	-5.33066	240.666	3.88403	-0.0215612	386017	3331.73	1	11	0.0050045	0.000283239	0	-0.00273829	-0.000190566	4.53399e-07	137.397	0.00160077	-0.00117826	-0.00108358	-5.32752	17.6676	17.5913	1.64041	0.056352	0.00525803	0.0565968	5.33066	3.33173e+06	3.57072e+07	3.58623e+07	-84.6693	0.0000000E+000	0.0000000E+000	0.0000000E+000	84.6693	0.0000000E+000	0.0000000E+000	0.0000000E+000	-84.6693	0.0000000E+000	0.0000000E+000	0.0000000E+000	-5.33066	0.0000000E+000	0.0000000E+000	0.0000000E+000	5.33066	10.7173	84.6693	0.000000000000000E+000	-8.37444e-05	4.10884e-09	-8.37485e-05	3.88422	180139	8.83836	180148
0.0602816	19.3944	3.03763	19.6309	-8.90157	240.667	3.88403	-0.0215612	869161	20810.9	1	11	0.00499937	0.000254669	0	-0.00273829	-0.000190566	6.17651e-07	-4.87159	0.00242531	0.00241655	0.000205964	-8.90107	19.6333	19.3968	3.03784	0.0503266	0.00788235	0.0509402	8.90157	2.08109e+07	1.32872e+08	1.34492e+08	-81.0984	0.0000000E+000	0.0000000E+000	0.0000000E+000	81.0984	0.0000000E+000	0.0000000E+000	0.0000000E+000	-81.0984	0.0000000E+000	0.0000000E+000	0.0000000E+000	-8.90157	0.0000000E+000	0.0000000E+000	0.0000000E+000	8.90157	6.38472	81.0984	0.000000000000000E+000	-8.37444e-05	4.10884e-09	-8.37485e-05	3.88422	180139	8.83836	180148
0.00796479	24.7493	5.08325	25.2659	-11.6065	20329.6	3.88407	-0.000635536	3.93101e+06	159117	1	11	0.00499423	0.000197667	0	-0.0232119	-0.000190566	1.49887e-07	-116.468	0.000758283	-0.000337969	0.0006788	-11.6082	25.2658	24.749	5.08393	0.0387697	0.00796289	0.039579	11.6065	1.59117e+08	7.74708e+08	7.9088e+08	-78.3935	0.0000000E+000	0.0000000E+000	0.0000000E+000	78.3935	0.0000000E+000	0.0000000E+000	0.0000000E+000	-78.3935	0.0000000E+000	0.0000000E+000	0.0000000E+000	-11.6065	0.0000000E+000	0.0000000E+000	0.0000000E+000	11.6065	4.8688	78.3935	-0.0204736	-2.46847e-06	1.21112e-10	-2.46859e-06	3.88426	6.11149e+06	299.851	6.11179e+06
0.0019912	28.4021	8.37945	29.6124	-16.4376	20329.6	3.88407	-0.000635536	9.53873e+06	763789	1	11	0.00500539	0.00016903	0	-0.0232119	-0.000190566	6.47315e-07	-31.9153	0.00382958	0.00325067	0.00202457	-16.4396	29.6161	28.4054	8.38147	0.0323894	0.00955581	0.0337696	16.4376	7.63789e+08	2.58886e+09	2.69918e+09	-73.5624	0.0000000E+000	0.0000000E+000	0.0000000E+000	73.5624	0.0000000E+000	0.0000000E+000	0.0000000E+000	-73.5624	0.0000000E+000	0.0000000E+000	0.0000000E+000	-16.4376	0.0000000E+000	0.0000000E+000	0.0000000E+000	16.4376	3.3895	73.5624	0.000000000000000E+000	-2.46847e-06	1.21112e-10	-2.46859e-06	3.88426	6.11149e+06	299.851	6.11179e+06
0.000497799	30.6372	20.2995	36.752	-33.5276	20329.6	3.88407	-0.000635536	1.575e+07	4.80497e+06	1	11	0.00500578	0.000136204	0	-0.0232119	-0.000190566	1.71647e-06	-26.6598	0.0126022	0.0112624	0.0056545	-33.5253	36.7645	30.6484	20.3052	0.0226823	0.0150288	0.0272094	33.5276	4.80497e+09	7.25193e+09	8.69932e+09	-56.4724	0.0000000E+000	0.0000000E+000	0.0000000E+000	56.4724	0.0000000E+000	0.0000000E+000	0.0000000E+000	-56.4724	0.0000000E+000	0.0000000E+000	0.0000000E+000	-33.5276	0.0000000E+000	0.0000000E+000	0.0000000E+000	33.5276	1.50925	56.4724	0.000000000000000E+000	-2.46847e-06	1.21112e-10	-2.46859e-06	3.88426	6.11149e+06	299.851	6.11179e+06
9.95598e-05	37.231	115.091	120.963	-72.074	20329.6	3.88407	-0.000635536	1.38898e+07	1.2574e+07	1	11	0.00501458	4.14556e-05	0	-0.0232119	-0.000190566	3.50727e-06	-6.92029	0.084603	0.0839867	0.0101937	-72.0376	120.998	37.3149	115.101	0.00254449	0.00786569	0.00826701	72.074	1.2574e+10	4.06759e+09	1.32155e+10	-17.926	0.0000000E+000	0.0000000E+000	0.0000000E+000	17.926	0.0000000E+000	0.0000000E+000	0.0000000E+000	-17.926	0.0000000E+000	0.0000000E+000	0.0000000E+000	-72.074	0.0000000E+000	0.0000000E+000	0.0000000E+000	72.074	0.323493	17.926	0.000000000000000E+000	-2.46847e-06	1.21112e-10	-2.46859e-06	3.88426	6.11149e+06	299.851	6.11179e+06