File: txt/18572_R297_UC90_SOC50_C03.mpt
EC-Lab ASCII FILE
Nb header lines : 65

Potentio Electrochemical Impedance Spectroscopy

Run on channel : 3 (SN 65921)
User :
CE vs. WE compliance from -10 V to 10 V
Electrode connection : standard
Potential control : Ewe
Ewe ctrl range : min = -10.00 V, max = 10.00 V
Safety Limits :
	Do not start on E overload
Acquisition started on : 10/21/2025 16:34:41.600
Technique started on : 10/21/2025 16:34:44.294
Loaded Setting File :  C:\Users\Celltest\OneDrive - store-dot.com\Documents\EC-Lab\Data\@Biologic Test Protocols\cathode half cell EIS SOC50.mps
Saved on :
	File : 18572_R297_UC90_SOC50_C03.mpr
	Directory : C:\Users\Celltest\OneDrive - store-dot.com\Documents\EC-Lab\Data\Michael\
	Host : 169.254.61.224
Device : VMP-3e (SN .003165)
Address : USB
EC-LAB for windows v11.62 (software)
Internet server v27.00 (firmware)
Command interpretor v12.03 (firmware)
Electrode material :
Initial state :
Electrolyte :
Comments :
Electrode surface area : 0.001 cm²
Characteristic mass : 0.001 g
Equivalent Weight : 0.000 g/eq.
Density : 0.000 g/cm3
Volume (V) : 0.001 cm³
Record Ece
Cycle Definition : Charge/Discharge alternance
Mode                Multi sine
E (V)               0.0000
vs.                 Eoc
tE (h:m:s)          0:00:0.0000
record              0
dI                  0.000
unit dI             mA
dt (s)              0.000
fi                  1.000
unit fi             MHz
ff                  0.100
unit ff             mHz
Nd                  10
Points              per decade
spacing             Logarithmic
Va (mV)             5.0
pw                  0.10
Na                  2
corr                0
E range min (V)     -10.000
E range max (V)     10.000
I Range             Auto
Bandwidth           5
nc cycles           0
goto Ns'            0
nr cycles           0
inc. cycle          0

freq/Hz	Re(Z)/Ohm	-Im(Z)/Ohm	|Z|/Ohm	Phase(Z)/deg	time/s	<Ewe>/V	<I>/mA	Cs/µF	Cp/µF	cycle number	I Range	|Ewe|/V	|I|/A	Ns	(Q-Qo)/mA.h	<Ece>/V	|Ece|/V	Phase(Zce)/deg	|Zce|/Ohm	Re(Zce)/Ohm	-Im(Zce)/Ohm	Phase(Zwe-ce)/deg	|Zwe-ce|/Ohm	Re(Zwe-ce)/Ohm	-Im(Zwe-ce)/Ohm	Re(Y)/Ohm-1	Im(Y)/Ohm-1	|Y|/Ohm-1	Phase(Y)/deg	Re(C)/nF	Im(C)/nF	|C|/nF	Phase(C)/deg	Re(M)	Im(M)	|M|	Phase(M)/deg	Re(Permittivity)	Im(Permittivity)	|Permittivity|	Phase(Permittivity)/deg	Re(Resistivity)/Ohm.cm	Im(Resistivity)/Ohm.cm	|Resistivity|/Ohm.cm	Phase(Resistivity)/deg	Re(Conductivity)/mS/cm	Im(Conductivity)/mS/cm	|Conductivity|/mS/cm	Phase(Conductivity)/deg	Tan(Delta)	Loss Angle(Delta)/deg	dq/mA.h	Pwe/W	Pce/W	Pwe-ce/W	<Ewe-Ece>/V	Rwe/Ohm	Rce/Ohm	Rwe-ce/Ohm		Ewe-Ece/V
1.00002e+06	0.984737	-0.136541	0.994158	7.89413	2.69356	3.88731	0.0131582	-1.1656	-0.0219869	1	9	0.000222928	0.000224238	0	7.6603e-06	-8.05151e-05	0.000192643	0.646487	0.859103	0.859048	-0.00969333	4.53474	1.84957	1.84378	-0.146234	0.996344	-0.13815	1.00588	-7.89413	-21.9869	158.57	160.087	-97.8941	0.0000000E+000	0.0000000E+000	0.0000000E+000	97.8941	0.0000000E+000	0.0000000E+000	0.0000000E+000	-97.8941	0.0000000E+000	0.0000000E+000	0.0000000E+000	7.89413	0.0000000E+000	0.0000000E+000	0.0000000E+000	-7.89413	7.21204	82.1059	7.6603e-06	5.11498e-05	-1.05943e-09	5.11509e-05	3.88739	295430	6.11902	295436
251206	0.817442	0.268709	0.860474	-18.1967	4.99355	3.88692	-0.00686841	2.3578	0.22993	1	9	0.00225784	0.00262394	0	1.55524e-05	-6.1421e-05	4.49233e-05	97.4906	0.0171205	-0.0022319	-0.0169744	-17.1605	0.853193	0.81521	0.251735	1.10403	0.362916	1.16215	18.1967	229.93	699.473	736.295	-71.8033	0.0000000E+000	0.0000000E+000	0.0000000E+000	71.8033	0.0000000E+000	0.0000000E+000	0.0000000E+000	-71.8033	0.0000000E+000	0.0000000E+000	0.0000000E+000	-18.1967	0.0000000E+000	0.0000000E+000	0.0000000E+000	18.1967	3.04211	71.8033	1.88776e-06	-2.66969e-05	4.21865e-10	-2.66974e-05	3.88698	565912	8.94253	565921
63093.8	1.19396	0.607707	1.33972	-26.9755	7.29156	3.88683	0.0158061	4.15087	0.854087	1	9	0.00537995	0.00401574	0	-3.09082e-05	3.40493e-05	2.50773e-05	102.199	0.00624474	-0.00131958	-0.00610373	-26.7678	1.33578	1.19264	0.601603	0.665217	0.338586	0.746427	26.9755	854.088	1678.02	1882.87	-63.0245	0.0000000E+000	0.0000000E+000	0.0000000E+000	63.0245	0.0000000E+000	0.0000000E+000	0.0000000E+000	-63.0245	0.0000000E+000	0.0000000E+000	0.0000000E+000	-26.9755	0.0000000E+000	0.0000000E+000	0.0000000E+000	26.9755	1.96469	63.0245	-9.80808e-06	6.14356e-05	5.38186e-10	6.14351e-05	3.8868	245907	2.15419	245905
15847.7	1.83041	1.11599	2.14379	-31.3704	9.71755	3.88684	0.0212136	8.99899	2.43866	1	9	0.00479846	0.00223831	0	-3.08287e-05	-4.13882e-06	4.29046e-06	-5.12992	0.00191683	0.00190915	0.000171392	-31.3478	2.14551	1.83232	1.11616	0.398276	0.242827	0.466464	31.3704	2438.66	3999.8	4684.6	-58.6296	0.0000000E+000	0.0000000E+000	0.0000000E+000	58.6296	0.0000000E+000	0.0000000E+000	0.0000000E+000	-58.6296	0.0000000E+000	0.0000000E+000	0.0000000E+000	-31.3704	0.0000000E+000	0.0000000E+000	0.0000000E+000	31.3704	1.64017	58.6296	3.17529e-06	8.24539e-05	-8.77993e-11	8.2454e-05	3.88684	183224	0.195102	183224
3983.6	3.01076	1.93385	3.57833	-32.7132	11.5681	3.88665	-0.073624	20.6596	6.03401	1	9	0.00475218	0.00132804	0	-2.86697e-05	-0.000118703	4.88935e-06	2.15378	0.00368162	0.00367902	-0.000138362	-32.6795	3.58135	3.01444	1.93371	0.235134	0.15103	0.27946	32.7132	6034.01	9394.18	11165.1	-57.2868	0.0000000E+000	0.0000000E+000	0.0000000E+000	57.2868	0.0000000E+000	0.0000000E+000	0.0000000E+000	-57.2868	0.0000000E+000	0.0000000E+000	0.0000000E+000	-32.7132	0.0000000E+000	0.0000000E+000	0.0000000E+000	32.7132	1.55687	57.2868	-6.10331e-06	-0.000286151	8.7394e-09	-0.000286159	3.88677	52790.6	1.61229	52792.2
1000.32	5.0963	3.35187	6.09978	-33.3332	14.4058	3.88676	-0.0164077	47.4672	14.3331	1	10	0.00468617	0.000768252	0	-4.29193e-05	7.22374e-05	1.22051e-05	79.1148	0.0158869	0.00300011	-0.015601	-33.1951	6.09373	5.0993	3.33627	0.13697	0.0900864	0.16394	33.3332	14333.1	21792.5	26083.6	-56.6668	0.0000000E+000	0.0000000E+000	0.0000000E+000	56.6668	0.0000000E+000	0.0000000E+000	0.0000000E+000	-56.6668	0.0000000E+000	0.0000000E+000	0.0000000E+000	-33.3332	0.0000000E+000	0.0000000E+000	0.0000000E+000	33.3332	1.52043	56.6668	-1.36801e-06	-6.37729e-05	-1.18525e-09	-6.37717e-05	3.88669	236886	4.40265	236882
251.044	9.32479	4.66844	10.4281	-26.5948	17.1061	3.88677	-0.0157738	135.799	27.2163	1	10	0.00461057	0.000442128	0	-5.39754e-05	-4.13882e-06	1.84808e-05	107.587	0.0417998	-0.0126301	-0.039846	-26.4296	10.399	9.31216	4.6286	0.0857483	0.0429298	0.0958944	26.5948	27216.2	54362	60794.3	-63.4052	0.0000000E+000	0.0000000E+000	0.0000000E+000	63.4052	0.0000000E+000	0.0000000E+000	0.0000000E+000	-63.4052	0.0000000E+000	0.0000000E+000	0.0000000E+000	-26.5948	0.0000000E+000	0.0000000E+000	0.0000000E+000	26.5948	1.99741	63.4052	-1.79488e-06	-6.13091e-05	6.52849e-11	-6.13092e-05	3.88677	246406	0.262385	246406
63.0823	13.777	3.10842	14.1234	-12.7144	19.828	3.88677	-0.0116534	811.658	39.3167	1	10	0.00459282	0.000325193	0	-6.36701e-05	-0.000233268	1.22696e-05	55.0438	0.0377303	0.0216176	-0.0309234	-12.5728	14.1377	13.7987	3.0775	0.0690685	0.0155835	0.0708047	12.7144	39316.6	174258	178638	-77.2856	0.0000000E+000	0.0000000E+000	0.0000000E+000	77.2856	0.0000000E+000	0.0000000E+000	0.0000000E+000	-77.2856	0.0000000E+000	0.0000000E+000	0.0000000E+000	-12.7144	0.0000000E+000	0.0000000E+000	0.0000000E+000	12.7144	4.43217	77.2856	-1.42277e-06	-4.5294e-05	2.71836e-09	-4.52968e-05	3.887	333531	20.0171	333551
15.8576	15.3419	1.26198	15.3937	-4.70238	22.7331	3.88679	-0.00876251	7953.03	53.4498	1	11	0.00460125	0.000298904	0	-7.77243e-05	-4.23269e-05	7.45984e-06	-65.8558	0.0249573	0.0102084	0.022774	-4.78368	15.4058	15.3521	1.28475	0.0647429	0.00532553	0.0649615	4.70238	53449.9	649793	651988	-85.2976	0.0000000E+000	0.0000000E+000	0.0000000E+000	85.2976	0.0000000E+000	0.0000000E+000	0.0000000E+000	-85.2976	0.0000000E+000	0.0000000E+000	0.0000000E+000	-4.70238	0.0000000E+000	0.0000000E+000	0.0000000E+000	4.70238	12.1571	85.2976	-1.51266e-06	-3.40581e-05	3.7089e-10	-3.40584e-05	3.88684	443571	4.83046	443576
3.97785	15.7657	0.727828	15.7825	-2.64319	25.6453	3.88682	-0.00715978	54972.2	116.909	1	11	0.00459821	0.000291349	0	-7.98151e-05	-9.96091e-05	7.27583e-06	15.7663	0.0249729	0.0240334	-0.00678551	-2.61461	15.8062	15.7898	0.721042	0.0632939	0.00292197	0.0633613	2.64319	116909	2.5324e+06	2.5351e+06	-87.3568	0.0000000E+000	0.0000000E+000	0.0000000E+000	87.3568	0.0000000E+000	0.0000000E+000	0.0000000E+000	-87.3568	0.0000000E+000	0.0000000E+000	0.0000000E+000	-2.64319	0.0000000E+000	0.0000000E+000	0.0000000E+000	2.64319	21.6613	87.3568	1.74724e-06	-2.78288e-05	7.13179e-10	-2.78295e-05	3.88692	542869	13.9123	542883
1.00469	16.3002	0.926777	16.3265	-3.25415	240.459	3.8868	-0.00968522	170927	550.775	1	11	0.00503751	0.000308548	0	-0.00171939	0.000244084	5.2762e-07	-14.6115	0.00171001	0.00165471	0.000431372	-3.25533	16.3282	16.3019	0.927209	0.0611513	0.00347687	0.06125	3.25415	550775	9.68706e+06	9.7027e+06	-86.7459	0.0000000E+000	0.0000000E+000	0.0000000E+000	86.7459	0.0000000E+000	0.0000000E+000	0.0000000E+000	-86.7459	0.0000000E+000	0.0000000E+000	0.0000000E+000	-3.25415	0.0000000E+000	0.0000000E+000	0.0000000E+000	3.25415	17.588	86.7459	-0.00163078	-3.76445e-05	-2.36401e-09	-3.76422e-05	3.88656	401312	25.2017	401287
0.251173	17.1932	1.73482	17.2805	-5.76172	240.463	3.8868	-0.00968522	365252	3681.18	1	11	0.00506656	0.000293195	0	-0.00171939	0.000244084	4.65838e-07	9.0444	0.00158883	0.00156908	-0.000249764	-5.76037	17.2821	17.1948	1.73457	0.0575762	0.00580952	0.0578686	5.76172	3.68118e+06	3.64829e+07	3.66682e+07	-84.2383	0.0000000E+000	0.0000000E+000	0.0000000E+000	84.2383	0.0000000E+000	0.0000000E+000	0.0000000E+000	-84.2383	0.0000000E+000	0.0000000E+000	0.0000000E+000	-5.76172	0.0000000E+000	0.0000000E+000	0.0000000E+000	5.76172	9.91067	84.2383	0.000000000000000E+000	-3.76445e-05	-2.36401e-09	-3.76422e-05	3.88656	401312	25.2017	401287
0.0602816	18.9956	3.13865	19.2532	-9.38222	240.467	3.8868	-0.00968522	841185	22354.9	1	11	0.00505807	0.000262713	0	-0.00171939	0.000244084	5.25992e-07	-31.504	0.00200215	0.00170704	0.00104624	-9.38447	19.2551	18.9974	3.1397	0.0512446	0.00846716	0.0519394	9.38222	2.23549e+07	1.35296e+08	1.3713e+08	-80.6178	0.0000000E+000	0.0000000E+000	0.0000000E+000	80.6178	0.0000000E+000	0.0000000E+000	0.0000000E+000	-80.6178	0.0000000E+000	0.0000000E+000	0.0000000E+000	-9.38222	0.0000000E+000	0.0000000E+000	0.0000000E+000	9.38222	6.05216	80.6178	0.000000000000000E+000	-3.76445e-05	-2.36401e-09	-3.76422e-05	3.88656	401312	25.2017	401287
0.00796479	24.6541	5.54429	25.2698	-12.674	20329.3	3.88682	-0.000482853	3.60413e+06	173496	1	11	0.00505338	0.000199977	0	-0.0201409	-0.000424208	7.90617e-07	0.650453	0.00395354	0.00395328	-4.48817e-05	-12.672	25.2736	24.658	5.54425	0.0386087	0.00868247	0.039573	12.674	1.73496e+08	7.71492e+08	7.9076e+08	-77.326	0.0000000E+000	0.0000000E+000	0.0000000E+000	77.326	0.0000000E+000	0.0000000E+000	0.0000000E+000	-77.326	0.0000000E+000	0.0000000E+000	0.0000000E+000	-12.674	0.0000000E+000	0.0000000E+000	0.0000000E+000	12.674	4.44675	77.326	-0.0184215	-1.87676e-06	2.0483e-10	-1.87697e-06	3.88724	8.0497e+06	878.546	8.05057e+06
0.0019912	28.6786	9.00597	30.0594	-17.4339	20329.3	3.88682	-0.000482853	8.87515e+06	796663	1	11	0.00506576	0.000168525	0	-0.0201409	-0.000424208	5.66928e-07	-156.895	0.00336406	-0.00309422	0.0013201	-17.4381	30.0569	28.6755	9.00729	0.0317392	0.0099671	0.0332674	17.4339	7.96663e+08	2.53689e+09	2.65904e+09	-72.5661	0.0000000E+000	0.0000000E+000	0.0000000E+000	72.5661	0.0000000E+000	0.0000000E+000	0.0000000E+000	-72.5661	0.0000000E+000	0.0000000E+000	0.0000000E+000	-17.4339	0.0000000E+000	0.0000000E+000	0.0000000E+000	17.4339	3.1844	72.5661	0.000000000000000E+000	-1.87676e-06	2.0483e-10	-1.87697e-06	3.88724	8.0497e+06	878.546	8.05057e+06
0.000497799	31.405	21.6584	38.1492	-34.5921	20329.3	3.88682	-0.000482853	1.47618e+07	4.75798e+06	1	11	0.00506794	0.000132845	0	-0.0201409	-0.000424208	1.06982e-06	-103.596	0.00805315	-0.00189312	0.00782748	-34.6034	38.152	31.4031	21.6662	0.0215788	0.0148818	0.0262129	34.5921	4.75798e+09	6.89913e+09	8.38071e+09	-55.4079	0.0000000E+000	0.0000000E+000	0.0000000E+000	55.4079	0.0000000E+000	0.0000000E+000	0.0000000E+000	-55.4079	0.0000000E+000	0.0000000E+000	0.0000000E+000	-34.5921	0.0000000E+000	0.0000000E+000	0.0000000E+000	34.5921	1.45001	55.4079	0.000000000000000E+000	-1.87676e-06	2.0483e-10	-1.87697e-06	3.88724	8.0497e+06	878.546	8.05057e+06
9.95598e-05	41.1129	119.005	125.907	-70.9414	20329.3	3.88682	-0.000482853	1.34329e+07	1.20006e+07	1	11	0.00506539	4.02313e-05	0	-0.0201409	-0.000424208	2.62241e-06	18.9132	0.0651834	0.0616642	-0.0211283	-70.9118	125.907	41.1745	118.984	0.00259347	0.00750703	0.00794239	70.9414	1.20006e+10	4.14588e+09	1.26966e+10	-19.0586	0.0000000E+000	0.0000000E+000	0.0000000E+000	19.0586	0.0000000E+000	0.0000000E+000	0.0000000E+000	-19.0586	0.0000000E+000	0.0000000E+000	0.0000000E+000	-70.9414	0.0000000E+000	0.0000000E+000	0.0000000E+000	70.9414	0.345471	19.0586	0.000000000000000E+000	-1.87676e-06	2.0483e-10	-1.87697e-06	3.88724	8.0497e+06	878.546	8.05057e+06