File: txt/18570_R297_UC90_SOC50_C01.mpt
EC-Lab ASCII FILE
Nb header lines : 65

Potentio Electrochemical Impedance Spectroscopy

Run on channel : 1 (SN 66354)
User :
CE vs. WE compliance from -10 V to 10 V
Electrode connection : standard
Potential control : Ewe
Ewe ctrl range : min = -10.00 V, max = 10.00 V
Safety Limits :
	Do not start on E overload
Acquisition started on : 10/21/2025 16:34:18.266
Technique started on : 10/21/2025 16:34:20.961
Loaded Setting File :  C:\Users\Celltest\OneDrive - store-dot.com\Documents\EC-Lab\Data\@Biologic Test Protocols\cathode half cell EIS SOC50.mps
Saved on :
	File : 18570_R297_UC90_SOC50_C01.mpr
	Directory : C:\Users\Celltest\OneDrive - store-dot.com\Documents\EC-Lab\Data\Michael\
	Host : 169.254.61.224
Device : VMP-3e (SN .003165)
Address : USB
EC-LAB for windows v11.62 (software)
Internet server v27.00 (firmware)
Command interpretor v12.03 (firmware)
Electrode material :
Initial state :
Electrolyte :
Comments :
Electrode surface area : 0.001 cm²
Characteristic mass : 0.001 g
Equivalent Weight : 0.000 g/eq.
Density : 0.000 g/cm3
Volume (V) : 0.001 cm³
Record Ece
Cycle Definition : Charge/Discharge alternance
Mode                Multi sine
E (V)               0.0000
vs.                 Eoc
tE (h:m:s)          0:00:0.0000
record              0
dI                  0.000
unit dI             mA
dt (s)              0.000
fi                  1.000
unit fi             MHz
ff                  0.100
unit ff             mHz
Nd                  10
Points              per decade
spacing             Logarithmic
Va (mV)             5.0
pw                  0.10
Na                  2
corr                0
E range min (V)     -10.000
E range max (V)     10.000
I Range             Auto
Bandwidth           5
nc cycles           0
goto Ns'            0
nr cycles           0
inc. cycle          0

freq/Hz	Re(Z)/Ohm	-Im(Z)/Ohm	|Z|/Ohm	Phase(Z)/deg	time/s	<Ewe>/V	<I>/mA	Cs/µF	Cp/µF	cycle number	I Range	|Ewe|/V	|I|/A	Ns	(Q-Qo)/mA.h	<Ece>/V	|Ece|/V	Phase(Zce)/deg	|Zce|/Ohm	Re(Zce)/Ohm	-Im(Zce)/Ohm	Phase(Zwe-ce)/deg	|Zwe-ce|/Ohm	Re(Zwe-ce)/Ohm	-Im(Zwe-ce)/Ohm	Re(Y)/Ohm-1	Im(Y)/Ohm-1	|Y|/Ohm-1	Phase(Y)/deg	Re(C)/nF	Im(C)/nF	|C|/nF	Phase(C)/deg	Re(M)	Im(M)	|M|	Phase(M)/deg	Re(Permittivity)	Im(Permittivity)	|Permittivity|	Phase(Permittivity)/deg	Re(Resistivity)/Ohm.cm	Im(Resistivity)/Ohm.cm	|Resistivity|/Ohm.cm	Phase(Resistivity)/deg	Re(Conductivity)/mS/cm	Im(Conductivity)/mS/cm	|Conductivity|/mS/cm	Phase(Conductivity)/deg	Tan(Delta)	Loss Angle(Delta)/deg	dq/mA.h	Pwe/W	Pce/W	Pwe-ce/W	<Ewe-Ece>/V	Rwe/Ohm	Rce/Ohm	Rwe-ce/Ohm		Ewe-Ece/V
1.00002e+06	1.09557	-0.092149	1.09944	4.80786	2.69453	3.88668	0.0563612	-1.72711	-0.0121327	1	9	0.000217143	0.000197503	0	2.46252e-05	0.000345731	0.000195374	-4.33755	0.989217	0.986384	0.0748168	0.476976	2.08203	2.08196	-0.0173323	0.906353	-0.0762337	0.909553	-4.80786	-12.1327	144.248	144.757	-94.8079	0.0000000E+000	0.0000000E+000	0.0000000E+000	94.8079	0.0000000E+000	0.0000000E+000	0.0000000E+000	-94.8079	0.0000000E+000	0.0000000E+000	0.0000000E+000	4.80786	0.0000000E+000	0.0000000E+000	0.0000000E+000	-4.80786	11.8891	85.1921	2.46252e-05	0.000219058	1.94858e-08	0.000219038	3.88633	68960.2	6.13421	68954.1
251206	0.771103	0.294692	0.825496	-20.9154	4.99853	3.88635	0.0449242	2.14991	0.273986	1	9	0.00214684	0.00260067	0	5.98325e-05	2.33964e-06	5.90063e-05	115.988	0.0226888	-0.00994182	-0.0203947	-19.8175	0.809077	0.761161	0.274298	1.13157	0.432453	1.21139	20.9154	273.986	716.923	767.494	-69.0846	0.0000000E+000	0.0000000E+000	0.0000000E+000	69.0846	0.0000000E+000	0.0000000E+000	0.0000000E+000	-69.0846	0.0000000E+000	0.0000000E+000	0.0000000E+000	-20.9154	0.0000000E+000	0.0000000E+000	0.0000000E+000	20.9154	2.61664	69.0846	4.26817e-06	0.000174591	1.05107e-10	0.000174591	3.88635	86509.2	0.0520799	86509.1
63093.8	1.1997	0.63694	1.3583	-27.9646	7.29655	3.88632	0.0609436	3.96036	0.870849	1	9	0.00537005	0.00395351	0	0.000122368	0.000250345	3.60121e-05	89.6554	0.00910888	5.47886e-05	-0.00910871	-27.6231	1.3541	1.19975	0.627831	0.650254	0.345231	0.736216	27.9646	870.849	1640.27	1857.11	-62.0354	0.0000000E+000	0.0000000E+000	0.0000000E+000	62.0354	0.0000000E+000	0.0000000E+000	0.0000000E+000	-62.0354	0.0000000E+000	0.0000000E+000	0.0000000E+000	-27.9646	0.0000000E+000	0.0000000E+000	0.0000000E+000	27.9646	1.88353	62.0354	1.89418e-05	0.000236846	1.52569e-08	0.000236831	3.88607	63769.2	4.10781	63765.1
15847.7	1.85762	0.994252	2.10696	-28.157	9.72254	3.88632	0.0490221	10.1008	2.24925	1	9	0.00484574	0.00229987	0	0.000160328	0.000364808	8.4152e-06	-111.789	0.00365899	-0.00135817	0.00339759	-28.2558	2.10737	1.85626	0.99765	0.41845	0.223966	0.474617	28.157	2249.25	4202.4	4766.48	-61.843	0.0000000E+000	0.0000000E+000	0.0000000E+000	61.843	0.0000000E+000	0.0000000E+000	0.0000000E+000	-61.843	0.0000000E+000	0.0000000E+000	0.0000000E+000	-28.157	0.0000000E+000	0.0000000E+000	0.0000000E+000	28.157	1.86836	61.843	7.13107e-06	0.000190516	1.78837e-08	0.000190498	3.88595	79276.8	7.44171	79269.4
3983.6	2.83159	1.5575	3.23167	-28.8128	11.5711	3.88612	-0.0457529	25.6517	5.95825	1	9	0.00470415	0.00145564	0	0.000180031	-1.67377e-05	1.46844e-05	-105.353	0.0100879	-0.00267096	0.00972787	-28.9866	3.23403	2.82891	1.56723	0.271129	0.149133	0.309438	28.8128	5958.25	10832.3	12362.8	-61.1872	0.0000000E+000	0.0000000E+000	0.0000000E+000	61.1872	0.0000000E+000	0.0000000E+000	0.0000000E+000	-61.1872	0.0000000E+000	0.0000000E+000	0.0000000E+000	-28.8128	0.0000000E+000	0.0000000E+000	0.0000000E+000	28.8128	1.81803	61.1872	-2.35023e-06	-0.000177802	7.65797e-10	-0.000177802	3.88614	84937.2	0.365827	84937.5
1000.32	4.48001	2.61188	5.18579	-30.2425	14.4448	3.88622	-0.00557594	60.9156	15.4527	1	10	0.00466352	0.000899289	0	0.000185613	2.33964e-06	1.18075e-05	11.1666	0.0131298	0.0128812	-0.00254275	-30.1467	5.19564	4.49289	2.60934	0.16659	0.0971233	0.192835	30.2425	15452.7	26505.2	30680.8	-59.7575	0.0000000E+000	0.0000000E+000	0.0000000E+000	59.7575	0.0000000E+000	0.0000000E+000	0.0000000E+000	-59.7575	0.0000000E+000	0.0000000E+000	0.0000000E+000	-30.2425	0.0000000E+000	0.0000000E+000	0.0000000E+000	30.2425	1.71524	59.7575	-4.20864e-07	-2.16693e-05	-1.30457e-11	-2.16693e-05	3.88622	696963	0.419597	696963
251.044	7.69934	3.80227	8.58703	-26.2822	17.145	3.88622	-0.0061499	166.735	32.6909	1	10	0.00458556	0.00053401	0	0.000181473	7.86489e-05	8.19555e-06	43.2247	0.0153472	0.0111831	-0.0105107	-26.1863	8.59241	7.71052	3.79176	0.104416	0.0515652	0.116455	26.2822	32690.9	66196.9	73829	-63.7178	0.0000000E+000	0.0000000E+000	0.0000000E+000	63.7178	0.0000000E+000	0.0000000E+000	0.0000000E+000	-63.7178	0.0000000E+000	0.0000000E+000	0.0000000E+000	-26.2822	0.0000000E+000	0.0000000E+000	0.0000000E+000	26.2822	2.02493	63.7178	-4.12143e-07	-2.38999e-05	-4.83683e-10	-2.38994e-05	3.88614	631917	12.7886	631904
63.0823	11.4133	2.71933	11.7328	-13.4014	19.865	3.88623	-0.00201673	927.791	49.8395	1	10	0.00457422	0.000389867	0	0.000179529	2.1417e-05	9.81221e-06	-52.0684	0.0251681	0.0154714	0.0198512	-13.4781	11.7524	11.4288	2.73918	0.0829105	0.0197543	0.0852313	13.4014	49839.5	209181	215036	-76.5986	0.0000000E+000	0.0000000E+000	0.0000000E+000	76.5986	0.0000000E+000	0.0000000E+000	0.0000000E+000	-76.5986	0.0000000E+000	0.0000000E+000	0.0000000E+000	-13.4014	0.0000000E+000	0.0000000E+000	0.0000000E+000	13.4014	4.19709	76.5986	-4.24327e-07	-7.83747e-06	-4.31922e-11	-7.83743e-06	3.88621	1.927e+06	10.6196	1.92699e+06
15.8576	12.7981	1.16744	12.8512	-5.2121	22.523	3.88622	-0.0118745	8597.04	70.9465	1	10	0.00456194	0.000354982	0	0.000174385	-3.5815e-05	1.41688e-05	-7.59559	0.0399143	0.0395641	0.00527587	-5.21948	12.8911	12.8376	1.17272	0.0774921	0.00706883	0.0778138	5.2121	70946.5	777751	780980	-84.7879	0.0000000E+000	0.0000000E+000	0.0000000E+000	84.7879	0.0000000E+000	0.0000000E+000	0.0000000E+000	-84.7879	0.0000000E+000	0.0000000E+000	0.0000000E+000	-5.2121	0.0000000E+000	0.0000000E+000	0.0000000E+000	5.2121	10.9625	84.7879	-1.02473e-06	-4.61469e-05	4.25284e-10	-4.61473e-05	3.88626	327275	3.01613	327278
3.97785	13.3002	0.642328	13.3157	-2.76494	25.7183	3.88628	0.00737778	62289.5	144.945	1	11	0.00456274	0.000342659	0	0.000179105	0.000288499	5.73851e-06	20.6348	0.016747	0.0156726	-0.00590181	-2.73635	13.331	13.3158	0.636426	0.0750121	0.00362269	0.0750996	2.76494	144945	3.00126e+06	3.00475e+06	-87.2351	0.0000000E+000	0.0000000E+000	0.0000000E+000	87.2351	0.0000000E+000	0.0000000E+000	0.0000000E+000	-87.2351	0.0000000E+000	0.0000000E+000	0.0000000E+000	-2.76494	0.0000000E+000	0.0000000E+000	0.0000000E+000	2.76494	20.7062	87.2351	-2.34559e-06	2.86722e-05	2.12848e-09	2.867e-05	3.886	526755	39.1038	526716
1.00469	13.7342	0.809929	13.7581	-3.37492	240.531	3.88626	0.00162235	195587	677.827	1	11	0.00500749	0.000363967	0	-0.000876328	9.77262e-05	3.20938e-07	33.1392	0.000881778	0.000738353	-0.000482046	-3.37273	13.7588	13.7349	0.809447	0.0725586	0.0042789	0.0726846	3.37492	677826	1.14941e+07	1.15141e+07	-86.6251	0.0000000E+000	0.0000000E+000	0.0000000E+000	86.6251	0.0000000E+000	0.0000000E+000	0.0000000E+000	-86.6251	0.0000000E+000	0.0000000E+000	0.0000000E+000	-3.37492	0.0000000E+000	0.0000000E+000	0.0000000E+000	3.37492	16.9573	86.6251	-0.00106552	6.30487e-06	1.58546e-10	6.30472e-06	3.88617	2.39546e+06	60.2375	2.3954e+06
0.251173	14.4879	1.52146	14.5676	-5.99498	240.531	3.88626	0.00162235	416472	4542.88	1	11	0.00503438	0.000345588	0	-0.000876328	9.77262e-05	2.58763e-07	-26.3099	0.000748762	0.000671197	0.000331871	-5.99601	14.5683	14.4886	1.52179	0.0682701	0.00716944	0.0686455	5.99498	4.54288e+06	4.32591e+07	4.34969e+07	-84.005	0.0000000E+000	0.0000000E+000	0.0000000E+000	84.005	0.0000000E+000	0.0000000E+000	0.0000000E+000	-84.005	0.0000000E+000	0.0000000E+000	0.0000000E+000	-5.99498	0.0000000E+000	0.0000000E+000	0.0000000E+000	5.99498	9.52238	84.005	0.000000000000000E+000	6.30487e-06	1.58546e-10	6.30472e-06	3.88617	2.39546e+06	60.2375	2.3954e+06
0.0602816	16.0408	2.84995	16.292	-10.0746	240.532	3.88626	0.00162235	926397	28348.2	1	11	0.00502699	0.000308556	0	-0.000876328	9.77262e-05	7.76701e-07	-30.6333	0.00251721	0.00216592	0.00128262	-10.0777	16.2943	16.0429	2.85124	0.0604335	0.0107372	0.06138	10.0746	2.83482e+07	1.59556e+08	1.62055e+08	-79.9254	0.0000000E+000	0.0000000E+000	0.0000000E+000	79.9254	0.0000000E+000	0.0000000E+000	0.0000000E+000	-79.9254	0.0000000E+000	0.0000000E+000	0.0000000E+000	-10.0746	0.0000000E+000	0.0000000E+000	0.0000000E+000	10.0746	5.62843	79.9254	0.000000000000000E+000	6.30487e-06	1.58546e-10	6.30472e-06	3.88617	2.39546e+06	60.2375	2.3954e+06
0.00796479	21.2017	5.3865	21.8753	-14.2549	20329.4	3.8863	0.000303074	3.70971e+06	224929	1	11	0.00502155	0.000229554	0	-0.0173723	0.000307577	5.97033e-07	-30.1928	0.00260084	0.00224801	0.00130799	-14.2568	21.8778	21.204	5.3878	0.0443062	0.0112564	0.0457137	14.2549	2.24929e+08	8.85341e+08	9.13466e+08	-75.7451	0.0000000E+000	0.0000000E+000	0.0000000E+000	75.7451	0.0000000E+000	0.0000000E+000	0.0000000E+000	-75.7451	0.0000000E+000	0.0000000E+000	0.0000000E+000	-14.2549	0.0000000E+000	0.0000000E+000	0.0000000E+000	14.2549	3.93609	75.7451	-0.0164959	1.17783e-06	9.32183e-11	1.17774e-06	3.88599	1.2823e+07	1014.86	1.28219e+07
0.0019912	24.9394	8.92982	26.4899	-19.7005	20329.4	3.8863	0.000303074	8.95083e+06	1.01716e+06	1	11	0.00503347	0.000190015	0	-0.0173723	0.000307577	9.98026e-07	-11.2993	0.00525236	0.00515055	0.00102912	-19.6988	26.4951	24.9445	8.93085	0.0355407	0.0127257	0.0377503	19.7005	1.01716e+09	2.84074e+09	3.01735e+09	-70.2995	0.0000000E+000	0.0000000E+000	0.0000000E+000	70.2995	0.0000000E+000	0.0000000E+000	0.0000000E+000	-70.2995	0.0000000E+000	0.0000000E+000	0.0000000E+000	-19.7005	0.0000000E+000	0.0000000E+000	0.0000000E+000	19.7005	2.79282	70.2995	0.000000000000000E+000	1.17783e-06	9.32183e-11	1.17774e-06	3.88599	1.2823e+07	1014.86	1.28219e+07
0.000497799	27.4884	22.4751	35.5069	-39.2701	20329.4	3.8863	0.000303074	1.42254e+07	5.69955e+06	1	11	0.00503666	0.00014185	0	-0.0173723	0.000307577	6.34763e-07	24.2698	0.00447489	0.0040794	-0.00183933	-39.2636	35.5089	27.4925	22.4732	0.0218034	0.0178268	0.0281635	39.2701	5.69955e+09	6.97091e+09	9.00436e+09	-50.7299	0.0000000E+000	0.0000000E+000	0.0000000E+000	50.7299	0.0000000E+000	0.0000000E+000	0.0000000E+000	-50.7299	0.0000000E+000	0.0000000E+000	0.0000000E+000	-39.2701	0.0000000E+000	0.0000000E+000	0.0000000E+000	39.2701	1.22306	50.7299	0.000000000000000E+000	1.17783e-06	9.32183e-11	1.17774e-06	3.88599	1.2823e+07	1014.86	1.28219e+07
9.95598e-05	36.3742	131.066	136.02	-74.4893	20329.4	3.8863	0.000303074	1.21968e+07	1.13246e+07	1	11	0.00503661	3.70285e-05	0	-0.0173723	0.000307577	2.00052e-06	-78.0211	0.0540266	0.0112133	0.0528501	-74.4907	136.074	36.3854	131.119	0.00196602	0.00708411	0.00735186	74.4893	1.13246e+10	3.14286e+09	1.17526e+10	-15.5107	0.0000000E+000	0.0000000E+000	0.0000000E+000	15.5107	0.0000000E+000	0.0000000E+000	0.0000000E+000	-15.5107	0.0000000E+000	0.0000000E+000	0.0000000E+000	-74.4893	0.0000000E+000	0.0000000E+000	0.0000000E+000	74.4893	0.277526	15.5107	0.000000000000000E+000	1.17783e-06	9.32183e-11	1.17774e-06	3.88599	1.2823e+07	1014.86	1.28219e+07