File: txt/18574_R297_UC90_SOC50_C05.mpt
EC-Lab ASCII FILE
Nb header lines : 65

Potentio Electrochemical Impedance Spectroscopy

Run on channel : 5 (SN 65912)
User :
CE vs. WE compliance from -10 V to 10 V
Electrode connection : standard
Potential control : Ewe
Ewe ctrl range : min = -10.00 V, max = 10.00 V
Safety Limits :
	Do not start on E overload
Acquisition started on : 10/21/2025 16:35:05.807
Technique started on : 10/21/2025 16:35:08.501
Loaded Setting File :  C:\Users\Celltest\OneDrive - store-dot.com\Documents\EC-Lab\Data\@Biologic Test Protocols\cathode half cell EIS SOC50.mps
Saved on :
	File : 18574_R297_UC90_SOC50_C05.mpr
	Directory : C:\Users\Celltest\OneDrive - store-dot.com\Documents\EC-Lab\Data\Michael\
	Host : 169.254.61.224
Device : VMP-3e (SN .003165)
Address : USB
EC-LAB for windows v11.62 (software)
Internet server v27.00 (firmware)
Command interpretor v12.03 (firmware)
Electrode material :
Initial state :
Electrolyte :
Comments :
Electrode surface area : 0.001 cm²
Characteristic mass : 0.001 g
Equivalent Weight : 0.000 g/eq.
Density : 0.000 g/cm3
Volume (V) : 0.001 cm³
Record Ece
Cycle Definition : Charge/Discharge alternance
Mode                Multi sine
E (V)               0.0000
vs.                 Eoc
tE (h:m:s)          0:00:0.0000
record              0
dI                  0.000
unit dI             mA
dt (s)              0.000
fi                  1.000
unit fi             MHz
ff                  0.100
unit ff             mHz
Nd                  10
Points              per decade
spacing             Logarithmic
Va (mV)             5.0
pw                  0.10
Na                  2
corr                0
E range min (V)     -10.000
E range max (V)     10.000
I Range             Auto
Bandwidth           5
nc cycles           0
goto Ns'            0
nr cycles           0
inc. cycle          0

freq/Hz	Re(Z)/Ohm	-Im(Z)/Ohm	|Z|/Ohm	Phase(Z)/deg	time/s	<Ewe>/V	<I>/mA	Cs/µF	Cp/µF	cycle number	I Range	|Ewe|/V	|I|/A	Ns	(Q-Qo)/mA.h	<Ece>/V	|Ece|/V	Phase(Zce)/deg	|Zce|/Ohm	Re(Zce)/Ohm	-Im(Zce)/Ohm	Phase(Zwe-ce)/deg	|Zwe-ce|/Ohm	Re(Zwe-ce)/Ohm	-Im(Zwe-ce)/Ohm	Re(Y)/Ohm-1	Im(Y)/Ohm-1	|Y|/Ohm-1	Phase(Y)/deg	Re(C)/nF	Im(C)/nF	|C|/nF	Phase(C)/deg	Re(M)	Im(M)	|M|	Phase(M)/deg	Re(Permittivity)	Im(Permittivity)	|Permittivity|	Phase(Permittivity)/deg	Re(Resistivity)/Ohm.cm	Im(Resistivity)/Ohm.cm	|Resistivity|/Ohm.cm	Phase(Resistivity)/deg	Re(Conductivity)/mS/cm	Im(Conductivity)/mS/cm	|Conductivity|/mS/cm	Phase(Conductivity)/deg	Tan(Delta)	Loss Angle(Delta)/deg	dq/mA.h	Pwe/W	Pce/W	Pwe-ce/W	<Ewe-Ece>/V	Rwe/Ohm	Rce/Ohm	Rwe-ce/Ohm		Ewe-Ece/V
1.00002e+06	1.00428	-0.107203	1.00998	6.09305	2.69352	3.88918	0.0470495	-1.48458	-0.016726	1	9	0.00021744	0.000215291	0	1.80101e-05	1.58158e-05	0.000187288	2.26395	0.869933	0.869254	-0.034365	4.32118	1.87887	1.87353	-0.141568	0.984522	-0.105094	0.990116	-6.09305	-16.726	156.689	157.579	-96.0931	0.0000000E+000	0.0000000E+000	0.0000000E+000	96.0931	0.0000000E+000	0.0000000E+000	0.0000000E+000	-96.0931	0.0000000E+000	0.0000000E+000	0.0000000E+000	6.09305	0.0000000E+000	0.0000000E+000	0.0000000E+000	-6.09305	9.36798	83.9069	1.80101e-05	0.000182984	7.44125e-10	0.000182983	3.88916	82661.3	0.336152	82661
251206	0.791712	0.286557	0.841976	-19.8975	4.99152	3.88756	-0.0482098	2.21095	0.256095	1	9	0.00230071	0.00273251	0	2.41722e-06	3.4907e-05	4.96715e-05	92.7939	0.018178	-0.000886056	-0.0181564	-18.7468	0.835131	0.790826	0.2684	1.11678	0.404214	1.18768	19.8975	256.095	707.552	752.472	-70.1025	0.0000000E+000	0.0000000E+000	0.0000000E+000	70.1025	0.0000000E+000	0.0000000E+000	0.0000000E+000	-70.1025	0.0000000E+000	0.0000000E+000	0.0000000E+000	-19.8975	0.0000000E+000	0.0000000E+000	0.0000000E+000	19.8975	2.76285	70.1025	-6.3231e-06	-0.000187419	-1.68286e-09	-0.000187417	3.88753	80638.3	0.724064	80637.6
63093.8	1.20128	0.612869	1.34859	-27.0297	7.29152	3.88729	-0.0426611	4.1159	0.850046	1	9	0.0053728	0.00398402	0	1.21867e-05	3.4907e-05	2.73482e-05	71.3466	0.00686448	0.00219555	-0.00650389	-26.741	1.34761	1.20348	0.606366	0.660521	0.336984	0.741516	27.0297	850.046	1666.17	1870.48	-62.9703	0.0000000E+000	0.0000000E+000	0.0000000E+000	62.9703	0.0000000E+000	0.0000000E+000	0.0000000E+000	-62.9703	0.0000000E+000	0.0000000E+000	0.0000000E+000	-27.0297	0.0000000E+000	0.0000000E+000	0.0000000E+000	27.0297	1.9601	62.9703	-3.30184e-06	-0.000165836	-1.48917e-09	-0.000165834	3.88725	91120.2	0.81824	91119.4
15847.7	1.82642	1.06645	2.11498	-30.2808	9.59155	3.88729	-0.0433314	9.41699	2.39433	1	9	0.00486186	0.00229877	0	4.88542e-06	-7.96403e-05	4.99211e-06	5.55558	0.00217164	0.00216144	-0.000210239	-30.2464	2.11674	1.82858	1.06624	0.408309	0.238413	0.472818	30.2808	2394.33	4100.56	4748.41	-59.7192	0.0000000E+000	0.0000000E+000	0.0000000E+000	59.7192	0.0000000E+000	0.0000000E+000	0.0000000E+000	-59.7192	0.0000000E+000	0.0000000E+000	0.0000000E+000	-30.2808	0.0000000E+000	0.0000000E+000	0.0000000E+000	30.2808	1.71261	59.7192	-2.58354e-06	-0.000168442	3.45093e-09	-0.000168445	3.88737	89710.6	1.83793	89712.4
3983.6	2.94589	1.84349	3.47515	-32.0376	11.4381	3.8871	-0.10083	21.6723	6.09868	1	9	0.00467264	0.00134458	0	-1.38486e-05	0.000187637	6.4144e-06	57.746	0.00477054	0.00254591	-0.00403441	-31.9589	3.47518	2.94844	1.83945	0.243932	0.152648	0.287757	32.0376	6098.68	9745.69	11496.6	-57.9624	0.0000000E+000	0.0000000E+000	0.0000000E+000	57.9624	0.0000000E+000	0.0000000E+000	0.0000000E+000	-57.9624	0.0000000E+000	0.0000000E+000	0.0000000E+000	-32.0376	0.0000000E+000	0.0000000E+000	0.0000000E+000	32.0376	1.598	57.9624	-7.68412e-06	-0.000391935	-1.89194e-08	-0.000391916	3.88691	38551.1	1.86093	38549.3
1000.32	4.8906	3.19654	5.84259	-33.169	14.2759	3.8872	-0.0251724	49.7738	14.8988	1	10	0.00459466	0.000786407	0	-3.86276e-05	-2.23667e-05	7.3942e-06	-81.8093	0.00940252	0.00133957	0.0093066	-33.2381	5.84881	4.89194	3.20585	0.143269	0.0936417	0.171157	33.169	14898.8	22794.6	27231.7	-56.831	0.0000000E+000	0.0000000E+000	0.0000000E+000	56.831	0.0000000E+000	0.0000000E+000	0.0000000E+000	-56.831	0.0000000E+000	0.0000000E+000	0.0000000E+000	-33.169	0.0000000E+000	0.0000000E+000	0.0000000E+000	33.169	1.52997	56.831	-2.93941e-06	-9.78502e-05	5.63022e-10	-9.78507e-05	3.88722	154423	0.888539	154424
251.044	8.93314	4.6771	10.0835	-27.6351	16.976	3.88718	-0.0249527	135.548	29.1627	1	10	0.0045182	0.00044808	0	-5.60092e-05	-9.87315e-05	1.84915e-05	59.1472	0.0412683	0.0211638	-0.0354284	-27.401	10.0859	8.9543	4.64168	0.0878586	0.0459999	0.0991722	27.6351	29162.7	55699.9	62872.4	-62.3649	0.0000000E+000	0.0000000E+000	0.0000000E+000	62.3649	0.0000000E+000	0.0000000E+000	0.0000000E+000	-62.3649	0.0000000E+000	0.0000000E+000	0.0000000E+000	-27.6351	0.0000000E+000	0.0000000E+000	0.0000000E+000	27.6351	1.90997	62.3649	-3.22293e-06	-9.69958e-05	2.46362e-09	-9.69983e-05	3.88728	155782	3.95674	155786
63.0823	13.5588	3.25557	13.9441	-13.5016	19.695	3.88719	-0.0217245	774.971	42.2432	1	10	0.00451162	0.00032355	0	-7.43435e-05	-0.000251461	6.40191e-06	-33.9259	0.0197865	0.016418	0.0110432	-13.5299	13.9627	13.5752	3.26661	0.0697329	0.0167434	0.0717148	13.5016	42243.2	175934	180935	-76.4984	0.0000000E+000	0.0000000E+000	0.0000000E+000	76.4984	0.0000000E+000	0.0000000E+000	0.0000000E+000	-76.4984	0.0000000E+000	0.0000000E+000	0.0000000E+000	-13.5016	0.0000000E+000	0.0000000E+000	0.0000000E+000	13.5016	4.16479	76.4984	-2.50954e-06	-8.44474e-05	5.46288e-09	-8.44528e-05	3.88744	178931	11.575	178942
15.8576	15.2254	1.35494	15.2855	-5.08549	22.6001	3.88724	-0.0135918	7407.35	58.2026	1	11	0.00451486	0.000295368	0	-9.41092e-05	-0.000194188	1.84703e-05	158.756	0.0625333	-0.058284	-0.0226583	-5.02	15.2255	15.1671	1.33228	0.0651638	0.00579908	0.0654213	5.08549	58202.5	654018	656602	-84.9145	0.0000000E+000	0.0000000E+000	0.0000000E+000	84.9145	0.0000000E+000	0.0000000E+000	0.0000000E+000	-84.9145	0.0000000E+000	0.0000000E+000	0.0000000E+000	-5.08549	0.0000000E+000	0.0000000E+000	0.0000000E+000	5.08549	11.2369	84.9145	-2.90373e-06	-5.28344e-05	2.63935e-09	-5.2837e-05	3.88743	286000	14.2872	286014
3.97785	15.6625	0.743821	15.6802	-2.71896	25.7633	3.88724	-0.0122466	53790.2	121.042	1	11	0.00500549	0.000319224	0	-0.000106864	5.39982e-05	6.00863e-06	-3.03024	0.0188226	0.0187963	0.000995019	-2.71933	15.699	15.6813	0.744816	0.0637029	0.00302528	0.0637747	2.71896	121042	2.54877e+06	2.55164e+06	-87.281	0.0000000E+000	0.0000000E+000	0.0000000E+000	87.281	0.0000000E+000	0.0000000E+000	0.0000000E+000	-87.281	0.0000000E+000	0.0000000E+000	0.0000000E+000	-2.71896	0.0000000E+000	0.0000000E+000	0.0000000E+000	2.71896	21.0569	87.281	-5.65783e-06	-4.76053e-05	-6.61292e-10	-4.76046e-05	3.88718	317414	4.40925	317410
1.00469	16.0692	0.854758	16.0919	-3.04483	240.576	3.88722	-0.010803	185329	522.895	1	11	0.00507483	0.000315365	0	-0.00191963	0.000187637	5.13401e-07	18.0481	0.00162796	0.00154786	-0.000504364	-3.04274	16.0934	16.0707	0.854253	0.0620553	0.00330087	0.062143	3.04483	522896	9.83027e+06	9.84416e+06	-86.9552	0.0000000E+000	0.0000000E+000	0.0000000E+000	86.9552	0.0000000E+000	0.0000000E+000	0.0000000E+000	-86.9552	0.0000000E+000	0.0000000E+000	0.0000000E+000	-3.04483	0.0000000E+000	0.0000000E+000	0.0000000E+000	3.04483	18.7997	86.9552	-0.0017997	-4.19937e-05	-2.02704e-09	-4.19916e-05	3.88703	359827	17.3689	359810
0.251173	16.8511	1.561	16.9233	-5.29247	240.577	3.88722	-0.010803	405923	3453.67	1	11	0.00510578	0.000301702	0	-0.00191963	0.000187637	8.98487e-07	3.63232	0.00297806	0.00297208	-0.000188671	-5.29091	16.9262	16.8541	1.56081	0.0588384	0.00545048	0.0590903	5.29247	3.45367e+06	3.72827e+07	3.74423e+07	-84.7075	0.0000000E+000	0.0000000E+000	0.0000000E+000	84.7075	0.0000000E+000	0.0000000E+000	0.0000000E+000	-84.7075	0.0000000E+000	0.0000000E+000	0.0000000E+000	-5.29247	0.0000000E+000	0.0000000E+000	0.0000000E+000	5.29247	10.7951	84.7075	0.000000000000000E+000	-4.19937e-05	-2.02704e-09	-4.19916e-05	3.88703	359827	17.3689	359810
0.0602816	18.5735	3.01624	18.8168	-9.224	240.578	3.88722	-0.010803	875325	22490.9	1	11	0.00509535	0.000270786	0	-0.00191963	0.000187637	2.5861e-07	-9.70934	0.000955035	0.000941355	0.000161067	-9.22403	18.8178	18.5745	3.0164	0.0524567	0.00851868	0.0531439	9.224	2.24909e+07	1.38496e+08	1.4031e+08	-80.776	0.0000000E+000	0.0000000E+000	0.0000000E+000	80.776	0.0000000E+000	0.0000000E+000	0.0000000E+000	-80.776	0.0000000E+000	0.0000000E+000	0.0000000E+000	-9.224	0.0000000E+000	0.0000000E+000	0.0000000E+000	9.224	6.15784	80.776	0.000000000000000E+000	-4.19937e-05	-2.02704e-09	-4.19916e-05	3.88703	359827	17.3689	359810
0.00796479	23.6452	5.32033	24.2363	-12.6808	20329.5	3.88723	-0.000917234	3.75584e+06	180988	1	11	0.00508885	0.000209968	0	-0.0239773	-6.05491e-05	1.19186e-07	-67.4279	0.000567638	0.000217885	0.000524156	-12.6819	24.2367	23.6454	5.32086	0.040254	0.00905743	0.0412604	12.6808	1.80988e+08	8.04368e+08	8.24478e+08	-77.3192	0.0000000E+000	0.0000000E+000	0.0000000E+000	77.3192	0.0000000E+000	0.0000000E+000	0.0000000E+000	-77.3192	0.0000000E+000	0.0000000E+000	0.0000000E+000	-12.6808	0.0000000E+000	0.0000000E+000	0.0000000E+000	12.6808	4.4443	77.3192	-0.0220577	-3.5655e-06	5.55377e-11	-3.56556e-06	3.88729	4.23799e+06	66.0127	4.23806e+06
0.0019912	27.4874	8.8879	28.8887	-17.9183	20329.5	3.88723	-0.000917234	8.99304e+06	851237	1	11	0.00509998	0.000176539	0	-0.0239773	-6.05491e-05	3.8968e-07	-92.2768	0.00220733	-8.76902e-05	0.00220559	-17.9225	28.8893	27.4874	8.89011	0.0329367	0.0106499	0.0346157	17.9183	8.51237e+08	2.63261e+09	2.76681e+09	-72.0817	0.0000000E+000	0.0000000E+000	0.0000000E+000	72.0817	0.0000000E+000	0.0000000E+000	0.0000000E+000	-72.0817	0.0000000E+000	0.0000000E+000	0.0000000E+000	-17.9183	0.0000000E+000	0.0000000E+000	0.0000000E+000	17.9183	3.09268	72.0817	0.000000000000000E+000	-3.5655e-06	5.55377e-11	-3.56556e-06	3.88729	4.23799e+06	66.0127	4.23806e+06
0.000497799	30.1162	21.7775	37.1652	-35.8713	20329.5	3.88723	-0.000917234	1.4681e+07	5.04084e+06	1	11	0.00510144	0.000137264	0	-0.0239773	-6.05491e-05	1.26558e-06	-91.1914	0.00922001	-0.000191707	0.00921802	-35.883	37.1704	30.116	21.7868	0.0218036	0.0157666	0.0269069	35.8713	5.04084e+09	6.97099e+09	8.6026e+09	-54.1287	0.0000000E+000	0.0000000E+000	0.0000000E+000	54.1287	0.0000000E+000	0.0000000E+000	0.0000000E+000	-54.1287	0.0000000E+000	0.0000000E+000	0.0000000E+000	-35.8713	0.0000000E+000	0.0000000E+000	0.0000000E+000	35.8713	1.3829	54.1287	0.000000000000000E+000	-3.5655e-06	5.55377e-11	-3.56556e-06	3.88729	4.23799e+06	66.0127	4.23806e+06
9.95598e-05	38.2176	122.927	128.731	-72.7297	20329.5	3.88723	-0.000917234	1.30043e+07	1.18582e+07	1	11	0.00509941	3.96129e-05	0	-0.0239773	-6.05491e-05	1.00638e-06	16.1674	0.0254055	0.0244007	-0.00707403	-72.7184	128.732	38.242	122.92	0.0023062	0.00741791	0.00776813	72.7297	1.18582e+10	3.68666e+09	1.2418e+10	-17.2703	0.0000000E+000	0.0000000E+000	0.0000000E+000	17.2703	0.0000000E+000	0.0000000E+000	0.0000000E+000	-17.2703	0.0000000E+000	0.0000000E+000	0.0000000E+000	-72.7297	0.0000000E+000	0.0000000E+000	0.0000000E+000	72.7297	0.310896	17.2703	0.000000000000000E+000	-3.5655e-06	5.55377e-11	-3.56556e-06	3.88729	4.23799e+06	66.0127	4.23806e+06