File: txt/18603_R301_UA696_SOC00_C02.mpt
EC-Lab ASCII FILE
Nb header lines : 65

Potentio Electrochemical Impedance Spectroscopy

Run on channel : 2 (SN 66139)
User :
CE vs. WE compliance from -10 V to 10 V
Electrode connection : standard
Potential control : Ewe
Ewe ctrl range : min = -10.00 V, max = 10.00 V
Safety Limits :
	Do not start on E overload
Acquisition started on : 10/27/2025 16:23:12.710
Technique started on : 10/27/2025 16:23:14.304
Loaded Setting File :  C:\Users\Celltest\OneDrive - store-dot.com\Documents\EC-Lab\Data\@Biologic Test Protocols\anode half cell EIS SOC00.mps
Saved on :
	File : 18603_R301_UA696_SOC00_C02.mpr
	Directory : C:\Users\Celltest\OneDrive - store-dot.com\Documents\EC-Lab\Data\Gyutae\
	Host : 169.254.61.224
Device : VMP-3e (SN .003165)
Address : USB
EC-LAB for windows v11.62 (software)
Internet server v27.00 (firmware)
Command interpretor v12.03 (firmware)
Electrode material :
Initial state :
Electrolyte :
Comments :
Electrode surface area : 0.001 cm²
Characteristic mass : 0.001 g
Equivalent Weight : 0.000 g/eq.
Density : 0.000 g/cm3
Volume (V) : 0.001 cm³
Record Ece
Cycle Definition : Charge/Discharge alternance
Mode                Single sine
E (V)               0.0000
vs.                 Eoc
tE (h:m:s)          0:00:0.0000
record              0
dI                  0.000
unit dI             mA
dt (s)              0.000
fi                  100.000
unit fi             kHz
ff                  10.000
unit ff             mHz
Nd                  6
Points              per decade
spacing             Logarithmic
Va (mV)             5.0
pw                  0.10
Na                  2
corr                0
E range min (V)     -10.000
E range max (V)     10.000
I Range             Auto
Bandwidth           5
nc cycles           0
goto Ns'            0
nr cycles           0
inc. cycle          0

freq/Hz	Re(Z)/Ohm	-Im(Z)/Ohm	|Z|/Ohm	Phase(Z)/deg	time/s	<Ewe>/V	<I>/mA	Cs/µF	Cp/µF	cycle number	I Range	|Ewe|/V	|I|/A	Ns	(Q-Qo)/mA.h	<Ece>/V	|Ece|/V	Phase(Zce)/deg	|Zce|/Ohm	Re(Zce)/Ohm	-Im(Zce)/Ohm	Phase(Zwe-ce)/deg	|Zwe-ce|/Ohm	Re(Zwe-ce)/Ohm	-Im(Zwe-ce)/Ohm	Re(Y)/Ohm-1	Im(Y)/Ohm-1	|Y|/Ohm-1	Phase(Y)/deg	Re(C)/nF	Im(C)/nF	|C|/nF	Phase(C)/deg	Re(M)	Im(M)	|M|	Phase(M)/deg	Re(Permittivity)	Im(Permittivity)	|Permittivity|	Phase(Permittivity)/deg	Re(Resistivity)/Ohm.cm	Im(Resistivity)/Ohm.cm	|Resistivity|/Ohm.cm	Phase(Resistivity)/deg	Re(Conductivity)/mS/cm	Im(Conductivity)/mS/cm	|Conductivity|/mS/cm	Phase(Conductivity)/deg	Tan(Delta)	Loss Angle(Delta)/deg	dq/mA.h	Pwe/W	Pce/W	Pwe-ce/W	<Ewe-Ece>/V	Rwe/Ohm	Rce/Ohm	Rwe-ce/Ohm		Ewe-Ece/V
100004	1.0375	0.351359	1.09538	-18.7092	1.59356	0.215086	0.0142303	4.52953	0.466045	1	9	0.0053804	0.00491192	0	1.65356e-06	0.000229433	2.42812e-05	22.4063	0.00494332	0.00457012	-0.00188426	-18.5397	1.09911	1.04207	0.349474	0.864688	0.292836	0.912928	18.7092	466.045	1376.14	1452.92	-71.2908	0.0000000E+000	0.0000000E+000	0.0000000E+000	71.2908	0.0000000E+000	0.0000000E+000	0.0000000E+000	-71.2908	0.0000000E+000	0.0000000E+000	0.0000000E+000	-18.7092	0.0000000E+000	0.0000000E+000	0.0000000E+000	18.7092	2.95281	71.2908	1.65356e-06	3.06074e-06	3.2649e-09	3.05747e-06	0.214856	15114.6	16.1228	15098.5
31621.1	1.32503	0.479233	1.40903	-19.884	2.99056	0.215035	0.00923929	10.5026	1.21493	1	9	0.0049939	0.00354422	0	5.76548e-06	3.85242e-05	6.74357e-06	31.1527	0.0019027	0.00162831	-0.000984305	-19.8238	1.41022	1.32665	0.478249	0.667399	0.241384	0.70971	19.884	1214.93	3359.14	3572.1	-70.116	0.0000000E+000	0.0000000E+000	0.0000000E+000	70.116	0.0000000E+000	0.0000000E+000	0.0000000E+000	-70.116	0.0000000E+000	0.0000000E+000	0.0000000E+000	-19.884	0.0000000E+000	0.0000000E+000	0.0000000E+000	19.884	2.76489	70.116	4.63807e-06	1.98677e-06	3.55936e-10	1.98642e-06	0.214997	23274	4.1696	23269.8
10002.2	1.6774	0.662376	1.80345	-21.5482	4.26355	0.215037	0.0126659	24.0225	3.24056	1	9	0.00519645	0.0028814	0	1.18798e-05	-1.87484e-05	7.07946e-06	27.5181	0.00245695	0.00217899	-0.00113518	-21.4892	1.80506	1.67958	0.661241	0.515739	0.203656	0.554493	21.5482	3240.56	8206.42	8823.07	-68.4518	0.0000000E+000	0.0000000E+000	0.0000000E+000	68.4518	0.0000000E+000	0.0000000E+000	0.0000000E+000	-68.4518	0.0000000E+000	0.0000000E+000	0.0000000E+000	-21.5482	0.0000000E+000	0.0000000E+000	0.0000000E+000	21.5482	2.5324	68.4518	5.63719e-06	2.72364e-06	-2.37465e-10	2.72388e-06	0.215056	16977.6	1.48022	16979.1
3163.08	2.1074	1.02816	2.34484	-26.0067	5.59062	0.215016	0.00257224	48.9385	9.40901	1	9	0.00519521	0.0022156	0	7.07672e-06	1.94333e-05	6.62467e-06	77.5681	0.00299001	0.000643688	-0.0029199	-25.9357	2.34414	2.10805	1.02524	0.383286	0.186997	0.426469	26.0067	9409.01	19285.6	21458.4	-63.9933	0.0000000E+000	0.0000000E+000	0.0000000E+000	63.9933	0.0000000E+000	0.0000000E+000	0.0000000E+000	-63.9933	0.0000000E+000	0.0000000E+000	0.0000000E+000	-26.0067	0.0000000E+000	0.0000000E+000	0.0000000E+000	26.0067	2.04969	63.9933	-3.06189e-06	5.53072e-07	4.99872e-11	5.53022e-07	0.214996	83590.7	7.55501	83583.1
1000.32	2.77566	2.00567	3.42447	-35.8517	7.18884	0.215014	-0.0182682	79.3269	27.2116	1	10	0.00514576	0.00150264	0	5.10251e-06	-3.78392e-05	1.58091e-05	107.988	0.0105208	-0.00324908	-0.0100066	-35.7475	3.41598	2.77241	1.99567	0.236689	0.17103	0.292016	35.8517	27211.6	37658.2	46460.9	-54.1483	0.0000000E+000	0.0000000E+000	0.0000000E+000	54.1483	0.0000000E+000	0.0000000E+000	0.0000000E+000	-54.1483	0.0000000E+000	0.0000000E+000	0.0000000E+000	-35.8517	0.0000000E+000	0.0000000E+000	0.0000000E+000	35.8517	1.3839	54.1483	-1.10716e-06	-3.92793e-06	6.91255e-10	-3.92862e-06	0.215052	11769.9	2.07131	11771.9
316.316	4.55537	4.16466	6.17218	-42.4346	8.53906	0.215016	-0.0190617	120.815	55.005	1	10	0.00485249	0.000786187	0	-2.5793e-06	0.000191251	7.61414e-06	45.093	0.0096849	0.00683713	-0.00685937	-42.3447	6.1726	4.5622	4.1578	0.119577	0.109321	0.162017	42.4346	55005	60165.2	81519.3	-47.5654	0.0000000E+000	0.0000000E+000	0.0000000E+000	47.5654	0.0000000E+000	0.0000000E+000	0.0000000E+000	-47.5654	0.0000000E+000	0.0000000E+000	0.0000000E+000	-42.4346	0.0000000E+000	0.0000000E+000	0.0000000E+000	42.4346	1.09381	47.5654	-2.78095e-06	-4.09857e-06	-3.64557e-09	-4.09493e-06	0.214825	11280	10.0333	11270
100.032	9.40181	6.34489	11.3425	-34.0138	9.88477	0.215018	-0.0197285	250.759	78.4675	1	10	0.00479834	0.000423042	0	-9.19239e-06	0.000363069	4.88013e-06	-28.3066	0.0115358	0.0101564	0.00547016	-34.008	11.3539	9.41197	6.35036	0.0730796	0.0493184	0.0881642	34.0138	78467.5	116273	140273	-55.9862	0.0000000E+000	0.0000000E+000	0.0000000E+000	55.9862	0.0000000E+000	0.0000000E+000	0.0000000E+000	-55.9862	0.0000000E+000	0.0000000E+000	0.0000000E+000	-34.0138	0.0000000E+000	0.0000000E+000	0.0000000E+000	34.0138	1.48179	55.9862	-2.02067e-06	-4.24199e-06	-7.1628e-09	-4.23483e-06	0.214655	10898.9	18.4032	10880.5
31.6296	14.8994	4.88094	15.6785	-18.1384	11.2136	0.215011	-0.0223846	1030.92	99.9124	1	10	0.0047906	0.000305551	0	-1.67748e-05	-9.51117e-05	3.70645e-06	-100.514	0.0121304	-0.00221351	0.0119267	-18.1823	15.6801	14.8972	4.89286	0.060612	0.019856	0.0637815	18.1384	99912.4	304990	320938	-71.8616	0.0000000E+000	0.0000000E+000	0.0000000E+000	71.8616	0.0000000E+000	0.0000000E+000	0.0000000E+000	-71.8616	0.0000000E+000	0.0000000E+000	0.0000000E+000	-18.1384	0.0000000E+000	0.0000000E+000	0.0000000E+000	18.1384	3.05257	71.8616	-2.91228e-06	-4.81293e-06	2.12904e-09	-4.81506e-06	0.215106	9605.3	4.24898	9609.55
10.0032	17.3406	2.7598	17.5588	-9.04293	12.7778	0.215029	-0.0134223	5765.06	142.419	1	11	0.00478145	0.000272311	0	-2.1131e-05	-3.78392e-05	7.44198e-06	-119.003	0.027329	-0.0132505	0.0239019	-9.12679	17.5495	17.3273	2.7837	0.0562435	0.0089513	0.0569514	9.04293	142419	894857	906120	-80.9571	0.0000000E+000	0.0000000E+000	0.0000000E+000	80.9571	0.0000000E+000	0.0000000E+000	0.0000000E+000	-80.9571	0.0000000E+000	0.0000000E+000	0.0000000E+000	-9.04293	0.0000000E+000	0.0000000E+000	0.0000000E+000	9.04293	6.28328	80.9571	-4.00815e-07	-2.88618e-06	5.07888e-10	-2.88669e-06	0.215067	16020.3	2.81914	16023.2
3.1604	18.5379	1.85969	18.6309	-5.72866	14.2954	0.215035	-0.0130285	27079.3	269.805	1	11	0.0047909	0.000257147	0	-2.84232e-05	0.000153069	1.56479e-06	31.5126	0.0060852	0.00518778	-0.00318065	-5.71734	18.6358	18.5431	1.85651	0.0534061	0.00535762	0.0536741	5.72866	269805	2.68949e+06	2.70299e+06	-84.2713	0.0000000E+000	0.0000000E+000	0.0000000E+000	84.2713	0.0000000E+000	0.0000000E+000	0.0000000E+000	-84.2713	0.0000000E+000	0.0000000E+000	0.0000000E+000	-5.72866	0.0000000E+000	0.0000000E+000	0.0000000E+000	5.72866	9.96825	84.2713	-1.56607e-06	-2.8016e-06	-1.99427e-09	-2.7996e-06	0.214882	16505	11.7488	16493.2
1.00006	19.4899	1.83767	19.5764	-5.3864	19.9339	0.215041	-0.0116402	86601.3	763.126	1	12	0.00479041	0.000244704	0	-4.01407e-05	0.000286705	2.46423e-06	8.14677	0.0100703	0.00996863	-0.00142705	-5.37951	19.5862	19.4999	1.83625	0.0508564	0.00479517	0.051082	5.3864	763126	8.09354e+06	8.12943e+06	-84.6136	0.0000000E+000	0.0000000E+000	0.0000000E+000	84.6136	0.0000000E+000	0.0000000E+000	0.0000000E+000	-84.6136	0.0000000E+000	0.0000000E+000	0.0000000E+000	-5.3864	0.0000000E+000	0.0000000E+000	0.0000000E+000	5.3864	10.6058	84.6136	-1.17329e-05	-2.50311e-06	-3.3373e-09	-2.49977e-06	0.214754	18474	24.6307	18449.4
0.316193	20.6279	2.59009	20.7898	-7.15675	34.2777	0.21504	-0.0147376	194336	3016.34	1	12	0.00479322	0.000230556	0	-0.000125765	0.000286705	2.29208e-06	4.8497	0.00994153	0.00990594	-0.000840478	-7.15105	20.7996	20.6378	2.58925	0.0477257	0.00599255	0.0481004	7.15675	3.01634e+06	2.40226e+07	2.42112e+07	-82.8433	0.0000000E+000	0.0000000E+000	0.0000000E+000	82.8433	0.0000000E+000	0.0000000E+000	0.0000000E+000	-82.8433	0.0000000E+000	0.0000000E+000	0.0000000E+000	-7.15675	0.0000000E+000	0.0000000E+000	0.0000000E+000	7.15675	7.96416	82.8433	-3.65058e-05	-3.16917e-06	-4.22534e-09	-3.16494e-06	0.214753	14591.2	19.454	14571.8
0.0999041	22.2999	5.09003	22.8734	-12.8577	79.4858	0.21504	-0.0172666	312980	15498.7	1	12	0.00479502	0.000209633	0	-0.000233289	0.000324887	2.87582e-06	-26.1023	0.0137184	0.0123192	0.00603574	-12.8655	22.8868	22.3122	5.09606	0.0426226	0.00972875	0.0437188	12.8577	1.54987e+07	6.79011e+07	6.96475e+07	-77.1423	0.0000000E+000	0.0000000E+000	0.0000000E+000	77.1423	0.0000000E+000	0.0000000E+000	0.0000000E+000	-77.1423	0.0000000E+000	0.0000000E+000	0.0000000E+000	-12.8577	0.0000000E+000	0.0000000E+000	0.0000000E+000	12.8577	4.3811	77.1423	-3.89491e-05	-3.713e-06	-5.60968e-09	-3.70739e-06	0.214715	12454.1	18.8159	12435.3
0.0315922	26.4763	11.2206	28.7558	-22.9673	222.368	0.215018	-0.0195661	448975	68360.9	1	12	0.00479186	0.00016664	0	-0.00096445	0.000153069	2.02903e-06	-23.4063	0.0121761	0.0111742	0.00483695	-22.9674	28.768	26.4874	11.2255	0.0320189	0.0135696	0.0347756	22.9673	6.83609e+07	1.61304e+08	1.75192e+08	-67.0327	0.0000000E+000	0.0000000E+000	0.0000000E+000	67.0327	0.0000000E+000	0.0000000E+000	0.0000000E+000	-67.0327	0.0000000E+000	0.0000000E+000	0.0000000E+000	-22.9673	0.0000000E+000	0.0000000E+000	0.0000000E+000	22.9673	2.3596	67.0327	-0.000439581	-4.20707e-06	-2.99497e-09	-4.20408e-06	0.214865	10989.3	7.82318	10981.5
0.0100092	35.3062	22.5967	41.9182	-32.6201	673.591	0.215019	-0.0227118	703683	204485	1	12	0.0047932	0.000114347	0	-0.00433423	0.000114888	3.36012e-06	46.6873	0.0293854	0.0201578	-0.0213814	-32.5806	41.9237	35.3263	22.5753	0.020093	0.01286	0.023856	32.6201	2.04485e+08	3.19497e+08	3.79332e+08	-57.3799	0.0000000E+000	0.0000000E+000	0.0000000E+000	57.3799	0.0000000E+000	0.0000000E+000	0.0000000E+000	-57.3799	0.0000000E+000	0.0000000E+000	0.0000000E+000	-32.6201	0.0000000E+000	0.0000000E+000	0.0000000E+000	32.6201	1.56245	57.3799	-0.00146891	-4.88348e-06	-2.60931e-09	-4.88087e-06	0.214904	9467.27	5.05849	9462.22