File: txt/18602_R301_UA696_SOC00_C01.mpt
EC-Lab ASCII FILE
Nb header lines : 65

Potentio Electrochemical Impedance Spectroscopy

Run on channel : 1 (SN 66354)
User :
CE vs. WE compliance from -10 V to 10 V
Electrode connection : standard
Potential control : Ewe
Ewe ctrl range : min = -10.00 V, max = 10.00 V
Safety Limits :
	Do not start on E overload
Acquisition started on : 10/27/2025 16:23:04.679
Technique started on : 10/27/2025 16:23:06.591
Loaded Setting File :  C:\Users\Celltest\OneDrive - store-dot.com\Documents\EC-Lab\Data\@Biologic Test Protocols\anode half cell EIS SOC00.mps
Saved on :
	File : 18602_R301_UA696_SOC00_C01.mpr
	Directory : C:\Users\Celltest\OneDrive - store-dot.com\Documents\EC-Lab\Data\Gyutae\
	Host : 169.254.61.224
Device : VMP-3e (SN .003165)
Address : USB
EC-LAB for windows v11.62 (software)
Internet server v27.00 (firmware)
Command interpretor v12.03 (firmware)
Electrode material :
Initial state :
Electrolyte :
Comments :
Electrode surface area : 0.001 cm²
Characteristic mass : 0.001 g
Equivalent Weight : 0.000 g/eq.
Density : 0.000 g/cm3
Volume (V) : 0.001 cm³
Record Ece
Cycle Definition : Charge/Discharge alternance
Mode                Single sine
E (V)               0.0000
vs.                 Eoc
tE (h:m:s)          0:00:0.0000
record              0
dI                  0.000
unit dI             mA
dt (s)              0.000
fi                  100.000
unit fi             kHz
ff                  10.000
unit ff             mHz
Nd                  6
Points              per decade
spacing             Logarithmic
Va (mV)             5.0
pw                  0.10
Na                  2
corr                0
E range min (V)     -10.000
E range max (V)     10.000
I Range             Auto
Bandwidth           5
nc cycles           0
goto Ns'            0
nr cycles           0
inc. cycle          0

freq/Hz	Re(Z)/Ohm	-Im(Z)/Ohm	|Z|/Ohm	Phase(Z)/deg	time/s	<Ewe>/V	<I>/mA	Cs/µF	Cp/µF	cycle number	I Range	|Ewe|/V	|I|/A	Ns	(Q-Qo)/mA.h	<Ece>/V	|Ece|/V	Phase(Zce)/deg	|Zce|/Ohm	Re(Zce)/Ohm	-Im(Zce)/Ohm	Phase(Zwe-ce)/deg	|Zwe-ce|/Ohm	Re(Zwe-ce)/Ohm	-Im(Zwe-ce)/Ohm	Re(Y)/Ohm-1	Im(Y)/Ohm-1	|Y|/Ohm-1	Phase(Y)/deg	Re(C)/nF	Im(C)/nF	|C|/nF	Phase(C)/deg	Re(M)	Im(M)	|M|	Phase(M)/deg	Re(Permittivity)	Im(Permittivity)	|Permittivity|	Phase(Permittivity)/deg	Re(Resistivity)/Ohm.cm	Im(Resistivity)/Ohm.cm	|Resistivity|/Ohm.cm	Phase(Resistivity)/deg	Re(Conductivity)/mS/cm	Im(Conductivity)/mS/cm	|Conductivity|/mS/cm	Phase(Conductivity)/deg	Tan(Delta)	Loss Angle(Delta)/deg	dq/mA.h	Pwe/W	Pce/W	Pwe-ce/W	<Ewe-Ece>/V	Rwe/Ohm	Rce/Ohm	Rwe-ce/Ohm		Ewe-Ece/V
100004	0.923938	0.332923	0.982089	-19.8156	1.91152	0.211	0.079161	4.78036	0.549346	1	9	0.00483229	0.00492042	0	1.22486e-05	0.000231267	4.26405e-05	99.9398	0.00866602	-0.00149586	-0.00853594	-19.3748	0.977817	0.922442	0.324387	0.957946	0.345177	1.01824	19.8156	549.346	1524.56	1620.51	-70.1844	0.0000000E+000	0.0000000E+000	0.0000000E+000	70.1844	0.0000000E+000	0.0000000E+000	0.0000000E+000	-70.1844	0.0000000E+000	0.0000000E+000	0.0000000E+000	-19.8156	0.0000000E+000	0.0000000E+000	0.0000000E+000	19.8156	2.77523	70.1844	1.22486e-05	1.6703e-05	1.83073e-08	1.66847e-05	0.210769	2665.46	2.92148	2662.54
31621.1	1.19834	0.458821	1.28318	-20.9508	3.30851	0.211015	0.0825883	10.9698	1.40253	1	9	0.00507884	0.00395802	0	5.89185e-05	-9.30469e-05	1.21579e-05	67.2412	0.00307171	0.0011883	-0.00283255	-20.8138	1.28328	1.19953	0.455989	0.727793	0.278657	0.779315	20.9508	1402.53	3663.11	3922.44	-69.0492	0.0000000E+000	0.0000000E+000	0.0000000E+000	69.0492	0.0000000E+000	0.0000000E+000	0.0000000E+000	-69.0492	0.0000000E+000	0.0000000E+000	0.0000000E+000	-20.9508	0.0000000E+000	0.0000000E+000	0.0000000E+000	20.9508	2.61179	69.0492	3.47209e-05	1.74274e-05	-7.68459e-09	1.74351e-05	0.211108	2555.03	1.12664	2556.15
10002.2	1.53559	0.620687	1.65629	-22.0086	4.45953	0.211003	0.0723806	25.636	3.60019	1	9	0.00490683	0.00296255	0	8.11671e-05	5.95716e-05	7.9342e-06	151.018	0.00267817	-0.00234278	-0.00129768	-21.9974	1.65363	1.53325	0.61939	0.559763	0.226257	0.60376	22.0086	3600.19	8906.92	9607	-67.9914	0.0000000E+000	0.0000000E+000	0.0000000E+000	67.9914	0.0000000E+000	0.0000000E+000	0.0000000E+000	-67.9914	0.0000000E+000	0.0000000E+000	0.0000000E+000	-22.0086	0.0000000E+000	0.0000000E+000	0.0000000E+000	22.0086	2.47401	67.9914	6.34168e-06	1.52725e-05	4.31183e-09	1.52682e-05	0.210943	2915.18	0.823032	2914.36
3163.08	1.95054	0.97884	2.18237	-26.6489	5.48363	0.210736	-0.0517881	51.4042	10.3411	1	9	0.00483077	0.00221355	0	8.52367e-05	0.000116803	5.81658e-06	11.6531	0.00262772	0.00257356	-0.000530763	-26.6062	2.18443	1.95311	0.978309	0.409543	0.205521	0.458218	26.6489	10341.1	20606.7	23055.9	-63.3511	0.0000000E+000	0.0000000E+000	0.0000000E+000	63.3511	0.0000000E+000	0.0000000E+000	0.0000000E+000	-63.3511	0.0000000E+000	0.0000000E+000	0.0000000E+000	-26.6489	0.0000000E+000	0.0000000E+000	0.0000000E+000	26.6489	1.9927	63.3511	-5.85686e-06	-1.09136e-05	-6.04903e-09	-1.09076e-05	0.210619	4069.19	2.25541	4066.94
1000.32	2.59753	1.88294	3.20821	-35.9381	6.83684	0.210853	0.071412	84.4978	29.1065	1	9	0.00471421	0.00146942	0	0.000111877	0.000154958	9.49315e-06	24.994	0.00646047	0.00585546	-0.0027297	-35.8374	3.21136	2.60339	1.88021	0.252368	0.18294	0.3117	35.9381	29106.5	40152.8	49592.7	-54.0619	0.0000000E+000	0.0000000E+000	0.0000000E+000	54.0619	0.0000000E+000	0.0000000E+000	0.0000000E+000	-54.0619	0.0000000E+000	0.0000000E+000	0.0000000E+000	-35.9381	0.0000000E+000	0.0000000E+000	0.0000000E+000	35.9381	1.37951	54.0619	1.00682e-05	1.50574e-05	1.10659e-08	1.50464e-05	0.210698	2952.63	2.16992	2950.46
316.316	4.31753	3.79614	5.74907	-41.3232	8.43206	0.210903	-0.0234131	132.543	57.7892	1	10	0.00471016	0.000819291	0	0.000108387	0.000174035	4.82163e-06	-52.5828	0.00588512	0.00357588	0.00467416	-41.3346	5.75484	4.32111	3.80081	0.130629	0.114854	0.173941	41.3232	57789.2	65726.4	87518.9	-48.6768	0.0000000E+000	0.0000000E+000	0.0000000E+000	48.6768	0.0000000E+000	0.0000000E+000	0.0000000E+000	-48.6768	0.0000000E+000	0.0000000E+000	0.0000000E+000	-41.3232	0.0000000E+000	0.0000000E+000	0.0000000E+000	41.3232	1.13735	48.6768	-3.44491e-06	-4.9379e-06	-4.0747e-09	-4.93382e-06	0.210729	9007.93	7.43326	9000.5
100.032	8.71214	5.42361	10.2624	-31.9037	9.77884	0.210911	-0.0232976	293.354	81.9354	1	10	0.0047002	0.000458002	0	9.95872e-05	0.000193113	1.65131e-05	-37.7434	0.0360546	0.0285105	0.02207	-31.9241	10.2983	8.74065	5.44568	0.0827231	0.051498	0.0974431	31.9037	81935.4	131616	155036	-58.0963	0.0000000E+000	0.0000000E+000	0.0000000E+000	58.0963	0.0000000E+000	0.0000000E+000	0.0000000E+000	-58.0963	0.0000000E+000	0.0000000E+000	0.0000000E+000	-31.9037	0.0000000E+000	0.0000000E+000	0.0000000E+000	31.9037	1.60634	58.0963	-2.17296e-06	-4.91371e-06	-4.49905e-09	-4.90921e-06	0.210718	9052.93	8.28897	9044.64
31.6296	13.1489	4.01452	13.7481	-16.9781	11.1075	0.210915	-0.0265325	1253.41	106.876	1	10	0.00468567	0.000340824	0	9.11343e-05	0.000250345	4.41803e-06	54.7503	0.0129628	0.00748136	-0.010586	-16.9268	13.7521	13.1563	4.00393	0.0695674	0.0212398	0.0727376	16.9781	106875	350052	366004	-73.0219	0.0000000E+000	0.0000000E+000	0.0000000E+000	73.0219	0.0000000E+000	0.0000000E+000	0.0000000E+000	-73.0219	0.0000000E+000	0.0000000E+000	0.0000000E+000	-16.9781	0.0000000E+000	0.0000000E+000	0.0000000E+000	16.9781	3.27533	73.0219	-3.24313e-06	-5.5961e-06	-6.64228e-09	-5.58945e-06	0.210664	7949.28	9.43538	7939.84
10.0032	15.1436	2.26643	15.3123	-8.51185	12.6898	0.210945	-0.0105544	7020.03	153.796	1	11	0.00468327	0.000305851	0	8.5056e-05	0.000326654	6.43407e-06	-48.7784	0.0210366	0.0138626	0.0158231	-8.56267	15.3283	15.1575	2.28225	0.0645878	0.00966636	0.0653071	8.51185	153796	1.02762e+06	1.03906e+06	-81.4882	0.0000000E+000	0.0000000E+000	0.0000000E+000	81.4882	0.0000000E+000	0.0000000E+000	0.0000000E+000	-81.4882	0.0000000E+000	0.0000000E+000	0.0000000E+000	-8.51185	0.0000000E+000	0.0000000E+000	0.0000000E+000	8.51185	6.68171	81.4882	-3.78636e-06	-2.22639e-06	-3.44762e-09	-2.22294e-06	0.210618	19986.5	30.9497	19955.6
3.1604	16.1112	1.59606	16.19	-5.65758	14.2065	0.21095	-0.00876576	31552.1	306.643	1	11	0.0046811	0.000289135	0	8.0704e-05	0.000231267	5.76308e-06	-12.6124	0.0199322	0.0194512	0.00435227	-5.66611	16.2098	16.1306	1.60041	0.0614655	0.00608912	0.0617664	5.65758	306643	3.09535e+06	3.1105e+06	-84.3424	0.0000000E+000	0.0000000E+000	0.0000000E+000	84.3424	0.0000000E+000	0.0000000E+000	0.0000000E+000	-84.3424	0.0000000E+000	0.0000000E+000	0.0000000E+000	-5.65758	0.0000000E+000	0.0000000E+000	0.0000000E+000	5.65758	10.0943	84.3424	-5.35226e-06	-1.84914e-06	-2.02723e-09	-1.84711e-06	0.210719	24065.3	26.383	24038.9
1.00006	16.9927	1.63029	17.0707	-5.48022	19.8459	0.21095	-0.0119943	97617.5	890.334	1	12	0.00468854	0.000274654	0	6.99695e-05	-0.000245665	1.67579e-06	-63.3098	0.00610145	0.00274056	0.00545133	-5.49755	17.074	16.9954	1.63574	0.058312	0.00559449	0.0585798	5.48022	890334	9.28006e+06	9.32267e+06	-84.5198	0.0000000E+000	0.0000000E+000	0.0000000E+000	84.5198	0.0000000E+000	0.0000000E+000	0.0000000E+000	-84.5198	0.0000000E+000	0.0000000E+000	0.0000000E+000	-5.48022	0.0000000E+000	0.0000000E+000	0.0000000E+000	5.48022	10.4231	84.5198	-1.45747e-06	-2.53021e-06	2.94659e-09	-2.53315e-06	0.211196	17587.5	20.4818	17608
0.316193	17.9927	2.44008	18.1574	-7.72304	34.1888	0.210947	-0.0111878	206283	3725.32	1	12	0.00468735	0.000258151	0	3.27709e-05	0.000307577	2.27207e-06	-3.18325	0.00880132	0.00878774	0.000488734	-7.72084	18.1662	18.0015	2.44057	0.0545743	0.00740109	0.0550739	7.72304	3.72532e+06	2.74698e+07	2.77213e+07	-82.277	0.0000000E+000	0.0000000E+000	0.0000000E+000	82.277	0.0000000E+000	0.0000000E+000	0.0000000E+000	-82.277	0.0000000E+000	0.0000000E+000	0.0000000E+000	-7.72304	0.0000000E+000	0.0000000E+000	0.0000000E+000	7.72304	7.37382	82.277	-2.95475e-05	-2.36003e-06	-3.4411e-09	-2.35659e-06	0.21064	18855.1	27.4921	18827.6
0.0999041	19.6671	4.79594	20.2434	-13.7044	79.3968	0.21095	-0.0176015	332172	18644.2	1	12	0.00468625	0.000231495	0	-0.000274769	-0.000264743	2.51609e-06	-13.2221	0.0108689	0.0105808	0.00248599	-13.7042	20.2543	19.6777	4.79843	0.0479924	0.0117032	0.0493988	13.7044	1.86442e+07	7.64556e+07	7.86961e+07	-76.2956	0.0000000E+000	0.0000000E+000	0.0000000E+000	76.2956	0.0000000E+000	0.0000000E+000	0.0000000E+000	-76.2956	0.0000000E+000	0.0000000E+000	0.0000000E+000	-13.7044	0.0000000E+000	0.0000000E+000	0.0000000E+000	13.7044	4.10078	76.2956	-0.000139839	-3.71303e-06	4.65986e-09	-3.71769e-06	0.211214	11984.8	15.0409	11999.8
0.0315922	23.5422	10.2485	25.6762	-23.5246	222.28	0.210949	-0.0219143	491565	78313.8	1	12	0.00468798	0.000182581	0	-0.000840252	-5.48923e-05	2.80376e-06	-54.5075	0.0153563	0.0089158	0.0125029	-23.5423	25.6894	23.5511	10.261	0.0357097	0.0155453	0.0389466	23.5246	7.83138e+07	1.79898e+08	1.96205e+08	-66.4754	0.0000000E+000	0.0000000E+000	0.0000000E+000	66.4754	0.0000000E+000	0.0000000E+000	0.0000000E+000	-66.4754	0.0000000E+000	0.0000000E+000	0.0000000E+000	-23.5246	0.0000000E+000	0.0000000E+000	0.0000000E+000	23.5246	2.29714	66.4754	-0.000227332	-4.62279e-06	1.20292e-09	-4.62399e-06	0.211004	9626.11	2.50487	9628.61
0.0100092	31.3366	21.261	37.8683	-34.1558	673.501	0.210949	-0.023009	747892	235751	1	12	0.00468716	0.000123775	0	-0.00366552	5.95716e-05	3.06908e-06	8.26536	0.0247956	0.0245381	-0.00356457	-34.1305	37.8866	31.3611	21.2574	0.0218524	0.0148262	0.0264073	34.1558	2.35751e+08	3.47473e+08	4.199e+08	-55.8442	0.0000000E+000	0.0000000E+000	0.0000000E+000	55.8442	0.0000000E+000	0.0000000E+000	0.0000000E+000	-55.8442	0.0000000E+000	0.0000000E+000	0.0000000E+000	-34.1558	0.0000000E+000	0.0000000E+000	0.0000000E+000	34.1558	1.4739	55.8442	-0.00153801	-4.85373e-06	-1.37068e-09	-4.85235e-06	0.210889	9168.09	2.58905	9165.5