File: txt/18605_R301_UA696_SOC00_C04.mpt
EC-Lab ASCII FILE
Nb header lines : 65

Potentio Electrochemical Impedance Spectroscopy

Run on channel : 4 (SN 66756)
User :
CE vs. WE compliance from -10 V to 10 V
Electrode connection : standard
Potential control : Ewe
Ewe ctrl range : min = -10.00 V, max = 10.00 V
Safety Limits :
	Do not start on E overload
Acquisition started on : 10/27/2025 16:23:30.033
Technique started on : 10/27/2025 16:23:31.902
Loaded Setting File :  C:\Users\Celltest\OneDrive - store-dot.com\Documents\EC-Lab\Data\@Biologic Test Protocols\anode half cell EIS SOC00.mps
Saved on :
	File : 18605_R301_UA696_SOC00_C04.mpr
	Directory : C:\Users\Celltest\OneDrive - store-dot.com\Documents\EC-Lab\Data\Gyutae\
	Host : 169.254.61.224
Device : VMP-3e (SN .003165)
Address : USB
EC-LAB for windows v11.62 (software)
Internet server v27.00 (firmware)
Command interpretor v12.03 (firmware)
Electrode material :
Initial state :
Electrolyte :
Comments :
Electrode surface area : 0.001 cm²
Characteristic mass : 0.001 g
Equivalent Weight : 0.000 g/eq.
Density : 0.000 g/cm3
Volume (V) : 0.001 cm³
Record Ece
Cycle Definition : Charge/Discharge alternance
Mode                Single sine
E (V)               0.0000
vs.                 Eoc
tE (h:m:s)          0:00:0.0000
record              0
dI                  0.000
unit dI             mA
dt (s)              0.000
fi                  100.000
unit fi             kHz
ff                  10.000
unit ff             mHz
Nd                  6
Points              per decade
spacing             Logarithmic
Va (mV)             5.0
pw                  0.10
Na                  2
corr                0
E range min (V)     -10.000
E range max (V)     10.000
I Range             Auto
Bandwidth           5
nc cycles           0
goto Ns'            0
nr cycles           0
inc. cycle          0

freq/Hz	Re(Z)/Ohm	-Im(Z)/Ohm	|Z|/Ohm	Phase(Z)/deg	time/s	<Ewe>/V	<I>/mA	Cs/µF	Cp/µF	cycle number	I Range	|Ewe|/V	|I|/A	Ns	(Q-Qo)/mA.h	<Ece>/V	|Ece|/V	Phase(Zce)/deg	|Zce|/Ohm	Re(Zce)/Ohm	-Im(Zce)/Ohm	Phase(Zwe-ce)/deg	|Zwe-ce|/Ohm	Re(Zwe-ce)/Ohm	-Im(Zwe-ce)/Ohm	Re(Y)/Ohm-1	Im(Y)/Ohm-1	|Y|/Ohm-1	Phase(Y)/deg	Re(C)/nF	Im(C)/nF	|C|/nF	Phase(C)/deg	Re(M)	Im(M)	|M|	Phase(M)/deg	Re(Permittivity)	Im(Permittivity)	|Permittivity|	Phase(Permittivity)/deg	Re(Resistivity)/Ohm.cm	Im(Resistivity)/Ohm.cm	|Resistivity|/Ohm.cm	Phase(Resistivity)/deg	Re(Conductivity)/mS/cm	Im(Conductivity)/mS/cm	|Conductivity|/mS/cm	Phase(Conductivity)/deg	Tan(Delta)	Loss Angle(Delta)/deg	dq/mA.h	Pwe/W	Pce/W	Pwe-ce/W	<Ewe-Ece>/V	Rwe/Ohm	Rce/Ohm	Rwe-ce/Ohm		Ewe-Ece/V
100004	1.03484	0.411566	1.11368	-21.6882	1.86857	0.21299	0.00751153	3.86691	0.528107	1	9	0.00493344	0.00442985	0	1.04723e-05	-0.000455031	2.79266e-05	72.1359	0.00630418	0.00193388	-0.00600023	-21.3644	1.11328	1.03678	0.405566	0.834359	0.331832	0.897924	21.6882	528.107	1327.87	1429.04	-68.3118	0.0000000E+000	0.0000000E+000	0.0000000E+000	68.3118	0.0000000E+000	0.0000000E+000	0.0000000E+000	-68.3118	0.0000000E+000	0.0000000E+000	0.0000000E+000	-21.6882	0.0000000E+000	0.0000000E+000	0.0000000E+000	21.6882	2.5144	68.3118	1.04723e-05	1.59988e-06	-3.41798e-09	1.6033e-06	0.213445	28355.1	60.5776	28415.7
31621.1	1.40279	0.58333	1.51924	-22.5792	3.02152	0.212976	0.0057958	8.62836	1.27204	1	9	0.00542121	0.00356836	0	4.52038e-06	-0.000225711	1.11132e-05	53.5175	0.00311438	0.00185174	-0.00250408	-22.4653	1.51999	1.40464	0.580826	0.607769	0.252731	0.658222	22.5792	1272.04	3059.01	3312.95	-67.4208	0.0000000E+000	0.0000000E+000	0.0000000E+000	67.4208	0.0000000E+000	0.0000000E+000	0.0000000E+000	-67.4208	0.0000000E+000	0.0000000E+000	0.0000000E+000	-22.5792	0.0000000E+000	0.0000000E+000	0.0000000E+000	22.5792	2.4048	67.4208	5.62588e-06	1.23437e-06	-1.30818e-09	1.23567e-06	0.213202	36746.6	38.944	36785.6
10002.2	1.83483	0.787823	1.99682	-23.2373	4.17254	0.212991	-0.00464746	20.1974	3.14395	1	9	0.00533596	0.00267224	0	1.23991e-06	-0.000149271	9.70934e-06	-77.4536	0.00363341	0.000789288	0.00354665	-23.3218	1.99894	1.83562	0.79137	0.460172	0.197584	0.500797	23.2373	3143.95	7322.24	7968.66	-66.7627	0.0000000E+000	0.0000000E+000	0.0000000E+000	66.7627	0.0000000E+000	0.0000000E+000	0.0000000E+000	-66.7627	0.0000000E+000	0.0000000E+000	0.0000000E+000	-23.2373	0.0000000E+000	0.0000000E+000	0.0000000E+000	23.2373	2.32899	66.7627	-3.31705e-06	-9.89866e-07	6.93733e-10	-9.9056e-07	0.21314	45829.4	32.1189	45861.6
3163.08	2.3346	1.20422	2.62688	-27.2854	5.32067	0.212929	-0.0288161	41.7833	8.78084	1	9	0.00519057	0.00197594	0	-9.83068e-06	-0.000225711	7.25708e-06	-60.7968	0.00367272	0.00179195	0.0032059	-27.3296	2.62994	2.33639	1.20743	0.338323	0.174512	0.380679	27.2854	8780.84	17023.2	19154.4	-62.7146	0.0000000E+000	0.0000000E+000	0.0000000E+000	62.7146	0.0000000E+000	0.0000000E+000	0.0000000E+000	-62.7146	0.0000000E+000	0.0000000E+000	0.0000000E+000	-27.2854	0.0000000E+000	0.0000000E+000	0.0000000E+000	27.2854	1.93867	62.7146	-3.93942e-06	-6.1358e-06	6.50412e-09	-6.1423e-06	0.213155	7389.23	7.83281	7397.07
1000.32	3.09344	2.35357	3.88699	-37.2649	6.91977	0.212951	0.00103849	67.6011	24.7846	1	10	0.00504438	0.00129776	0	-1.42568e-05	-5.37216e-05	8.31186e-06	-54.3362	0.00640477	0.00373416	0.00520357	-37.2925	3.89311	3.09717	2.35878	0.204746	0.155776	0.257269	37.2649	24784.6	32575.9	40932.5	-52.7351	0.0000000E+000	0.0000000E+000	0.0000000E+000	52.7351	0.0000000E+000	0.0000000E+000	0.0000000E+000	-52.7351	0.0000000E+000	0.0000000E+000	0.0000000E+000	-37.2649	0.0000000E+000	0.0000000E+000	0.0000000E+000	37.2649	1.31436	52.7351	4.37297e-09	2.21148e-07	-5.57895e-11	2.21204e-07	0.213005	205058	51.7304	205110
316.316	5.0169	5.06238	7.1272	-45.2585	8.26907	0.212956	0.000143228	99.3905	50.1436	1	10	0.00480099	0.000673615	0	-1.47386e-05	-0.000263931	4.26992e-06	-58.816	0.00633881	0.00328217	0.00542291	-45.2704	7.13336	5.02018	5.0678	0.0987638	0.099659	0.140308	45.2585	50143.6	49693.2	70596	-44.7415	0.0000000E+000	0.0000000E+000	0.0000000E+000	44.7415	0.0000000E+000	0.0000000E+000	0.0000000E+000	-44.7415	0.0000000E+000	0.0000000E+000	0.0000000E+000	-45.2585	0.0000000E+000	0.0000000E+000	0.0000000E+000	45.2585	0.991017	44.7415	4.42806e-07	3.05013e-08	-3.78024e-11	3.05391e-08	0.21322	1.48683e+06	1842.73	1.48867e+06
100.032	10.8489	8.49565	13.7795	-38.0641	9.6168	0.212942	-0.00197925	187.277	71.1887	1	10	0.00474503	0.000344354	0	-1.45605e-05	-0.000225711	7.3677e-06	81.1314	0.0213957	0.00329854	-0.0211399	-37.9864	13.7691	10.8522	8.47451	0.0571371	0.0447435	0.0725716	38.0641	71188.7	90907.5	115464	-51.9359	0.0000000E+000	0.0000000E+000	0.0000000E+000	51.9359	0.0000000E+000	0.0000000E+000	0.0000000E+000	-51.9359	0.0000000E+000	0.0000000E+000	0.0000000E+000	-38.0641	0.0000000E+000	0.0000000E+000	0.0000000E+000	38.0641	1.27699	51.9359	-2.04215e-07	-4.21466e-07	4.4674e-10	-4.21912e-07	0.213168	107587	114.039	107701
31.6296	19.0695	7.56905	20.5167	-21.6491	11.1806	0.212961	0.00541314	664.792	90.4802	1	11	0.00474087	0.000231074	0	-1.47304e-05	-0.000206601	1.12911e-05	74.573	0.0488637	0.0129983	-0.0471031	-21.5134	20.5115	19.0825	7.52195	0.0453026	0.0179815	0.0487408	21.6491	90480.2	227956	245256	-68.3509	0.0000000E+000	0.0000000E+000	0.0000000E+000	68.3509	0.0000000E+000	0.0000000E+000	0.0000000E+000	-68.3509	0.0000000E+000	0.0000000E+000	0.0000000E+000	-21.6491	0.0000000E+000	0.0000000E+000	0.0000000E+000	21.6491	2.5194	68.3509	4.15931e-07	1.15279e-06	-1.11836e-09	1.1539e-06	0.213167	39341.4	38.1666	39379.6
10.0032	23.2292	4.45322	23.6522	-10.8524	12.5138	0.21296	0.00453007	3572.78	126.652	1	11	0.00473274	0.000200097	0	-1.16238e-05	-0.000225711	4.37552e-06	-25.8944	0.021867	0.0196716	0.00954962	-10.8661	23.6734	23.2489	4.46277	0.0415231	0.0079603	0.0422793	10.8524	126652	660650	672680	-79.1476	0.0000000E+000	0.0000000E+000	0.0000000E+000	79.1476	0.0000000E+000	0.0000000E+000	0.0000000E+000	-79.1476	0.0000000E+000	0.0000000E+000	0.0000000E+000	-10.8524	0.0000000E+000	0.0000000E+000	0.0000000E+000	10.8524	5.21628	79.1476	2.0671e-06	9.64722e-07	-1.02249e-09	9.65745e-07	0.213185	47010.3	49.8251	47060.1
3.1604	25.239	3.0174	25.4188	-6.81751	14.0315	0.212962	0.00419392	16689.6	235.181	1	11	0.00474207	0.000186558	0	-1.0167e-05	-1.55017e-05	4.86129e-06	-34.3217	0.0260578	0.0215208	0.0146924	-6.84461	25.4419	25.2606	3.03209	0.0390628	0.00467007	0.039341	6.81751	235181	1.96717e+06	1.98118e+06	-83.1825	0.0000000E+000	0.0000000E+000	0.0000000E+000	83.1825	0.0000000E+000	0.0000000E+000	0.0000000E+000	-83.1825	0.0000000E+000	0.0000000E+000	0.0000000E+000	-6.81751	0.0000000E+000	0.0000000E+000	0.0000000E+000	6.81751	8.36451	83.1825	2.67377e-06	8.93146e-07	-6.50129e-11	8.93211e-07	0.212977	50778.7	3.69622	50782.4
1.00006	26.9293	2.78217	27.0726	-5.89853	19.6698	0.21296	0.00338062	57201.6	604.111	1	12	0.00474146	0.000175139	0	-4.2765e-06	-0.0005888	2.53803e-06	-65.3234	0.0144915	0.00605015	0.0131681	-5.92493	27.08	26.9353	2.79534	0.0367422	0.00379598	0.0369377	5.89853	604111	5.84732e+06	5.87845e+06	-84.1015	0.0000000E+000	0.0000000E+000	0.0000000E+000	84.1015	0.0000000E+000	0.0000000E+000	0.0000000E+000	-84.1015	0.0000000E+000	0.0000000E+000	0.0000000E+000	-5.89853	0.0000000E+000	0.0000000E+000	0.0000000E+000	5.89853	9.67922	84.1015	-8.46896e-07	7.19936e-07	-1.99051e-09	7.21927e-07	0.213548	62994.2	174.169	63168.4
0.316193	28.5427	3.28983	28.7316	-6.57491	34.012	0.212965	-0.0025183	153001	2005.96	1	12	0.00474392	0.000165111	0	-1.86297e-05	2.27182e-05	2.86713e-06	-1.66327	0.0173648	0.0173575	0.000504022	-6.57195	28.7489	28.56	3.29034	0.0345759	0.00398523	0.0348049	6.57491	2.00596e+06	1.74037e+07	1.75189e+07	-83.4251	0.0000000E+000	0.0000000E+000	0.0000000E+000	83.4251	0.0000000E+000	0.0000000E+000	0.0000000E+000	-83.4251	0.0000000E+000	0.0000000E+000	0.0000000E+000	-6.57491	0.0000000E+000	0.0000000E+000	0.0000000E+000	6.57491	8.67601	83.4251	-2.93293e-06	-5.36311e-07	-5.72114e-11	-5.36253e-07	0.212942	84566.8	9.02124	84557.8
0.0999041	30.6305	5.78787	31.1725	-10.7003	79.2199	0.212959	-0.00842582	275244	9488.83	1	12	0.00473833	0.000152003	0	-1.81132e-05	-0.000149271	2.77763e-06	10.6046	0.0182735	0.0179614	-0.00336287	-10.6881	31.1895	30.6484	5.78451	0.0315218	0.00595629	0.0320796	10.7003	9.48883e+06	5.02166e+07	5.11052e+07	-79.2997	0.0000000E+000	0.0000000E+000	0.0000000E+000	79.2997	0.0000000E+000	0.0000000E+000	0.0000000E+000	-79.2997	0.0000000E+000	0.0000000E+000	0.0000000E+000	-10.7003	0.0000000E+000	0.0000000E+000	0.0000000E+000	10.7003	5.29218	79.2997	-8.55143e-06	-1.79435e-06	1.25773e-09	-1.79561e-06	0.213108	25274.5	17.716	25292.2
0.0315922	35.0466	12.7405	37.2905	-19.9777	222.103	0.21296	-0.0144554	395417	46155.9	1	12	0.00474046	0.000127122	0	-0.000613824	-0.000149271	3.61177e-06	-27.7749	0.0284118	0.0251383	0.0132399	-19.9836	37.3187	35.0718	12.7537	0.0252028	0.00916194	0.0268165	19.9777	4.6156e+07	1.26966e+08	1.35096e+08	-70.0223	0.0000000E+000	0.0000000E+000	0.0000000E+000	70.0223	0.0000000E+000	0.0000000E+000	0.0000000E+000	-70.0223	0.0000000E+000	0.0000000E+000	0.0000000E+000	-19.9777	0.0000000E+000	0.0000000E+000	0.0000000E+000	19.9777	2.75081	70.0223	-0.000360947	-3.07842e-06	2.15777e-09	-3.08058e-06	0.213109	14732.2	10.3264	14742.6
0.0100092	45.3981	25.8247	52.2293	-29.6333	673.325	0.212959	-0.0191365	615726	150532	1	12	0.00474095	9.07719e-05	0	-0.00314594	4.18282e-05	2.60089e-06	-27.5982	0.028653	0.0253928	0.013274	-29.6322	52.258	45.4235	25.8379	0.0166421	0.00946685	0.0191463	29.6333	1.50532e+08	2.64625e+08	3.04444e+08	-60.3667	0.0000000E+000	0.0000000E+000	0.0000000E+000	60.3667	0.0000000E+000	0.0000000E+000	0.0000000E+000	-60.3667	0.0000000E+000	0.0000000E+000	0.0000000E+000	-29.6333	0.0000000E+000	0.0000000E+000	0.0000000E+000	29.6333	1.75794	60.3667	-0.0010945	-4.0753e-06	-8.00446e-10	-4.0745e-06	0.212918	11128.4	2.18578	11126.2