File: txt/18607_R301_UA697_SOC00_C05.mpt
EC-Lab ASCII FILE
Nb header lines : 65

Potentio Electrochemical Impedance Spectroscopy

Run on channel : 5 (SN 65912)
User :
CE vs. WE compliance from -10 V to 10 V
Electrode connection : standard
Potential control : Ewe
Ewe ctrl range : min = -10.00 V, max = 10.00 V
Safety Limits :
	Do not start on E overload
Acquisition started on : 10/27/2025 16:24:30.053
Technique started on : 10/27/2025 16:24:31.833
Loaded Setting File :  C:\Users\Celltest\OneDrive - store-dot.com\Documents\EC-Lab\Data\@Biologic Test Protocols\anode half cell EIS SOC00.mps
Saved on :
	File : 18607_R301_UA697_SOC00_C05.mpr
	Directory : C:\Users\Celltest\OneDrive - store-dot.com\Documents\EC-Lab\Data\Gyutae\
	Host : 169.254.61.224
Device : VMP-3e (SN .003165)
Address : USB
EC-LAB for windows v11.62 (software)
Internet server v27.00 (firmware)
Command interpretor v12.03 (firmware)
Electrode material :
Initial state :
Electrolyte :
Comments :
Electrode surface area : 0.001 cm²
Characteristic mass : 0.001 g
Equivalent Weight : 0.000 g/eq.
Density : 0.000 g/cm3
Volume (V) : 0.001 cm³
Record Ece
Cycle Definition : Charge/Discharge alternance
Mode                Single sine
E (V)               0.0000
vs.                 Eoc
tE (h:m:s)          0:00:0.0000
record              0
dI                  0.000
unit dI             mA
dt (s)              0.000
fi                  100.000
unit fi             kHz
ff                  10.000
unit ff             mHz
Nd                  6
Points              per decade
spacing             Logarithmic
Va (mV)             5.0
pw                  0.10
Na                  2
corr                0
E range min (V)     -10.000
E range max (V)     10.000
I Range             Auto
Bandwidth           5
nc cycles           0
goto Ns'            0
nr cycles           0
inc. cycle          0

freq/Hz	Re(Z)/Ohm	-Im(Z)/Ohm	|Z|/Ohm	Phase(Z)/deg	time/s	<Ewe>/V	<I>/mA	Cs/µF	Cp/µF	cycle number	I Range	|Ewe|/V	|I|/A	Ns	(Q-Qo)/mA.h	<Ece>/V	|Ece|/V	Phase(Zce)/deg	|Zce|/Ohm	Re(Zce)/Ohm	-Im(Zce)/Ohm	Phase(Zwe-ce)/deg	|Zwe-ce|/Ohm	Re(Zwe-ce)/Ohm	-Im(Zwe-ce)/Ohm	Re(Y)/Ohm-1	Im(Y)/Ohm-1	|Y|/Ohm-1	Phase(Y)/deg	Re(C)/nF	Im(C)/nF	|C|/nF	Phase(C)/deg	Re(M)	Im(M)	|M|	Phase(M)/deg	Re(Permittivity)	Im(Permittivity)	|Permittivity|	Phase(Permittivity)/deg	Re(Resistivity)/Ohm.cm	Im(Resistivity)/Ohm.cm	|Resistivity|/Ohm.cm	Phase(Resistivity)/deg	Re(Conductivity)/mS/cm	Im(Conductivity)/mS/cm	|Conductivity|/mS/cm	Phase(Conductivity)/deg	Tan(Delta)	Loss Angle(Delta)/deg	dq/mA.h	Pwe/W	Pce/W	Pwe-ce/W	<Ewe-Ece>/V	Rwe/Ohm	Rce/Ohm	Rwe-ce/Ohm		Ewe-Ece/V
100004	0.919278	0.282558	0.961723	-17.0858	1.77957	0.212002	0.00418666	5.63244	0.486196	1	9	0.00564831	0.00587311	0	1.40029e-06	-4.14579e-05	3.42319e-05	58.4905	0.00582857	0.00304624	-0.00496917	-16.75	0.963192	0.922325	0.277589	0.993909	0.305497	1.0398	17.0858	486.196	1581.8	1654.83	-72.9142	0.0000000E+000	0.0000000E+000	0.0000000E+000	72.9142	0.0000000E+000	0.0000000E+000	0.0000000E+000	-72.9142	0.0000000E+000	0.0000000E+000	0.0000000E+000	-17.0858	0.0000000E+000	0.0000000E+000	0.0000000E+000	17.0858	3.25341	72.9142	1.40029e-06	8.87579e-07	-1.7357e-10	8.87753e-07	0.212043	50637.4	9.90237	50647.3
31621.1	1.15559	0.395118	1.22127	-18.8766	3.17655	0.211886	-0.0124596	12.7384	1.33335	1	9	0.00550016	0.00450364	0	-1.40806e-05	-6.05491e-05	5.48979e-06	37.0939	0.00121897	0.000972308	-0.000735188	-18.8292	1.22195	1.15656	0.394383	0.774781	0.264913	0.818819	18.8766	1333.35	3899.61	4121.26	-71.1235	0.0000000E+000	0.0000000E+000	0.0000000E+000	71.1235	0.0000000E+000	0.0000000E+000	0.0000000E+000	-71.1235	0.0000000E+000	0.0000000E+000	0.0000000E+000	-18.8766	0.0000000E+000	0.0000000E+000	0.0000000E+000	18.8766	2.92467	71.1235	2.70132e-06	-2.64001e-06	7.54416e-10	-2.64077e-06	0.211947	17005.9	4.85964	17010.7
10002.2	1.45665	0.551962	1.55772	-20.753	4.44952	0.211863	-0.0125713	28.828	3.61955	1	9	0.00545743	0.00350348	0	4.49284e-06	0.000302184	6.92026e-06	-112.459	0.00197526	-0.000754597	0.00182544	-20.8256	1.55766	1.45589	0.553788	0.600311	0.227474	0.641964	20.753	3619.55	9552.13	10214.9	-69.247	0.0000000E+000	0.0000000E+000	0.0000000E+000	69.247	0.0000000E+000	0.0000000E+000	0.0000000E+000	-69.247	0.0000000E+000	0.0000000E+000	0.0000000E+000	-20.753	0.0000000E+000	0.0000000E+000	0.0000000E+000	20.753	2.63904	69.247	3.49244e-06	-2.6634e-06	-3.79885e-09	-2.6596e-06	0.211561	16852.9	24.0376	16828.9
3163.08	1.88356	0.821374	2.05486	-23.5609	5.77662	0.211837	-0.0357717	61.2589	9.78786	1	9	0.0052475	0.0025537	0	3.67493e-06	0.000187637	8.68626e-06	6.30519	0.00340144	0.00338086	-0.000373561	-23.5137	2.05781	1.88694	0.821001	0.446083	0.194526	0.486652	23.5609	9787.86	22445.3	24486.6	-66.4391	0.0000000E+000	0.0000000E+000	0.0000000E+000	66.4391	0.0000000E+000	0.0000000E+000	0.0000000E+000	-66.4391	0.0000000E+000	0.0000000E+000	0.0000000E+000	-23.5609	0.0000000E+000	0.0000000E+000	0.0000000E+000	23.5609	2.29318	66.4391	-9.85523e-06	-7.57778e-06	-6.71209e-09	-7.57107e-06	0.211649	5921.91	5.24539	5916.67
1000.32	2.48545	1.33192	2.81984	-28.1863	7.34578	0.211864	-0.0163326	119.455	26.6509	1	9	0.00535438	0.00189883	0	-7.20769e-09	-3.27544e-06	8.63446e-06	-24.7103	0.00454726	0.00413088	0.00190089	-28.1807	2.82438	2.48958	1.33382	0.312577	0.167506	0.35463	28.1863	26650.9	49732.3	56423.1	-61.8137	0.0000000E+000	0.0000000E+000	0.0000000E+000	61.8137	0.0000000E+000	0.0000000E+000	0.0000000E+000	-61.8137	0.0000000E+000	0.0000000E+000	0.0000000E+000	-28.1863	0.0000000E+000	0.0000000E+000	0.0000000E+000	28.1863	1.86607	61.8137	-2.99738e-07	-3.46028e-06	5.34964e-11	-3.46033e-06	0.211867	12971.8	0.200546	12972
316.316	3.65476	2.37773	4.36015	-33.0475	8.94104	0.211866	-0.0128702	211.61	62.9303	1	10	0.00505605	0.00115961	0	-5.92877e-06	9.21806e-05	6.67146e-06	29.9559	0.00575321	0.00498464	-0.00287277	-32.9801	4.36276	3.65974	2.37486	0.192246	0.125072	0.22935	33.0475	62930.3	96728.7	115398	-56.9525	0.0000000E+000	0.0000000E+000	0.0000000E+000	56.9525	0.0000000E+000	0.0000000E+000	0.0000000E+000	-56.9525	0.0000000E+000	0.0000000E+000	0.0000000E+000	-33.0475	0.0000000E+000	0.0000000E+000	0.0000000E+000	33.0475	1.53708	56.9525	-2.19342e-06	-2.72676e-06	-1.18639e-09	-2.72558e-06	0.211774	16461.7	7.16232	16454.6
100.032	6.31887	3.09832	7.03759	-26.12	10.2888	0.211865	-0.0142107	513.517	99.5312	1	10	0.00490427	0.000696868	0	-1.01504e-05	0.000187637	6.04769e-06	-113.894	0.00867839	-0.00351521	0.00793459	-26.1906	7.03794	6.31536	3.10626	0.127583	0.0625573	0.142094	26.12	99531.2	202989	226077	-63.88	0.0000000E+000	0.0000000E+000	0.0000000E+000	63.88	0.0000000E+000	0.0000000E+000	0.0000000E+000	-63.88	0.0000000E+000	0.0000000E+000	0.0000000E+000	-26.12	0.0000000E+000	0.0000000E+000	0.0000000E+000	26.12	2.03945	63.88	-2.62352e-06	-3.01075e-06	-2.66645e-09	-3.00809e-06	0.211678	14908.9	13.2039	14895.7
31.6296	8.6768	2.13165	8.93481	-13.8027	11.6176	0.211871	-0.0157149	2360.53	134.361	1	10	0.00487491	0.000545609	0	-1.60484e-05	7.30894e-05	9.29737e-06	-56.6379	0.0170404	0.00937099	0.0142323	-13.8769	8.94731	8.68617	2.14589	0.10869	0.0267021	0.111922	13.8027	134361	546910	563173	-76.1973	0.0000000E+000	0.0000000E+000	0.0000000E+000	76.1973	0.0000000E+000	0.0000000E+000	0.0000000E+000	-76.1973	0.0000000E+000	0.0000000E+000	0.0000000E+000	-13.8027	0.0000000E+000	0.0000000E+000	0.0000000E+000	13.8027	4.07045	76.1973	-1.99286e-06	-3.32954e-06	-1.1486e-09	-3.32839e-06	0.211798	13482.1	4.65095	13477.5
10.0032	9.68127	1.21948	9.75778	-7.17934	12.9508	0.211879	-0.0137713	13046.8	203.777	1	10	0.00487526	0.000499629	0	-2.35127e-05	-0.000117823	7.85321e-06	-140.316	0.0157181	-0.0120964	0.0100367	-7.24676	9.74704	9.66918	1.22952	0.101679	0.0128078	0.102482	7.17934	203777	1.61775e+06	1.63054e+06	-82.8207	0.0000000E+000	0.0000000E+000	0.0000000E+000	82.8207	0.0000000E+000	0.0000000E+000	0.0000000E+000	-82.8207	0.0000000E+000	0.0000000E+000	0.0000000E+000	-7.17934	0.0000000E+000	0.0000000E+000	0.0000000E+000	7.17934	7.93884	82.8207	-1.33294e-06	-2.91785e-06	1.62257e-09	-2.91947e-06	0.211996	15385.5	8.55566	15394
3.1604	10.2362	0.880749	10.274	-4.91776	14.7284	0.21187	-0.013618	57177.7	420.193	1	11	0.00486933	0.000473946	0	-3.35425e-05	9.21806e-05	4.39091e-06	61.0656	0.00926458	0.00448227	-0.00810813	-4.87058	10.2778	10.2407	0.872641	0.0969745	0.00834393	0.0973328	4.91776	420193	4.88355e+06	4.9016e+06	-85.0822	0.0000000E+000	0.0000000E+000	0.0000000E+000	85.0822	0.0000000E+000	0.0000000E+000	0.0000000E+000	-85.0822	0.0000000E+000	0.0000000E+000	0.0000000E+000	-4.91776	0.0000000E+000	0.0000000E+000	0.0000000E+000	4.91776	11.6222	85.0822	-7.80569e-06	-2.88525e-06	-1.25532e-09	-2.884e-06	0.211778	15558.1	6.76903	15551.4
1.00006	10.7256	0.88414	10.762	-4.71238	19.3216	0.211865	-0.0185455	179999	1214.86	1	11	0.00487737	0.000453203	0	-5.23928e-05	0.000225819	2.40587e-06	-11.832	0.0053086	0.00519581	0.00108849	-4.71588	10.7673	10.7308	0.885229	0.0926054	0.0076337	0.0929195	4.71238	1.21486e+06	1.47377e+07	1.47877e+07	-85.2876	0.0000000E+000	0.0000000E+000	0.0000000E+000	85.2876	0.0000000E+000	0.0000000E+000	0.0000000E+000	-85.2876	0.0000000E+000	0.0000000E+000	0.0000000E+000	-4.71238	0.0000000E+000	0.0000000E+000	0.0000000E+000	4.71238	12.1311	85.2876	-1.14651e-07	-3.92915e-06	-4.18793e-09	-3.92496e-06	0.21164	11424.1	12.1765	11411.9
0.316193	11.2504	1.32451	11.3281	-6.71452	33.6621	0.211862	-0.0161293	380026	5195.27	1	11	0.00487718	0.000430538	0	-7.59585e-05	0.000302184	2.50636e-06	9.51267	0.00582145	0.0057414	-0.000962087	-6.70629	11.3337	11.2562	1.32355	0.0876705	0.0103214	0.088276	6.71452	5.19527e+06	4.41287e+07	4.44335e+07	-83.2855	0.0000000E+000	0.0000000E+000	0.0000000E+000	83.2855	0.0000000E+000	0.0000000E+000	0.0000000E+000	-83.2855	0.0000000E+000	0.0000000E+000	0.0000000E+000	-6.71452	0.0000000E+000	0.0000000E+000	0.0000000E+000	6.71452	8.49402	83.2855	-2.58853e-05	-3.41719e-06	-4.87403e-09	-3.41232e-06	0.21156	13135.2	18.7351	13116.5
0.0999041	12.1174	2.72991	12.4211	-12.6961	78.8712	0.211866	-0.0244682	583564	28188	1	11	0.0048779	0.000392711	0	-0.000547921	0.00024491	2.19365e-06	11.6458	0.00558591	0.00547092	-0.00112758	-12.6855	12.4262	12.1229	2.72878	0.0785396	0.0176941	0.0805081	12.6961	2.8188e+07	1.2512e+08	1.28256e+08	-77.3039	0.0000000E+000	0.0000000E+000	0.0000000E+000	77.3039	0.0000000E+000	0.0000000E+000	0.0000000E+000	-77.3039	0.0000000E+000	0.0000000E+000	0.0000000E+000	-12.6961	0.0000000E+000	0.0000000E+000	0.0000000E+000	12.6961	4.43875	77.3039	-0.000242048	-5.18398e-06	-5.99251e-09	-5.17799e-06	0.211621	8658.83	10.0093	8648.82
0.0315922	14.1683	6.27817	15.497	-23.8988	221.755	0.211863	-0.0323834	802430	131698	1	11	0.00487529	0.000314596	0	-0.00153562	-0.000156005	1.51517e-06	-30.3306	0.00481624	0.00415702	0.00243215	-23.9008	15.5018	14.1725	6.2806	0.0589962	0.026142	0.0645287	23.8988	1.31698e+08	2.9721e+08	3.25082e+08	-66.1012	0.0000000E+000	0.0000000E+000	0.0000000E+000	66.1012	0.0000000E+000	0.0000000E+000	0.0000000E+000	-66.1012	0.0000000E+000	0.0000000E+000	0.0000000E+000	-23.8988	0.0000000E+000	0.0000000E+000	0.0000000E+000	23.8988	2.25676	66.1012	-0.00034479	-6.86085e-06	5.05198e-09	-6.8659e-06	0.212019	6542.32	4.81744	6547.14
0.0146812	17.2891	10.6324	20.2969	-31.5905	509.402	0.211863	-0.0339646	1.0196e+06	279790	1	12	0.00487478	0.000240174	0	-0.00352283	0.000149454	3.18327e-06	10.0015	0.013254	0.0130526	-0.00230187	-31.5657	20.3068	17.3022	10.6301	0.0419678	0.0258091	0.0492687	31.5905	2.7979e+08	4.54962e+08	5.3411e+08	-58.4095	0.0000000E+000	0.0000000E+000	0.0000000E+000	58.4095	0.0000000E+000	0.0000000E+000	0.0000000E+000	-58.4095	0.0000000E+000	0.0000000E+000	0.0000000E+000	-31.5905	0.0000000E+000	0.0000000E+000	0.0000000E+000	31.5905	1.62608	58.4095	-0.00104395	-7.19584e-06	-5.07616e-09	-7.19076e-06	0.211713	6237.74	4.40029	6233.34