File: txt/18609_R301_UA697_SOC00_C07.mpt
EC-Lab ASCII FILE
Nb header lines : 65

Potentio Electrochemical Impedance Spectroscopy

Run on channel : 7 (SN 66126)
User :
CE vs. WE compliance from -10 V to 10 V
Electrode connection : standard
Potential control : Ewe
Ewe ctrl range : min = -10.00 V, max = 10.00 V
Safety Limits :
	Do not start on E overload
Acquisition started on : 10/27/2025 16:24:44.317
Technique started on : 10/27/2025 16:24:46.185
Loaded Setting File :  C:\Users\Celltest\OneDrive - store-dot.com\Documents\EC-Lab\Data\@Biologic Test Protocols\anode half cell EIS SOC00.mps
Saved on :
	File : 18609_R301_UA697_SOC00_C07.mpr
	Directory : C:\Users\Celltest\OneDrive - store-dot.com\Documents\EC-Lab\Data\Gyutae\
	Host : 169.254.61.224
Device : VMP-3e (SN .003165)
Address : USB
EC-LAB for windows v11.62 (software)
Internet server v27.00 (firmware)
Command interpretor v12.03 (firmware)
Electrode material :
Initial state :
Electrolyte :
Comments :
Electrode surface area : 0.001 cm²
Characteristic mass : 0.001 g
Equivalent Weight : 0.000 g/eq.
Density : 0.000 g/cm3
Volume (V) : 0.001 cm³
Record Ece
Cycle Definition : Charge/Discharge alternance
Mode                Single sine
E (V)               0.0000
vs.                 Eoc
tE (h:m:s)          0:00:0.0000
record              0
dI                  0.000
unit dI             mA
dt (s)              0.000
fi                  100.000
unit fi             kHz
ff                  10.000
unit ff             mHz
Nd                  6
Points              per decade
spacing             Logarithmic
Va (mV)             5.0
pw                  0.10
Na                  2
corr                0
E range min (V)     -10.000
E range max (V)     10.000
I Range             Auto
Bandwidth           5
nc cycles           0
goto Ns'            0
nr cycles           0
inc. cycle          0

freq/Hz	Re(Z)/Ohm	-Im(Z)/Ohm	|Z|/Ohm	Phase(Z)/deg	time/s	<Ewe>/V	<I>/mA	Cs/µF	Cp/µF	cycle number	I Range	|Ewe|/V	|I|/A	Ns	(Q-Qo)/mA.h	<Ece>/V	|Ece|/V	Phase(Zce)/deg	|Zce|/Ohm	Re(Zce)/Ohm	-Im(Zce)/Ohm	Phase(Zwe-ce)/deg	|Zwe-ce|/Ohm	Re(Zwe-ce)/Ohm	-Im(Zwe-ce)/Ohm	Re(Y)/Ohm-1	Im(Y)/Ohm-1	|Y|/Ohm-1	Phase(Y)/deg	Re(C)/nF	Im(C)/nF	|C|/nF	Phase(C)/deg	Re(M)	Im(M)	|M|	Phase(M)/deg	Re(Permittivity)	Im(Permittivity)	|Permittivity|	Phase(Permittivity)/deg	Re(Resistivity)/Ohm.cm	Im(Resistivity)/Ohm.cm	|Resistivity|/Ohm.cm	Phase(Resistivity)/deg	Re(Conductivity)/mS/cm	Im(Conductivity)/mS/cm	|Conductivity|/mS/cm	Phase(Conductivity)/deg	Tan(Delta)	Loss Angle(Delta)/deg	dq/mA.h	Pwe/W	Pce/W	Pwe-ce/W	<Ewe-Ece>/V	Rwe/Ohm	Rce/Ohm	Rwe-ce/Ohm		Ewe-Ece/V
100004	0.996651	0.333394	1.05094	-18.4958	1.86756	0.220131	0.0551168	4.7736	0.480408	1	9	0.00497847	0.00473718	0	-7.45564e-06	-0.000173993	4.85164e-05	79.0969	0.0102416	0.00193719	-0.0100567	-17.9417	1.04963	0.998588	0.323338	0.902383	0.30186	0.951533	18.4958	480.408	1436.13	1514.36	-71.5042	0.0000000E+000	0.0000000E+000	0.0000000E+000	71.5042	0.0000000E+000	0.0000000E+000	0.0000000E+000	-71.5042	0.0000000E+000	0.0000000E+000	0.0000000E+000	-18.4958	0.0000000E+000	0.0000000E+000	0.0000000E+000	18.4958	2.98941	71.5042	-7.45564e-06	1.21329e-05	-9.58993e-09	1.21425e-05	0.220305	3993.91	3.1568	3997.06
31621.1	1.29665	0.482242	1.38343	-20.4008	3.14053	0.22016	0.0503133	10.437	1.26822	1	9	0.00544156	0.00393339	0	3.21542e-05	0.000112138	1.82545e-05	55.5113	0.0046409	0.00262788	-0.0038252	-20.2145	1.38456	1.29928	0.478417	0.677504	0.251972	0.722843	20.4008	1268.22	3410	3638.2	-69.5992	0.0000000E+000	0.0000000E+000	0.0000000E+000	69.5992	0.0000000E+000	0.0000000E+000	0.0000000E+000	-69.5992	0.0000000E+000	0.0000000E+000	0.0000000E+000	-20.4008	0.0000000E+000	0.0000000E+000	0.0000000E+000	20.4008	2.6888	69.5992	1.50261e-05	1.1077e-05	5.64205e-09	1.10713e-05	0.220048	4375.78	2.2288	4373.55
10002.2	1.65904	0.663686	1.78687	-21.8035	4.28853	0.220169	0.0554518	23.9751	3.30751	1	9	0.00527919	0.00295444	0	5.91562e-05	-0.000460124	7.38738e-06	17.5488	0.00250043	0.00238406	-0.000753924	-21.7527	1.7888	1.66142	0.662932	0.519604	0.207863	0.559639	21.8035	3307.51	8267.91	8904.95	-68.1965	0.0000000E+000	0.0000000E+000	0.0000000E+000	68.1965	0.0000000E+000	0.0000000E+000	0.0000000E+000	-68.1965	0.0000000E+000	0.0000000E+000	0.0000000E+000	-21.8035	0.0000000E+000	0.0000000E+000	0.0000000E+000	21.8035	2.49974	68.1965	1.92053e-06	1.22088e-05	-2.55147e-08	1.22343e-05	0.220629	3970.46	8.29773	3978.76
3163.08	2.16801	0.980056	2.37924	-24.3255	5.43865	0.220118	0.0249927	51.3404	8.71133	1	9	0.00522575	0.0021964	0	6.35993e-05	-0.000288445	5.13106e-06	-50.0531	0.00233613	0.00149997	0.00179097	-24.3499	2.38134	2.16951	0.981847	0.382988	0.173131	0.420302	24.3255	8711.33	19270.6	21148.1	-65.6745	0.0000000E+000	0.0000000E+000	0.0000000E+000	65.6745	0.0000000E+000	0.0000000E+000	0.0000000E+000	-65.6745	0.0000000E+000	0.0000000E+000	0.0000000E+000	-24.3255	0.0000000E+000	0.0000000E+000	0.0000000E+000	24.3255	2.21213	65.6745	4.22484e-06	5.50135e-06	-7.20903e-09	5.50856e-06	0.220407	8807.29	11.5412	8818.83
1000.32	2.88058	1.55022	3.27122	-28.2875	7.03685	0.22014	-0.0217736	102.633	23.0491	1	10	0.00510621	0.00156095	0	7.05749e-05	-0.000364747	8.14314e-06	-94.497	0.00521679	-0.000409034	0.00520073	-28.371	3.27333	2.88017	1.55542	0.26919	0.144868	0.305696	28.2875	23049.1	42829.3	48637.5	-61.7125	0.0000000E+000	0.0000000E+000	0.0000000E+000	61.7125	0.0000000E+000	0.0000000E+000	0.0000000E+000	-61.7125	0.0000000E+000	0.0000000E+000	0.0000000E+000	-28.2875	0.0000000E+000	0.0000000E+000	0.0000000E+000	28.2875	1.85817	61.7125	3.51783e-07	-4.79326e-06	7.94187e-09	-4.8012e-06	0.220505	10110.4	16.7518	10127.2
316.316	4.16395	2.78296	5.00833	-33.7567	8.38604	0.220124	-0.0228346	180.797	55.824	1	10	0.00490552	0.000979472	0	6.3155e-05	-0.000326596	1.28865e-05	-51.5338	0.0131566	0.00818411	0.0103013	-33.8025	5.02086	4.17213	2.79327	0.166004	0.110949	0.199667	33.7567	55824	83525.5	100463	-56.2433	0.0000000E+000	0.0000000E+000	0.0000000E+000	56.2433	0.0000000E+000	0.0000000E+000	0.0000000E+000	-56.2433	0.0000000E+000	0.0000000E+000	0.0000000E+000	-33.7567	0.0000000E+000	0.0000000E+000	0.0000000E+000	33.7567	1.49623	56.2433	-2.6855e-06	-5.02646e-06	7.45771e-09	-5.03391e-06	0.220451	9639.92	14.3027	9654.22
100.032	7.28854	4.12569	8.37521	-29.5121	9.73281	0.22012	-0.0216992	385.642	93.5807	1	10	0.00485976	0.000580255	0	5.40095e-05	-0.000383823	1.00048e-05	3.09514	0.0172421	0.017217	-0.000930975	-29.4487	8.38974	7.30575	4.12476	0.103908	0.0588173	0.1194	29.5121	93580.8	165322	189970	-60.4879	0.0000000E+000	0.0000000E+000	0.0000000E+000	60.4879	0.0000000E+000	0.0000000E+000	0.0000000E+000	-60.4879	0.0000000E+000	0.0000000E+000	0.0000000E+000	-29.5121	0.0000000E+000	0.0000000E+000	0.0000000E+000	29.5121	1.76662	60.4879	-2.20744e-06	-4.77644e-06	8.32865e-09	-4.78476e-06	0.220504	10144.2	17.6883	10161.8
31.6296	10.8391	3.24095	11.3132	-16.647	11.0616	0.220128	-0.0242716	1552.58	127.417	1	10	0.00484995	0.000428698	0	4.68533e-05	-0.000116767	4.27724e-06	33.6363	0.00997729	0.00830679	-0.00552662	-16.6082	11.3196	10.8474	3.23543	0.0846875	0.0253221	0.0883922	16.647	127417	426134	444776	-73.353	0.0000000E+000	0.0000000E+000	0.0000000E+000	73.353	0.0000000E+000	0.0000000E+000	0.0000000E+000	-73.353	0.0000000E+000	0.0000000E+000	0.0000000E+000	-16.647	0.0000000E+000	0.0000000E+000	0.0000000E+000	16.647	3.3444	73.353	-1.9021e-06	-5.34286e-06	2.83412e-09	-5.34569e-06	0.220244	9069.33	4.81082	9074.15
10.0032	12.5046	1.90048	12.6482	-8.64184	12.6378	0.220136	-0.0193852	8371.76	189.012	1	11	0.00483651	0.000382388	0	3.86692e-05	1.67614e-05	1.16127e-05	-28.852	0.030369	0.0265993	0.0146545	-8.68926	12.6767	12.5312	1.91514	0.0781651	0.0118798	0.0790627	8.64184	189012	1.24364e+06	1.25792e+06	-81.3582	0.0000000E+000	0.0000000E+000	0.0000000E+000	81.3582	0.0000000E+000	0.0000000E+000	0.0000000E+000	-81.3582	0.0000000E+000	0.0000000E+000	0.0000000E+000	-8.64184	0.0000000E+000	0.0000000E+000	0.0000000E+000	8.64184	6.57969	81.3582	-4.89849e-06	-4.26739e-06	-3.24923e-10	-4.26707e-06	0.22012	11355.9	0.864647	11355
3.1604	13.3447	1.30976	13.4088	-5.60554	14.1545	0.220147	-0.0186204	38449.2	366.852	1	11	0.00484383	0.000361243	0	3.23266e-05	-0.000212144	5.33107e-06	-32.8723	0.0147576	0.0123946	0.00800996	-5.6344	13.4219	13.3571	1.31777	0.0742213	0.0072847	0.0745779	5.60554	366852	3.73772e+06	3.75568e+06	-84.3945	0.0000000E+000	0.0000000E+000	0.0000000E+000	84.3945	0.0000000E+000	0.0000000E+000	0.0000000E+000	-84.3945	0.0000000E+000	0.0000000E+000	0.0000000E+000	-5.60554	0.0000000E+000	0.0000000E+000	0.0000000E+000	5.60554	10.1887	84.3945	1.38591e-06	-4.09922e-06	3.95019e-09	-4.10317e-06	0.220359	11822.9	11.3931	11834.3
1.00006	14.0298	1.30216	14.0901	-5.30266	18.748	0.220145	-0.0165108	122216	1043.83	1	11	0.0048438	0.000343774	0	1.0031e-06	-0.000441049	2.19974e-06	45.1185	0.00639879	0.00451526	-0.00453398	-5.28261	14.0941	14.0343	1.29762	0.0706683	0.00655901	0.0709721	5.30266	1.04383e+06	1.12465e+07	1.12948e+07	-84.6973	0.0000000E+000	0.0000000E+000	0.0000000E+000	84.6973	0.0000000E+000	0.0000000E+000	0.0000000E+000	-84.6973	0.0000000E+000	0.0000000E+000	0.0000000E+000	-5.30266	0.0000000E+000	0.0000000E+000	0.0000000E+000	5.30266	10.7742	84.6973	-2.03682e-05	-3.63477e-06	7.28206e-09	-3.64205e-06	0.220586	13333.4	26.7128	13360.1
0.316193	14.856	1.84841	14.9705	-7.09239	33.0908	0.220145	-0.0207652	272314	4151.37	1	11	0.00484446	0.0003236	0	-8.61599e-05	-0.000193068	4.34328e-06	-9.23936	0.0134218	0.0132476	0.00215499	-7.09432	14.9839	14.8692	1.85056	0.0662868	0.00824752	0.0667979	7.09239	4.15137e+06	3.33653e+07	3.36226e+07	-82.9076	0.0000000E+000	0.0000000E+000	0.0000000E+000	82.9076	0.0000000E+000	0.0000000E+000	0.0000000E+000	-82.9076	0.0000000E+000	0.0000000E+000	0.0000000E+000	-7.09239	0.0000000E+000	0.0000000E+000	0.0000000E+000	7.09239	8.03718	82.9076	-2.73429e-05	-4.57134e-06	4.00909e-09	-4.57535e-06	0.220338	10601.6	9.2977	10610.9
0.0999041	16.0828	3.40461	16.4392	-11.9527	88.3725	0.220154	-0.0218515	467918	20069.8	1	12	0.00484266	0.00029458	0	-0.000253303	-5.95403e-05	1.78789e-06	-17.212	0.00606929	0.00579748	0.00179595	-11.9546	16.4452	16.0886	3.4064	0.0595114	0.0125982	0.0608303	11.9527	2.00698e+07	9.48063e+07	9.69074e+07	-78.0473	0.0000000E+000	0.0000000E+000	0.0000000E+000	78.0473	0.0000000E+000	0.0000000E+000	0.0000000E+000	-78.0473	0.0000000E+000	0.0000000E+000	0.0000000E+000	-11.9527	0.0000000E+000	0.0000000E+000	0.0000000E+000	11.9527	4.72382	78.0473	-0.000124283	-4.81069e-06	1.30104e-09	-4.81199e-06	0.220213	10075	2.72477	10077.7
0.0315922	18.474	7.23809	19.8413	-21.3952	231.257	0.220154	-0.026063	696012	92623.9	1	12	0.00484273	0.000244073	0	-0.00152712	1.67614e-05	7.56991e-07	77.9405	0.0031015	0.00064799	-0.00303305	-21.3864	19.8408	18.4746	7.23505	0.0469267	0.0183858	0.0503999	21.3952	9.26239e+07	2.36407e+08	2.53904e+08	-68.6048	0.0000000E+000	0.0000000E+000	0.0000000E+000	68.6048	0.0000000E+000	0.0000000E+000	0.0000000E+000	-68.6048	0.0000000E+000	0.0000000E+000	0.0000000E+000	-21.3952	0.0000000E+000	0.0000000E+000	0.0000000E+000	21.3952	2.55233	68.6048	-0.000699384	-5.73787e-06	-4.36851e-10	-5.73743e-06	0.220137	8446.99	0.64311	8446.35
0.0146812	22.0373	12.1434	25.1615	-28.8564	472.299	0.220159	-0.0307319	892731	207934	1	12	0.00484399	0.000192516	0	-0.00386206	-0.000364747	1.89167e-06	30.5974	0.00982605	0.00845792	-0.00500149	-28.8372	25.1665	22.0457	12.1384	0.0348084	0.0191807	0.0397432	28.8564	2.07934e+08	3.77349e+08	4.30847e+08	-61.1436	0.0000000E+000	0.0000000E+000	0.0000000E+000	61.1436	0.0000000E+000	0.0000000E+000	0.0000000E+000	-61.1436	0.0000000E+000	0.0000000E+000	0.0000000E+000	-28.8564	0.0000000E+000	0.0000000E+000	0.0000000E+000	28.8564	1.81476	61.1436	-0.00131016	-6.76591e-06	1.12094e-08	-6.77712e-06	0.220524	7163.85	11.8687	7175.72