File: txt/18604_R301_UA696_SOC00_C03.mpt
EC-Lab ASCII FILE
Nb header lines : 65

Potentio Electrochemical Impedance Spectroscopy

Run on channel : 3 (SN 65921)
User :
CE vs. WE compliance from -10 V to 10 V
Electrode connection : standard
Potential control : Ewe
Ewe ctrl range : min = -10.00 V, max = 10.00 V
Safety Limits :
	Do not start on E overload
Acquisition started on : 10/27/2025 16:23:22.015
Technique started on : 10/27/2025 16:23:23.927
Loaded Setting File :  C:\Users\Celltest\OneDrive - store-dot.com\Documents\EC-Lab\Data\@Biologic Test Protocols\anode half cell EIS SOC00.mps
Saved on :
	File : 18604_R301_UA696_SOC00_C03.mpr
	Directory : C:\Users\Celltest\OneDrive - store-dot.com\Documents\EC-Lab\Data\Gyutae\
	Host : 169.254.61.224
Device : VMP-3e (SN .003165)
Address : USB
EC-LAB for windows v11.62 (software)
Internet server v27.00 (firmware)
Command interpretor v12.03 (firmware)
Electrode material :
Initial state :
Electrolyte :
Comments :
Electrode surface area : 0.001 cm²
Characteristic mass : 0.001 g
Equivalent Weight : 0.000 g/eq.
Density : 0.000 g/cm3
Volume (V) : 0.001 cm³
Record Ece
Cycle Definition : Charge/Discharge alternance
Mode                Single sine
E (V)               0.0000
vs.                 Eoc
tE (h:m:s)          0:00:0.0000
record              0
dI                  0.000
unit dI             mA
dt (s)              0.000
fi                  100.000
unit fi             kHz
ff                  10.000
unit ff             mHz
Nd                  6
Points              per decade
spacing             Logarithmic
Va (mV)             5.0
pw                  0.10
Na                  2
corr                0
E range min (V)     -10.000
E range max (V)     10.000
I Range             Auto
Bandwidth           5
nc cycles           0
goto Ns'            0
nr cycles           0
inc. cycle          0

freq/Hz	Re(Z)/Ohm	-Im(Z)/Ohm	|Z|/Ohm	Phase(Z)/deg	time/s	<Ewe>/V	<I>/mA	Cs/µF	Cp/µF	cycle number	I Range	|Ewe|/V	|I|/A	Ns	(Q-Qo)/mA.h	<Ece>/V	|Ece|/V	Phase(Zce)/deg	|Zce|/Ohm	Re(Zce)/Ohm	-Im(Zce)/Ohm	Phase(Zwe-ce)/deg	|Zwe-ce|/Ohm	Re(Zwe-ce)/Ohm	-Im(Zwe-ce)/Ohm	Re(Y)/Ohm-1	Im(Y)/Ohm-1	|Y|/Ohm-1	Phase(Y)/deg	Re(C)/nF	Im(C)/nF	|C|/nF	Phase(C)/deg	Re(M)	Im(M)	|M|	Phase(M)/deg	Re(Permittivity)	Im(Permittivity)	|Permittivity|	Phase(Permittivity)/deg	Re(Resistivity)/Ohm.cm	Im(Resistivity)/Ohm.cm	|Resistivity|/Ohm.cm	Phase(Resistivity)/deg	Re(Conductivity)/mS/cm	Im(Conductivity)/mS/cm	|Conductivity|/mS/cm	Phase(Conductivity)/deg	Tan(Delta)	Loss Angle(Delta)/deg	dq/mA.h	Pwe/W	Pce/W	Pwe-ce/W	<Ewe-Ece>/V	Rwe/Ohm	Rce/Ohm	Rwe-ce/Ohm		Ewe-Ece/V
100004	1.41028	0.411524	1.46909	-16.2675	1.91154	0.217397	0.0328865	3.8673	0.30346	1	9	0.00456455	0.00310706	0	-1.95617e-06	-8.05151e-05	3.0826e-05	96.9948	0.0099213	-0.0012082	-0.00984746	-15.911	1.4652	1.40907	0.401677	0.65344	0.190677	0.680692	16.2675	303.46	1039.94	1083.32	-73.7325	0.0000000E+000	0.0000000E+000	0.0000000E+000	73.7325	0.0000000E+000	0.0000000E+000	0.0000000E+000	-73.7325	0.0000000E+000	0.0000000E+000	0.0000000E+000	-16.2675	0.0000000E+000	0.0000000E+000	0.0000000E+000	16.2675	3.42696	73.7325	-1.95617e-06	7.14945e-06	-2.64786e-09	7.1521e-06	0.217478	6610.53	2.44827	6612.98
31621.1	1.74282	0.526218	1.82053	-16.8009	3.43253	0.217391	0.0286351	9.56482	0.799119	1	9	0.00511257	0.00280828	0	2.12946e-05	3.40493e-05	1.00311e-05	70.7799	0.00357196	0.00117588	-0.00337286	-16.6886	1.82069	1.744	0.522846	0.525843	0.15877	0.54929	16.8009	799.119	2646.67	2764.68	-73.1991	0.0000000E+000	0.0000000E+000	0.0000000E+000	73.1991	0.0000000E+000	0.0000000E+000	0.0000000E+000	-73.1991	0.0000000E+000	0.0000000E+000	0.0000000E+000	-16.8009	0.0000000E+000	0.0000000E+000	0.0000000E+000	16.8009	3.31198	73.1991	-4.68154e-06	6.22501e-06	9.75005e-10	6.22403e-06	0.217357	7591.77	1.18908	7590.59
10002.2	2.12432	0.703023	2.23763	-18.3114	4.33354	0.217392	0.0351241	22.6336	2.23417	1	9	0.00533068	0.00238229	0	3.30267e-05	0.000167708	5.61049e-06	2.10084	0.00235508	0.0023535	-8.63335e-05	-18.2904	2.23984	2.12668	0.702936	0.424272	0.140408	0.446902	18.3114	2234.17	6750.99	7111.08	-71.6886	0.0000000E+000	0.0000000E+000	0.0000000E+000	71.6886	0.0000000E+000	0.0000000E+000	0.0000000E+000	-71.6886	0.0000000E+000	0.0000000E+000	0.0000000E+000	-18.3114	0.0000000E+000	0.0000000E+000	0.0000000E+000	18.3114	3.0217	71.6886	2.60358e-06	7.6357e-06	5.89059e-09	7.62981e-06	0.217224	6189.24	4.77471	6184.47
3163.08	2.58631	1.09351	2.80798	-22.919	5.23168	0.217213	-0.0260746	46.0137	6.9782	1	9	0.00499749	0.00177974	0	3.32873e-05	-6.1421e-05	8.13094e-06	2.07189	0.0045686	0.00456562	-0.000165171	-22.8796	2.81213	2.59088	1.09335	0.328013	0.138686	0.356127	22.919	6978.2	16504.5	17919.1	-67.081	0.0000000E+000	0.0000000E+000	0.0000000E+000	67.081	0.0000000E+000	0.0000000E+000	0.0000000E+000	-67.081	0.0000000E+000	0.0000000E+000	0.0000000E+000	-22.919	0.0000000E+000	0.0000000E+000	0.0000000E+000	22.919	2.36515	67.081	-1.93361e-06	-5.66374e-06	1.60153e-09	-5.66534e-06	0.217274	8330.42	2.35558	8332.77
1000.32	3.25296	2.10733	3.8759	-32.9359	6.83081	0.217328	-0.0133985	75.5004	22.3187	1	10	0.00501054	0.00129274	0	3.77231e-05	-0.000424208	4.48647e-06	38.9019	0.00347051	0.00270083	-0.00217944	-32.8872	3.87698	3.25566	2.10515	0.216538	0.140277	0.258005	32.9359	22318.7	34452.1	41049.6	-57.0641	0.0000000E+000	0.0000000E+000	0.0000000E+000	57.0641	0.0000000E+000	0.0000000E+000	0.0000000E+000	-57.0641	0.0000000E+000	0.0000000E+000	0.0000000E+000	-32.9359	0.0000000E+000	0.0000000E+000	0.0000000E+000	32.9359	1.54364	57.0641	-2.65291e-06	-2.91186e-06	5.68375e-09	-2.91754e-06	0.217752	16220.3	31.6609	16252
316.316	5.0602	4.48855	6.76408	-41.574	8.18104	0.217335	-0.0148975	112.097	49.3615	1	10	0.00489719	0.000723999	0	3.32612e-05	7.22374e-05	6.16667e-06	-93.5357	0.00851751	-0.000525274	0.0085013	-41.6308	6.76933	5.05967	4.49705	0.110599	0.0981046	0.14784	41.574	49361.5	55648	74385.9	-48.426	0.0000000E+000	0.0000000E+000	0.0000000E+000	48.426	0.0000000E+000	0.0000000E+000	0.0000000E+000	-48.426	0.0000000E+000	0.0000000E+000	0.0000000E+000	-41.574	0.0000000E+000	0.0000000E+000	0.0000000E+000	41.574	1.12736	48.426	-1.53347e-06	-3.23775e-06	-1.07616e-09	-3.23667e-06	0.217263	14588.7	4.84896	14583.8
100.032	10.2104	7.20551	12.4969	-35.2107	9.5288	0.217334	-0.0139019	220.809	73.408	1	10	0.00485901	0.000388818	0	2.74885e-05	-8.05151e-05	7.41272e-06	-19.7149	0.0190648	0.0179472	0.0064313	-35.1874	12.5152	10.2284	7.21195	0.0653793	0.0461384	0.08002	35.2107	73408	104021	127315	-54.7893	0.0000000E+000	0.0000000E+000	0.0000000E+000	54.7893	0.0000000E+000	0.0000000E+000	0.0000000E+000	-54.7893	0.0000000E+000	0.0000000E+000	0.0000000E+000	-35.2107	0.0000000E+000	0.0000000E+000	0.0000000E+000	35.2107	1.41703	54.7893	-1.167e-06	-3.02135e-06	1.11931e-09	-3.02247e-06	0.217414	15633.4	5.79166	15639.2
31.6296	16.9028	6.01267	17.9404	-19.5815	11.0926	0.217368	-0.00795741	836.873	94.0006	1	11	0.00485702	0.000270731	0	2.20037e-05	-0.000195079	9.7775e-06	7.84772	0.0361151	0.0357769	-0.00493119	-19.5284	17.9725	16.9386	6.00774	0.0525165	0.0186811	0.0557401	19.5815	94000.6	264255	280476	-70.4185	0.0000000E+000	0.0000000E+000	0.0000000E+000	70.4185	0.0000000E+000	0.0000000E+000	0.0000000E+000	-70.4185	0.0000000E+000	0.0000000E+000	0.0000000E+000	-19.5815	0.0000000E+000	0.0000000E+000	0.0000000E+000	19.5815	2.8112	70.4185	-2.29695e-06	-1.72969e-06	1.55233e-09	-1.73124e-06	0.217563	27316.5	24.5154	27341
10.0032	20.0846	3.54087	20.3944	-9.99835	12.4249	0.21737	-0.00765313	4493.36	135.447	1	11	0.00485283	0.000237949	0	1.84537e-05	9.13315e-05	8.28175e-06	77.4015	0.0348047	0.00759151	-0.0339667	-9.90068	20.396	20.0922	3.5069	0.0482884	0.00851312	0.0490331	9.99835	135447	768288	780137	-80.0016	0.0000000E+000	0.0000000E+000	0.0000000E+000	80.0016	0.0000000E+000	0.0000000E+000	0.0000000E+000	-80.0016	0.0000000E+000	0.0000000E+000	0.0000000E+000	-9.99835	0.0000000E+000	0.0000000E+000	0.0000000E+000	9.99835	5.67224	80.0016	-3.66729e-07	-1.66356e-06	-6.98971e-10	-1.66286e-06	0.217279	28402.8	11.9339	28390.8
3.1604	21.7121	2.48487	21.8538	-6.52888	13.9415	0.217359	-0.00775064	20266.3	262.015	1	11	0.00485476	0.000222147	0	1.7737e-05	-0.000156891	5.07982e-06	-43.488	0.022867	0.0165904	0.0157371	-6.56489	21.8721	21.7287	2.5006	0.0454618	0.00520293	0.0457586	6.52888	262015	2.28942e+06	2.30436e+06	-83.4711	0.0000000E+000	0.0000000E+000	0.0000000E+000	83.4711	0.0000000E+000	0.0000000E+000	0.0000000E+000	-83.4711	0.0000000E+000	0.0000000E+000	0.0000000E+000	-6.52888	0.0000000E+000	0.0000000E+000	0.0000000E+000	6.52888	8.73773	83.4711	3.39165e-07	-1.68467e-06	1.21601e-09	-1.68589e-06	0.217516	28044	20.2424	28064.3
1.00006	23.1106	2.32112	23.2268	-5.73529	19.5806	0.217365	-0.00854253	68563.9	684.715	1	12	0.0048585	0.000209176	0	-5.53543e-06	-0.000118703	1.77103e-06	-66.9477	0.00846671	0.00331533	0.00779062	-5.75359	23.2309	23.1139	2.32891	0.0428381	0.00430246	0.0430537	5.73529	684715	6.81747e+06	6.85176e+06	-84.2647	0.0000000E+000	0.0000000E+000	0.0000000E+000	84.2647	0.0000000E+000	0.0000000E+000	0.0000000E+000	-84.2647	0.0000000E+000	0.0000000E+000	0.0000000E+000	-5.73529	0.0000000E+000	0.0000000E+000	0.0000000E+000	5.73529	9.95665	84.2647	-1.15927e-05	-1.85685e-06	1.01403e-09	-1.85786e-06	0.217484	25445.1	13.8956	25459
0.316193	24.4534	2.88774	24.6233	-6.73497	33.9219	0.21737	-0.0107891	174305	2397.37	1	12	0.00485799	0.000197293	0	-1.57713e-05	-0.000233268	4.01112e-06	3.2721	0.0203308	0.0202977	-0.00116044	-6.72675	24.6433	24.4736	2.88658	0.0403317	0.00476285	0.040612	6.73497	2.39737e+06	2.03009e+07	2.04419e+07	-83.265	0.0000000E+000	0.0000000E+000	0.0000000E+000	83.265	0.0000000E+000	0.0000000E+000	0.0000000E+000	-83.265	0.0000000E+000	0.0000000E+000	0.0000000E+000	-6.73497	0.0000000E+000	0.0000000E+000	0.0000000E+000	6.73497	8.46799	83.265	-2.00485e-06	-2.34523e-06	2.51675e-09	-2.34775e-06	0.217604	20147.2	21.6207	20168.8
0.0999041	26.2637	5.57624	26.8492	-11.9869	79.13	0.217366	-0.0128749	285690	12323	1	12	0.0048563	0.000180873	0	-0.000180447	-0.000309644	3.07504e-06	17.4253	0.0170011	0.0162209	-0.00509117	-11.9691	26.864	26.28	5.57115	0.036433	0.00773534	0.0372451	11.9869	1.2323e+07	5.80405e+07	5.93343e+07	-78.0131	0.0000000E+000	0.0000000E+000	0.0000000E+000	78.0131	0.0000000E+000	0.0000000E+000	0.0000000E+000	-78.0131	0.0000000E+000	0.0000000E+000	0.0000000E+000	-11.9869	0.0000000E+000	0.0000000E+000	0.0000000E+000	11.9869	4.70994	78.0131	-0.000106516	-2.79855e-06	3.98662e-09	-2.80254e-06	0.217675	16883	24.0503	16907
0.0315922	30.7691	11.6915	32.9155	-20.8055	222.013	0.217368	-0.0192725	430893	54363.7	1	12	0.0048602	0.000147657	0	-0.0010665	0.000244084	1.85074e-06	30.0477	0.0125341	0.0108496	-0.00627606	-20.7886	32.9234	30.78	11.6852	0.0283997	0.0107912	0.0303808	20.8055	5.43637e+07	1.43072e+08	1.53052e+08	-69.1945	0.0000000E+000	0.0000000E+000	0.0000000E+000	69.1945	0.0000000E+000	0.0000000E+000	0.0000000E+000	-69.1945	0.0000000E+000	0.0000000E+000	0.0000000E+000	-20.8055	0.0000000E+000	0.0000000E+000	0.0000000E+000	20.8055	2.63175	69.1945	-0.000397371	-4.18924e-06	-4.70412e-09	-4.18453e-06	0.217124	11278.7	12.6649	11266
0.0100092	39.7157	23.5253	46.1603	-30.6401	673.233	0.217363	-0.0217269	675906	175558	1	12	0.00485818	0.000105246	0	-0.00317586	-9.96091e-05	1.43276e-06	60.6697	0.0136134	0.00666846	-0.0118683	-30.6233	46.16	39.7223	23.5135	0.0186391	0.0110407	0.0216636	30.6401	1.75558e+08	2.96378e+08	3.44472e+08	-59.3599	0.0000000E+000	0.0000000E+000	0.0000000E+000	59.3599	0.0000000E+000	0.0000000E+000	0.0000000E+000	-59.3599	0.0000000E+000	0.0000000E+000	0.0000000E+000	-30.6401	0.0000000E+000	0.0000000E+000	0.0000000E+000	30.6401	1.68821	59.3599	-0.000967977	-4.72263e-06	2.1642e-09	-4.72479e-06	0.217463	10004.4	4.5846	10008.9