File: txt/18606_R301_UA696_SOC00_C01.mpt
EC-Lab ASCII FILE
Nb header lines : 65

Potentio Electrochemical Impedance Spectroscopy

Run on channel : 1 (SN 66354)
User :
CE vs. WE compliance from -10 V to 10 V
Electrode connection : standard
Potential control : Ewe
Ewe ctrl range : min = -10.00 V, max = 10.00 V
Safety Limits :
	Do not start on E overload
Acquisition started on : 10/27/2025 16:34:52.191
Technique started on : 10/27/2025 16:34:54.103
Loaded Setting File :  C:\Users\Celltest\OneDrive - store-dot.com\Documents\EC-Lab\Data\@Biologic Test Protocols\anode half cell EIS SOC00.mps
Saved on :
	File : 18606_R301_UA696_SOC00_C01.mpr
	Directory : C:\Users\Celltest\OneDrive - store-dot.com\Documents\EC-Lab\Data\Gyutae\
	Host : 169.254.61.224
Device : VMP-3e (SN .003165)
Address : USB
EC-LAB for windows v11.62 (software)
Internet server v27.00 (firmware)
Command interpretor v12.03 (firmware)
Electrode material :
Initial state :
Electrolyte :
Comments :
Electrode surface area : 0.001 cm²
Characteristic mass : 0.001 g
Equivalent Weight : 0.000 g/eq.
Density : 0.000 g/cm3
Volume (V) : 0.001 cm³
Record Ece
Cycle Definition : Charge/Discharge alternance
Mode                Single sine
E (V)               0.0000
vs.                 Eoc
tE (h:m:s)          0:00:0.0000
record              0
dI                  0.000
unit dI             mA
dt (s)              0.000
fi                  100.000
unit fi             kHz
ff                  10.000
unit ff             mHz
Nd                  6
Points              per decade
spacing             Logarithmic
Va (mV)             5.0
pw                  0.10
Na                  2
corr                0
E range min (V)     -10.000
E range max (V)     10.000
I Range             Auto
Bandwidth           5
nc cycles           0
goto Ns'            0
nr cycles           0
inc. cycle          0

freq/Hz	Re(Z)/Ohm	-Im(Z)/Ohm	|Z|/Ohm	Phase(Z)/deg	time/s	<Ewe>/V	<I>/mA	Cs/µF	Cp/µF	cycle number	I Range	|Ewe|/V	|I|/A	Ns	(Q-Qo)/mA.h	<Ece>/V	|Ece|/V	Phase(Zce)/deg	|Zce|/Ohm	Re(Zce)/Ohm	-Im(Zce)/Ohm	Phase(Zwe-ce)/deg	|Zwe-ce|/Ohm	Re(Zwe-ce)/Ohm	-Im(Zwe-ce)/Ohm	Re(Y)/Ohm-1	Im(Y)/Ohm-1	|Y|/Ohm-1	Phase(Y)/deg	Re(C)/nF	Im(C)/nF	|C|/nF	Phase(C)/deg	Re(M)	Im(M)	|M|	Phase(M)/deg	Re(Permittivity)	Im(Permittivity)	|Permittivity|	Phase(Permittivity)/deg	Re(Resistivity)/Ohm.cm	Im(Resistivity)/Ohm.cm	|Resistivity|/Ohm.cm	Phase(Resistivity)/deg	Re(Conductivity)/mS/cm	Im(Conductivity)/mS/cm	|Conductivity|/mS/cm	Phase(Conductivity)/deg	Tan(Delta)	Loss Angle(Delta)/deg	dq/mA.h	Pwe/W	Pce/W	Pwe-ce/W	<Ewe-Ece>/V	Rwe/Ohm	Rce/Ohm	Rwe-ce/Ohm		Ewe-Ece/V
100004	1.18308	0.484595	1.27848	-22.2742	1.91153	0.223165	0.056622	3.28417	0.471839	1	9	0.00481282	0.00376448	0	1.52274e-05	-0.000112124	3.91641e-05	100.205	0.0104036	-0.00184318	-0.010239	-21.8792	1.27293	1.18124	0.474356	0.723812	0.296476	0.782178	22.2742	471.839	1151.94	1244.83	-67.7258	0.0000000E+000	0.0000000E+000	0.0000000E+000	67.7258	0.0000000E+000	0.0000000E+000	0.0000000E+000	-67.7258	0.0000000E+000	0.0000000E+000	0.0000000E+000	-22.2742	0.0000000E+000	0.0000000E+000	0.0000000E+000	22.2742	2.44138	67.7258	1.52274e-05	1.26361e-05	-6.3487e-09	1.26424e-05	0.223277	3941.31	1.98022	3943.29
31621.1	1.60291	0.658794	1.73302	-22.3425	3.43453	0.22316	0.0665689	7.63999	1.10405	1	9	0.00514494	0.00296878	0	5.00839e-05	0.000269422	1.42869e-05	47.1012	0.00481237	0.00327581	-0.00352533	-22.1937	1.73471	1.60619	0.655269	0.53371	0.219354	0.577029	22.3425	1104.05	2686.26	2904.29	-67.6574	0.0000000E+000	0.0000000E+000	0.0000000E+000	67.6574	0.0000000E+000	0.0000000E+000	0.0000000E+000	-67.6574	0.0000000E+000	0.0000000E+000	0.0000000E+000	-22.3425	0.0000000E+000	0.0000000E+000	0.0000000E+000	22.3425	2.4331	67.6574	-3.20148e-06	1.48555e-05	1.79351e-08	1.48376e-05	0.222891	3352.32	4.04726	3348.27
10002.2	2.10819	0.877096	2.28336	-22.5894	4.45952	0.223166	0.06072	18.1416	2.67683	1	9	0.00495224	0.00216883	0	6.63757e-05	0.000326654	1.41688e-05	-99.9377	0.00653292	-0.00112743	0.0064349	-22.7493	2.2848	2.10706	0.883531	0.404351	0.168228	0.43795	22.5894	2676.83	6434.02	6968.65	-67.4106	0.0000000E+000	0.0000000E+000	0.0000000E+000	67.4106	0.0000000E+000	0.0000000E+000	0.0000000E+000	-67.4106	0.0000000E+000	0.0000000E+000	0.0000000E+000	-22.5894	0.0000000E+000	0.0000000E+000	0.0000000E+000	22.5894	2.4036	67.4106	4.78913e-06	1.35506e-05	1.98344e-08	1.35308e-05	0.222839	3675.32	5.37967	3669.94
3163.08	2.6932	1.31179	2.99568	-25.9695	5.35763	0.222924	0.0130344	38.3571	7.355	1	9	0.00452242	0.00150964	0	7.46349e-05	-0.000188433	4.06878e-06	36.521	0.00269519	0.00216596	-0.00160395	-25.9238	2.99693	2.69537	1.31019	0.300107	0.146175	0.333814	25.9695	7355	15100.3	16796.3	-64.0305	0.0000000E+000	0.0000000E+000	0.0000000E+000	64.0305	0.0000000E+000	0.0000000E+000	0.0000000E+000	-64.0305	0.0000000E+000	0.0000000E+000	0.0000000E+000	-25.9695	0.0000000E+000	0.0000000E+000	0.0000000E+000	25.9695	2.05307	64.0305	5.4177e-07	2.90568e-06	-2.45612e-09	2.90814e-06	0.223112	17102.7	14.4566	17117.1
1000.32	3.4928	2.43548	4.25807	-34.8875	7.17085	0.223079	-0.0160486	65.3277	21.3717	1	10	0.0050637	0.0011892	0	0.0001034	-7.39696e-05	6.88093e-06	48.4106	0.00578619	0.0038408	-0.00432761	-34.8102	4.25875	3.49664	2.43115	0.19264	0.134325	0.234848	34.8875	21371.7	30649.9	37365.3	-55.1125	0.0000000E+000	0.0000000E+000	0.0000000E+000	55.1125	0.0000000E+000	0.0000000E+000	0.0000000E+000	-55.1125	0.0000000E+000	0.0000000E+000	0.0000000E+000	-34.8875	0.0000000E+000	0.0000000E+000	0.0000000E+000	34.8875	1.43413	55.1125	-2.25403e-06	-3.58012e-06	1.18711e-09	-3.58131e-06	0.223153	13900.2	4.60909	13904.8
316.316	5.42903	5.19966	7.51737	-43.7638	8.52	0.223081	-0.0164661	96.7663	46.2959	1	10	0.00496279	0.000660177	0	9.869e-05	0.000326654	8.02462e-06	-19.5743	0.0121552	0.0114528	0.00407236	-43.7258	7.52846	5.44048	5.20373	0.0960706	0.0920118	0.133025	43.7638	46295.9	48338.1	66931.9	-46.2362	0.0000000E+000	0.0000000E+000	0.0000000E+000	46.2362	0.0000000E+000	0.0000000E+000	0.0000000E+000	-46.2362	0.0000000E+000	0.0000000E+000	0.0000000E+000	-43.7638	0.0000000E+000	0.0000000E+000	0.0000000E+000	43.7638	1.04411	46.2362	-2.19613e-06	-3.67327e-06	-5.3787e-09	-3.66789e-06	0.222754	13547.9	19.838	13528.1
100.032	11.2987	9.01347	14.4535	-38.581	9.86784	0.223089	-0.0159368	176.518	68.6483	1	10	0.00493791	0.000341642	0	9.22583e-05	0.000231267	1.3173e-05	-51.9482	0.0385577	0.023766	0.0303625	-38.6162	14.491	11.3224	9.04383	0.0540858	0.0431468	0.0691876	38.581	68648.3	86052.8	110080	-51.419	0.0000000E+000	0.0000000E+000	0.0000000E+000	51.419	0.0000000E+000	0.0000000E+000	0.0000000E+000	-51.419	0.0000000E+000	0.0000000E+000	0.0000000E+000	-38.581	0.0000000E+000	0.0000000E+000	0.0000000E+000	38.581	1.25353	51.419	-1.42572e-06	-3.55533e-06	-3.68567e-09	-3.55165e-06	0.222858	13998.3	14.5115	13983.8
31.6296	20.3118	8.48439	22.0126	-22.6706	11.4365	0.223116	-0.00573338	593.071	88.1057	1	11	0.00493152	0.000224032	0	8.83914e-05	7.86489e-05	5.31075e-06	59.6213	0.0237054	0.0119881	-0.0204506	-22.6095	22.0158	20.3238	8.46394	0.0419185	0.0175096	0.0454285	22.6706	88105.7	210927	228589	-67.3294	0.0000000E+000	0.0000000E+000	0.0000000E+000	67.3294	0.0000000E+000	0.0000000E+000	0.0000000E+000	-67.3294	0.0000000E+000	0.0000000E+000	0.0000000E+000	-22.6706	0.0000000E+000	0.0000000E+000	0.0000000E+000	22.6706	2.39403	67.3294	-9.65816e-07	-1.27921e-06	-4.50924e-10	-1.27876e-06	0.223037	38915.2	13.7177	38901.5
10.0032	25.2688	4.93693	25.7466	-11.055	12.7689	0.223135	-0.00528092	3222.73	118.495	1	11	0.00493213	0.000191565	0	8.78415e-05	-0.000207511	6.61848e-06	48.02	0.0345496	0.0231092	-0.0256834	-10.9891	25.7644	25.2919	4.91124	0.0381194	0.00744762	0.0388401	11.055	118495	606494	617962	-78.945	0.0000000E+000	0.0000000E+000	0.0000000E+000	78.945	0.0000000E+000	0.0000000E+000	0.0000000E+000	-78.945	0.0000000E+000	0.0000000E+000	0.0000000E+000	-11.055	0.0000000E+000	0.0000000E+000	0.0000000E+000	11.055	5.11833	78.945	2.929e-07	-1.17836e-06	1.09585e-09	-1.17946e-06	0.223343	42253.1	39.2944	42292.4
3.1604	27.381	3.053	27.5507	-6.36223	14.2855	0.223147	-0.00399245	16495	202.554	1	11	0.00493767	0.000179221	0	8.47359e-05	-1.67377e-05	5.64353e-06	-27.4662	0.0314892	0.0279398	0.0145236	-6.38578	27.5801	27.409	3.06752	0.0360732	0.00402218	0.0362967	6.36223	202554	1.81662e+06	1.82787e+06	-83.6378	0.0000000E+000	0.0000000E+000	0.0000000E+000	83.6378	0.0000000E+000	0.0000000E+000	0.0000000E+000	-83.6378	0.0000000E+000	0.0000000E+000	0.0000000E+000	-6.36223	0.0000000E+000	0.0000000E+000	0.0000000E+000	6.36223	8.96857	83.6378	-1.01575e-07	-8.90901e-07	6.68243e-11	-8.90968e-07	0.223163	55892.2	4.19233	55896.4
1.00006	28.7518	2.61271	28.8703	-5.19227	19.9227	0.223142	-0.00352683	60911.7	498.863	1	12	0.00493482	0.000170931	0	8.40885e-05	0.000193113	5.72325e-06	2.45112	0.0334828	0.0334522	-0.00143196	-5.18345	28.9035	28.7853	2.61128	0.0344955	0.00313465	0.0346377	5.19227	498863	5.48978e+06	5.5124e+06	-84.8077	0.0000000E+000	0.0000000E+000	0.0000000E+000	84.8077	0.0000000E+000	0.0000000E+000	0.0000000E+000	-84.8077	0.0000000E+000	0.0000000E+000	0.0000000E+000	-5.19227	0.0000000E+000	0.0000000E+000	0.0000000E+000	5.19227	11.0046	84.8077	-4.07951e-06	-7.86983e-07	-6.81075e-10	-7.86302e-07	0.222949	63269.9	54.7554	63215.2
0.316193	30.3015	3.36165	30.4874	-6.33052	34.2659	0.223144	-0.00458337	149732	1820.46	1	12	0.00493626	0.000161912	0	4.49745e-05	0.000307577	2.15065e-06	1.18315	0.0132828	0.01328	-0.000274268	-6.32725	30.5005	30.3148	3.36138	0.0326005	0.0036167	0.0328005	6.33052	1.82046e+06	1.64094e+07	1.651e+07	-83.6695	0.0000000E+000	0.0000000E+000	0.0000000E+000	83.6695	0.0000000E+000	0.0000000E+000	0.0000000E+000	-83.6695	0.0000000E+000	0.0000000E+000	0.0000000E+000	-6.33052	0.0000000E+000	0.0000000E+000	0.0000000E+000	6.33052	9.01387	83.6695	-1.50402e-05	-1.02275e-06	-1.40974e-09	-1.02134e-06	0.222837	48685.6	67.107	48618.5
0.0999041	32.3516	6.15185	32.9314	-10.7666	79.4739	0.223138	-0.00543987	258959	9036.99	1	12	0.00493732	0.000149928	0	4.87156e-05	0.000174035	1.2385e-06	22.9062	0.00826062	0.00760922	-0.00321523	-10.7586	32.9382	32.3593	6.14864	0.0298316	0.00567266	0.0303662	10.7666	9.03699e+06	4.75241e+07	4.83757e+07	-79.2334	0.0000000E+000	0.0000000E+000	0.0000000E+000	79.2334	0.0000000E+000	0.0000000E+000	0.0000000E+000	-79.2334	0.0000000E+000	0.0000000E+000	0.0000000E+000	-10.7666	0.0000000E+000	0.0000000E+000	0.0000000E+000	10.7666	5.25884	79.2334	1.14088e-05	-1.21384e-06	-9.4673e-10	-1.2129e-06	0.222964	41019	31.9926	40987
0.0315922	36.9615	13.53	39.3601	-20.1056	222.357	0.223137	-0.00584618	372341	43997.5	1	12	0.00493445	0.000125367	0	-0.000159336	-0.000226588	2.95935e-06	-4.42765	0.0236055	0.0235351	0.00182235	-20.0963	39.3828	36.985	13.5319	0.0238582	0.00873349	0.0254065	20.1056	4.39975e+07	1.20193e+08	1.27993e+08	-69.8944	0.0000000E+000	0.0000000E+000	0.0000000E+000	69.8944	0.0000000E+000	0.0000000E+000	0.0000000E+000	-69.8944	0.0000000E+000	0.0000000E+000	0.0000000E+000	-20.1056	0.0000000E+000	0.0000000E+000	0.0000000E+000	20.1056	2.73181	69.8944	-0.000163003	-1.3045e-06	1.32467e-09	-1.30582e-06	0.223364	38168	38.7583	38206.8
0.0100092	47.5728	27.5185	54.9585	-30.0473	673.58	0.223139	-0.00845911	577825	144870	1	12	0.00493265	8.97521e-05	0	-0.00158669	0.000269422	2.3158e-06	18.2965	0.0258022	0.0244977	-0.00810019	-30.0272	54.9757	47.5973	27.5104	0.0157503	0.00911077	0.0181955	30.0473	1.4487e+08	2.50444e+08	2.89326e+08	-59.9527	0.0000000E+000	0.0000000E+000	0.0000000E+000	59.9527	0.0000000E+000	0.0000000E+000	0.0000000E+000	-59.9527	0.0000000E+000	0.0000000E+000	0.0000000E+000	-30.0473	0.0000000E+000	0.0000000E+000	0.0000000E+000	30.0473	1.72875	59.9527	-0.000608319	-1.88756e-06	-2.27907e-09	-1.88528e-06	0.22287	26378.6	31.8499	26346.7