File: txt/18608_R301_UA697_SOC00_C06.mpt
EC-Lab ASCII FILE
Nb header lines : 65

Potentio Electrochemical Impedance Spectroscopy

Run on channel : 6 (SN 65795)
User :
CE vs. WE compliance from -10 V to 10 V
Electrode connection : standard
Potential control : Ewe
Ewe ctrl range : min = -10.00 V, max = 10.00 V
Safety Limits :
	Do not start on E overload
Acquisition started on : 10/27/2025 16:24:37.187
Technique started on : 10/27/2025 16:24:39.098
Loaded Setting File :  C:\Users\Celltest\OneDrive - store-dot.com\Documents\EC-Lab\Data\@Biologic Test Protocols\anode half cell EIS SOC00.mps
Saved on :
	File : 18608_R301_UA697_SOC00_C06.mpr
	Directory : C:\Users\Celltest\OneDrive - store-dot.com\Documents\EC-Lab\Data\Gyutae\
	Host : 169.254.61.224
Device : VMP-3e (SN .003165)
Address : USB
EC-LAB for windows v11.62 (software)
Internet server v27.00 (firmware)
Command interpretor v12.03 (firmware)
Electrode material :
Initial state :
Electrolyte :
Comments :
Electrode surface area : 0.001 cm²
Characteristic mass : 0.001 g
Equivalent Weight : 0.000 g/eq.
Density : 0.000 g/cm3
Volume (V) : 0.001 cm³
Record Ece
Cycle Definition : Charge/Discharge alternance
Mode                Single sine
E (V)               0.0000
vs.                 Eoc
tE (h:m:s)          0:00:0.0000
record              0
dI                  0.000
unit dI             mA
dt (s)              0.000
fi                  100.000
unit fi             kHz
ff                  10.000
unit ff             mHz
Nd                  6
Points              per decade
spacing             Logarithmic
Va (mV)             5.0
pw                  0.10
Na                  2
corr                0
E range min (V)     -10.000
E range max (V)     10.000
I Range             Auto
Bandwidth           5
nc cycles           0
goto Ns'            0
nr cycles           0
inc. cycle          0

freq/Hz	Re(Z)/Ohm	-Im(Z)/Ohm	|Z|/Ohm	Phase(Z)/deg	time/s	<Ewe>/V	<I>/mA	Cs/µF	Cp/µF	cycle number	I Range	|Ewe|/V	|I|/A	Ns	(Q-Qo)/mA.h	<Ece>/V	|Ece|/V	Phase(Zce)/deg	|Zce|/Ohm	Re(Zce)/Ohm	-Im(Zce)/Ohm	Phase(Zwe-ce)/deg	|Zwe-ce|/Ohm	Re(Zwe-ce)/Ohm	-Im(Zwe-ce)/Ohm	Re(Y)/Ohm-1	Im(Y)/Ohm-1	|Y|/Ohm-1	Phase(Y)/deg	Re(C)/nF	Im(C)/nF	|C|/nF	Phase(C)/deg	Re(M)	Im(M)	|M|	Phase(M)/deg	Re(Permittivity)	Im(Permittivity)	|Permittivity|	Phase(Permittivity)/deg	Re(Resistivity)/Ohm.cm	Im(Resistivity)/Ohm.cm	|Resistivity|/Ohm.cm	Phase(Resistivity)/deg	Re(Conductivity)/mS/cm	Im(Conductivity)/mS/cm	|Conductivity|/mS/cm	Phase(Conductivity)/deg	Tan(Delta)	Loss Angle(Delta)/deg	dq/mA.h	Pwe/W	Pce/W	Pwe-ce/W	<Ewe-Ece>/V	Rwe/Ohm	Rce/Ohm	Rwe-ce/Ohm		Ewe-Ece/V
100004	0.977275	0.317569	1.02758	-18.0018	1.91056	0.213221	0.0508394	5.01147	0.478644	1	9	0.00485224	0.00472202	0	-2.82957e-06	0.00026816	4.68346e-05	88.443	0.00991835	0.000269489	-0.00991468	-17.4699	1.02481	0.977544	0.307655	0.925523	0.300752	0.973162	18.0018	478.644	1472.96	1548.78	-71.9982	0.0000000E+000	0.0000000E+000	0.0000000E+000	71.9982	0.0000000E+000	0.0000000E+000	0.0000000E+000	-71.9982	0.0000000E+000	0.0000000E+000	0.0000000E+000	-18.0018	0.0000000E+000	0.0000000E+000	0.0000000E+000	18.0018	3.07736	71.9982	-2.82957e-06	1.084e-05	1.36331e-08	1.08264e-05	0.212953	4194.01	5.27464	4188.73
31621.1	1.24597	0.422115	1.31553	-18.7155	3.43356	0.213195	0.0410054	11.9237	1.22764	1	9	0.00503786	0.00382951	0	-1.53389e-06	0.000249062	1.92408e-05	44.3223	0.00502433	0.00359451	-0.00351047	-18.5208	1.31782	1.24957	0.418605	0.719954	0.243908	0.760148	18.7155	1227.64	3623.66	3825.96	-71.2845	0.0000000E+000	0.0000000E+000	0.0000000E+000	71.2845	0.0000000E+000	0.0000000E+000	0.0000000E+000	-71.2845	0.0000000E+000	0.0000000E+000	0.0000000E+000	-18.7155	0.0000000E+000	0.0000000E+000	0.0000000E+000	18.7155	2.95174	71.2845	-4.59816e-06	8.74213e-06	1.02129e-08	8.73192e-06	0.212946	5199.18	6.07387	5193.11
10002.2	1.56381	0.573751	1.66574	-20.1477	4.33452	0.213196	0.0401859	27.7332	3.29027	1	9	0.00495767	0.00297625	0	1.13016e-05	-0.000113801	6.35085e-06	19.1581	0.00213384	0.00201566	-0.000700277	-20.1013	1.66739	1.56583	0.573051	0.563597	0.20678	0.600333	20.1477	3290.27	8967.93	9552.47	-69.8523	0.0000000E+000	0.0000000E+000	0.0000000E+000	69.8523	0.0000000E+000	0.0000000E+000	0.0000000E+000	-69.8523	0.0000000E+000	0.0000000E+000	0.0000000E+000	-20.1477	0.0000000E+000	0.0000000E+000	0.0000000E+000	20.1477	2.72559	69.8523	3.71644e-07	8.56749e-06	-4.5732e-09	8.57206e-06	0.21331	5305.25	2.83187	5308.09
3163.08	1.99646	0.84192	2.16672	-22.8654	5.40968	0.212935	-0.0948452	59.764	9.02347	1	9	0.00497044	0.00229399	0	1.77764e-06	7.71793e-05	1.16209e-05	-90.9523	0.00506579	-8.41941e-05	0.00506509	-22.9896	2.16862	1.99638	0.846985	0.42526	0.179334	0.461526	22.8654	9023.47	21397.6	23222.4	-67.1346	0.0000000E+000	0.0000000E+000	0.0000000E+000	67.1346	0.0000000E+000	0.0000000E+000	0.0000000E+000	-67.1346	0.0000000E+000	0.0000000E+000	0.0000000E+000	-22.8654	0.0000000E+000	0.0000000E+000	0.0000000E+000	22.8654	2.37132	67.1346	-1.10362e-05	-2.01959e-05	-7.32009e-09	-2.01886e-05	0.212858	2245.08	0.81374	2244.27
1000.32	2.59078	1.36586	2.92877	-27.7982	6.76277	0.213068	0.0351944	116.486	25.3347	1	9	0.00484612	0.00165466	0	1.42629e-05	0.000134473	9.19326e-06	-43.0566	0.00555599	0.00405965	0.00379319	-27.8268	2.93413	2.59484	1.36965	0.302036	0.159234	0.34144	27.7982	25334.7	48055.1	54324.4	-62.2018	0.0000000E+000	0.0000000E+000	0.0000000E+000	62.2018	0.0000000E+000	0.0000000E+000	0.0000000E+000	-62.2018	0.0000000E+000	0.0000000E+000	0.0000000E+000	-27.7982	0.0000000E+000	0.0000000E+000	0.0000000E+000	27.7982	1.89681	62.2018	3.1474e-06	7.4988e-06	4.73271e-09	7.49407e-06	0.212934	6054.05	3.82088	6050.23
316.316	3.81629	2.49459	4.55928	-33.1714	8.35805	0.21311	-0.024704	201.697	60.3818	1	10	0.00485269	0.00106436	0	8.5563e-06	0.000420944	1.03136e-05	83.4775	0.00968996	0.00110071	-0.00962724	-33.0624	4.55494	3.81739	2.48496	0.18359	0.120007	0.219333	33.1714	60381.8	92373.7	110358	-56.8286	0.0000000E+000	0.0000000E+000	0.0000000E+000	56.8286	0.0000000E+000	0.0000000E+000	0.0000000E+000	-56.8286	0.0000000E+000	0.0000000E+000	0.0000000E+000	-33.1714	0.0000000E+000	0.0000000E+000	0.0000000E+000	33.1714	1.52983	56.8286	-2.16354e-06	-5.26466e-06	-1.0399e-08	-5.25426e-06	0.212689	8626.52	17.0395	8609.48
100.032	6.61524	3.42297	7.44836	-27.3587	9.70586	0.213089	-0.0248084	464.813	98.1663	1	10	0.00481989	0.000647108	0	2.79177e-07	-0.000113801	8.93399e-06	17.7267	0.013806	0.0131505	-0.00420361	-27.2836	7.45812	6.62839	3.41876	0.119241	0.0616994	0.134258	27.3587	98166.3	189717	213609	-62.6413	0.0000000E+000	0.0000000E+000	0.0000000E+000	62.6413	0.0000000E+000	0.0000000E+000	0.0000000E+000	-62.6413	0.0000000E+000	0.0000000E+000	0.0000000E+000	-27.3587	0.0000000E+000	0.0000000E+000	0.0000000E+000	27.3587	1.9326	62.6413	-3.06545e-06	-5.28639e-06	2.82322e-09	-5.28922e-06	0.213203	8589.4	4.5872	8593.99
31.6296	9.35469	2.49516	9.68174	-14.9347	11.0356	0.21309	-0.0296156	2016.64	133.942	1	10	0.00480389	0.000496181	0	-8.53159e-06	3.89833e-05	9.28575e-06	140.848	0.0187144	-0.0145125	-0.011816	-14.8892	9.66467	9.34018	2.48334	0.0997982	0.026619	0.103287	14.9347	133942	502169	519725	-75.0653	0.0000000E+000	0.0000000E+000	0.0000000E+000	75.0653	0.0000000E+000	0.0000000E+000	0.0000000E+000	-75.0653	0.0000000E+000	0.0000000E+000	0.0000000E+000	-14.9347	0.0000000E+000	0.0000000E+000	0.0000000E+000	14.9347	3.74914	75.0653	-2.33586e-06	-6.3108e-06	-1.15451e-09	-6.30965e-06	0.213051	7195.2	1.31631	7193.88
10.0032	10.5658	1.45091	10.6649	-7.81904	12.3678	0.21311	-0.0241413	10965.8	202.958	1	10	0.00480644	0.000450677	0	-1.96247e-05	0.000344552	6.43866e-06	-57.2882	0.0142866	0.00772068	0.0120208	-7.87733	10.6742	10.5735	1.46293	0.0928936	0.0127563	0.0937654	7.81904	202958	1.47797e+06	1.49184e+06	-82.181	0.0000000E+000	0.0000000E+000	0.0000000E+000	82.181	0.0000000E+000	0.0000000E+000	0.0000000E+000	-82.181	0.0000000E+000	0.0000000E+000	0.0000000E+000	-7.81904	0.0000000E+000	0.0000000E+000	0.0000000E+000	7.81904	7.28218	82.181	-6.47973e-06	-5.14477e-06	-8.31793e-09	-5.13645e-06	0.212766	8827.62	14.2723	8813.35
3.1604	11.2752	1.0538	11.3244	-5.33942	14.0764	0.21313	-0.0142506	47788.4	413.815	1	11	0.00480883	0.000424644	0	-2.85977e-05	-0.000113801	4.3446e-06	8.9609	0.0102311	0.0101063	-0.00159361	-5.32664	11.3343	11.2853	1.0522	0.0879219	0.00821728	0.0883051	5.33942	413816	4.42768e+06	4.44697e+06	-84.6606	0.0000000E+000	0.0000000E+000	0.0000000E+000	84.6606	0.0000000E+000	0.0000000E+000	0.0000000E+000	-84.6606	0.0000000E+000	0.0000000E+000	0.0000000E+000	-5.33942	0.0000000E+000	0.0000000E+000	0.0000000E+000	5.33942	10.6996	84.6606	-1.63478e-06	-3.03723e-06	1.62173e-09	-3.03885e-06	0.213244	14955.9	7.9857	14963.8
1.00006	11.847	1.04408	11.893	-5.03646	18.672	0.213136	-0.0121019	152426	1174.75	1	11	0.00481156	0.000404572	0	-3.18948e-05	5.80813e-05	2.85269e-06	44.3578	0.00705111	0.00504146	-0.00492969	-5.01068	11.8976	11.8521	1.03915	0.0837587	0.00738165	0.0840834	5.03646	1.17475e+06	1.33298e+07	1.33814e+07	-84.9635	0.0000000E+000	0.0000000E+000	0.0000000E+000	84.9635	0.0000000E+000	0.0000000E+000	0.0000000E+000	-84.9635	0.0000000E+000	0.0000000E+000	0.0000000E+000	-5.03646	0.0000000E+000	0.0000000E+000	0.0000000E+000	5.03646	11.3469	84.9635	-8.40866e-06	-2.57935e-06	-7.02893e-10	-2.57865e-06	0.213078	17611.8	4.79936	17607
0.316193	12.4212	1.52748	12.5148	-7.01066	33.0157	0.213121	-0.0178529	329527	4909.03	1	11	0.00481142	0.000384458	0	-0.000155744	-5.65069e-05	2.60037e-06	-74.5511	0.00676372	0.00180172	0.00651934	-7.03927	12.5174	12.423	1.534	0.0793079	0.00975277	0.0799053	7.01066	4.90903e+06	3.99194e+07	4.02201e+07	-82.9893	0.0000000E+000	0.0000000E+000	0.0000000E+000	82.9893	0.0000000E+000	0.0000000E+000	0.0000000E+000	-82.9893	0.0000000E+000	0.0000000E+000	0.0000000E+000	-7.01066	0.0000000E+000	0.0000000E+000	0.0000000E+000	7.01066	8.13183	82.9893	-5.81008e-05	-3.80483e-06	1.00881e-09	-3.80584e-06	0.213178	11937.6	3.16514	11940.8
0.0999041	13.403	3.09855	13.7565	-13.0171	78.2235	0.213122	-0.0245294	514137	26084.2	1	11	0.00481057	0.000349694	0	-0.000312657	1.98852e-05	8.00465e-07	-1.65361	0.00228904	0.00228809	6.60549e-05	-13.0152	13.7588	13.4053	3.09861	0.0708248	0.0163735	0.0726928	13.0171	2.60842e+07	1.12829e+08	1.15805e+08	-76.9829	0.0000000E+000	0.0000000E+000	0.0000000E+000	76.9829	0.0000000E+000	0.0000000E+000	0.0000000E+000	-76.9829	0.0000000E+000	0.0000000E+000	0.0000000E+000	-13.0171	0.0000000E+000	0.0000000E+000	0.0000000E+000	13.0171	4.32558	76.9829	-4.51595e-05	-5.22776e-06	-4.87773e-10	-5.22728e-06	0.213102	8688.44	0.810668	8687.63
0.0315922	15.7084	6.8515	17.1375	-23.5653	252.877	0.213126	-0.0301041	735283	117525	1	12	0.00481095	0.000280726	0	-0.00146528	0.000153571	1.35882e-06	-88.8513	0.00484039	9.70324e-05	0.00483942	-23.58	17.1396	15.7085	6.85634	0.0534852	0.0233286	0.0583514	23.5653	1.17525e+08	2.69447e+08	2.93962e+08	-66.4347	0.0000000E+000	0.0000000E+000	0.0000000E+000	66.4347	0.0000000E+000	0.0000000E+000	0.0000000E+000	-66.4347	0.0000000E+000	0.0000000E+000	0.0000000E+000	-23.5653	0.0000000E+000	0.0000000E+000	0.0000000E+000	23.5653	2.29269	66.4347	-0.000841015	-6.41598e-06	-4.62314e-09	-6.41136e-06	0.212973	7079.63	5.10134	7074.53
0.0146812	18.7954	11.3255	21.9439	-31.0719	493.917	0.213121	-0.033803	957197	254971	1	12	0.00481517	0.000219431	0	-0.00440157	0.00017267	9.76529e-07	49.1033	0.00445027	0.00291358	-0.00336392	-31.0604	21.9446	18.7983	11.3222	0.0390323	0.0235197	0.0455708	31.0719	2.54971e+08	4.2314e+08	4.94022e+08	-58.9281	0.0000000E+000	0.0000000E+000	0.0000000E+000	58.9281	0.0000000E+000	0.0000000E+000	0.0000000E+000	-58.9281	0.0000000E+000	0.0000000E+000	0.0000000E+000	-31.0719	0.0000000E+000	0.0000000E+000	0.0000000E+000	31.0719	1.65956	58.9281	-0.00178476	-7.20412e-06	-5.83675e-09	-7.19828e-06	0.212948	6304.78	5.10811	6299.67