File: txt/18611_R301_UA697_SOC00_C02.mpt
EC-Lab ASCII FILE
Nb header lines : 65

Potentio Electrochemical Impedance Spectroscopy

Run on channel : 2 (SN 66139)
User :
CE vs. WE compliance from -10 V to 10 V
Electrode connection : standard
Potential control : Ewe
Ewe ctrl range : min = -10.00 V, max = 10.00 V
Safety Limits :
	Do not start on E overload
Acquisition started on : 10/27/2025 16:35:03.060
Technique started on : 10/27/2025 16:35:04.929
Loaded Setting File :  C:\Users\Celltest\OneDrive - store-dot.com\Documents\EC-Lab\Data\@Biologic Test Protocols\anode half cell EIS SOC00.mps
Saved on :
	File : 18611_R301_UA697_SOC00_C02.mpr
	Directory : C:\Users\Celltest\OneDrive - store-dot.com\Documents\EC-Lab\Data\Gyutae\
	Host : 169.254.61.224
Device : VMP-3e (SN .003165)
Address : USB
EC-LAB for windows v11.62 (software)
Internet server v27.00 (firmware)
Command interpretor v12.03 (firmware)
Electrode material :
Initial state :
Electrolyte :
Comments :
Electrode surface area : 0.001 cm²
Characteristic mass : 0.001 g
Equivalent Weight : 0.000 g/eq.
Density : 0.000 g/cm3
Volume (V) : 0.001 cm³
Record Ece
Cycle Definition : Charge/Discharge alternance
Mode                Single sine
E (V)               0.0000
vs.                 Eoc
tE (h:m:s)          0:00:0.0000
record              0
dI                  0.000
unit dI             mA
dt (s)              0.000
fi                  100.000
unit fi             kHz
ff                  10.000
unit ff             mHz
Nd                  6
Points              per decade
spacing             Logarithmic
Va (mV)             5.0
pw                  0.10
Na                  2
corr                0
E range min (V)     -10.000
E range max (V)     10.000
I Range             Auto
Bandwidth           5
nc cycles           0
goto Ns'            0
nr cycles           0
inc. cycle          0

freq/Hz	Re(Z)/Ohm	-Im(Z)/Ohm	|Z|/Ohm	Phase(Z)/deg	time/s	<Ewe>/V	<I>/mA	Cs/µF	Cp/µF	cycle number	I Range	|Ewe|/V	|I|/A	Ns	(Q-Qo)/mA.h	<Ece>/V	|Ece|/V	Phase(Zce)/deg	|Zce|/Ohm	Re(Zce)/Ohm	-Im(Zce)/Ohm	Phase(Zwe-ce)/deg	|Zwe-ce|/Ohm	Re(Zwe-ce)/Ohm	-Im(Zwe-ce)/Ohm	Re(Y)/Ohm-1	Im(Y)/Ohm-1	|Y|/Ohm-1	Phase(Y)/deg	Re(C)/nF	Im(C)/nF	|C|/nF	Phase(C)/deg	Re(M)	Im(M)	|M|	Phase(M)/deg	Re(Permittivity)	Im(Permittivity)	|Permittivity|	Phase(Permittivity)/deg	Re(Resistivity)/Ohm.cm	Im(Resistivity)/Ohm.cm	|Resistivity|/Ohm.cm	Phase(Resistivity)/deg	Re(Conductivity)/mS/cm	Im(Conductivity)/mS/cm	|Conductivity|/mS/cm	Phase(Conductivity)/deg	Tan(Delta)	Loss Angle(Delta)/deg	dq/mA.h	Pwe/W	Pce/W	Pwe-ce/W	<Ewe-Ece>/V	Rwe/Ohm	Rce/Ohm	Rwe-ce/Ohm		Ewe-Ece/V
100004	1.18798	0.425572	1.2619	-19.7092	1.86852	0.224025	-0.0121026	3.73965	0.425329	1	9	0.00495256	0.00392468	0	9.77762e-07	0.000382159	2.09072e-05	92.069	0.00532711	-0.000192323	-0.00532363	-19.4842	1.25994	1.18778	0.420248	0.74603	0.267252	0.792454	19.7092	425.329	1187.3	1261.18	-70.2908	0.0000000E+000	0.0000000E+000	0.0000000E+000	70.2908	0.0000000E+000	0.0000000E+000	0.0000000E+000	-70.2908	0.0000000E+000	0.0000000E+000	0.0000000E+000	-19.7092	0.0000000E+000	0.0000000E+000	0.0000000E+000	19.7092	2.79148	70.2908	9.77762e-07	-2.71129e-06	-4.62513e-09	-2.70666e-06	0.223643	18510.5	31.5766	18478.9
31621.1	1.55625	0.566004	1.65598	-19.9862	3.38956	0.224008	-0.0128848	8.89249	1.03884	1	9	0.00508469	0.00307049	0	2.66455e-05	0.000248523	1.10915e-05	-7.19854	0.00361227	0.0035838	0.000452646	-19.9586	1.65951	1.55984	0.566457	0.567503	0.206399	0.603871	19.9862	1038.84	2856.34	3039.39	-70.0138	0.0000000E+000	0.0000000E+000	0.0000000E+000	70.0138	0.0000000E+000	0.0000000E+000	0.0000000E+000	-70.0138	0.0000000E+000	0.0000000E+000	0.0000000E+000	-19.9862	0.0000000E+000	0.0000000E+000	0.0000000E+000	19.9862	2.74954	70.0138	1.33604e-05	-2.88629e-06	-3.20217e-09	-2.88309e-06	0.223759	17385.4	19.2881	17366.2
10002.2	1.98769	0.751058	2.12485	-20.6993	4.54056	0.224006	-0.0156782	21.1861	2.64691	1	9	0.00497975	0.00234358	0	3.1346e-05	3.85242e-05	1.03069e-05	-130.548	0.00439796	-0.00285907	0.00334182	-20.8109	2.12336	1.98483	0.754399	0.440242	0.166347	0.470621	20.6993	2646.91	7005.1	7488.5	-69.3007	0.0000000E+000	0.0000000E+000	0.0000000E+000	69.3007	0.0000000E+000	0.0000000E+000	0.0000000E+000	-69.3007	0.0000000E+000	0.0000000E+000	0.0000000E+000	-20.6993	0.0000000E+000	0.0000000E+000	0.0000000E+000	20.6993	2.64652	69.3007	-6.29304e-07	-3.51202e-06	-6.03991e-10	-3.51142e-06	0.223968	14287.7	2.45717	14285.2
3163.08	2.56363	1.09418	2.78737	-23.1132	5.43861	0.223802	-0.0693496	45.9857	7.08613	1	9	0.00451215	0.00161879	0	2.05484e-05	3.42479e-07	4.75337e-06	48.2608	0.00293638	0.00195487	-0.00219108	-23.056	2.7883	2.56558	1.09198	0.329964	0.140831	0.358762	23.1132	7086.13	16602.6	18051.6	-66.8868	0.0000000E+000	0.0000000E+000	0.0000000E+000	66.8868	0.0000000E+000	0.0000000E+000	0.0000000E+000	-66.8868	0.0000000E+000	0.0000000E+000	0.0000000E+000	-23.1132	0.0000000E+000	0.0000000E+000	0.0000000E+000	23.1132	2.34298	66.8868	-6.0193e-06	-1.55206e-05	-2.37508e-11	-1.55206e-05	0.223802	3227.16	0.00493844	3227.15
1000.32	3.34558	1.73841	3.77028	-27.4569	7.25182	0.223952	-0.0285833	91.5229	19.4574	1	10	0.0049085	0.00130189	0	2.96376e-05	-1.87484e-05	5.46378e-06	-131.119	0.00419679	-0.00275993	0.00316162	-27.5189	3.76929	3.34282	1.74157	0.235356	0.122294	0.265232	27.4569	19457.4	37446.1	42199.5	-62.5431	0.0000000E+000	0.0000000E+000	0.0000000E+000	62.5431	0.0000000E+000	0.0000000E+000	0.0000000E+000	-62.5431	0.0000000E+000	0.0000000E+000	0.0000000E+000	-27.4569	0.0000000E+000	0.0000000E+000	0.0000000E+000	27.4569	1.92451	62.5431	-2.74427e-06	-6.40128e-06	5.35891e-10	-6.40182e-06	0.22397	7835.04	0.655919	7835.7
316.316	4.71569	3.168	5.68101	-33.8932	8.60203	0.223947	-0.0285722	158.823	49.3892	1	10	0.00481506	0.00084757	0	1.88772e-05	5.7615e-05	8.98181e-06	75.0521	0.0105971	0.00273343	-0.0102385	-33.792	5.67758	4.71842	3.15776	0.146115	0.0981597	0.176025	33.8932	49389.2	73517.8	88567.3	-56.1068	0.0000000E+000	0.0000000E+000	0.0000000E+000	56.1068	0.0000000E+000	0.0000000E+000	0.0000000E+000	-56.1068	0.0000000E+000	0.0000000E+000	0.0000000E+000	-33.8932	0.0000000E+000	0.0000000E+000	0.0000000E+000	33.8932	1.48854	56.1068	-3.70303e-06	-6.39866e-06	-1.64619e-09	-6.39702e-06	0.22389	7837.95	2.01647	7835.94
100.032	8.2277	5.01941	9.63792	-31.3858	9.94981	0.223945	-0.0282034	316.978	85.974	1	10	0.00480159	0.000498198	0	7.77805e-06	9.57967e-05	6.96946e-06	-5.75395	0.0139893	0.0139189	0.00140252	-31.3498	9.65053	8.24162	5.02081	0.0885752	0.0540363	0.103757	31.3858	85974	140927	165081	-58.6142	0.0000000E+000	0.0000000E+000	0.0000000E+000	58.6142	0.0000000E+000	0.0000000E+000	0.0000000E+000	-58.6142	0.0000000E+000	0.0000000E+000	0.0000000E+000	-31.3858	0.0000000E+000	0.0000000E+000	0.0000000E+000	31.3858	1.63918	58.6142	-2.97962e-06	-6.31601e-06	-2.70179e-09	-6.31331e-06	0.223849	7940.36	3.39664	7936.96
31.6296	12.853	4.31317	13.5574	-18.5506	11.2786	0.223941	-0.0324352	1166.62	118.079	1	10	0.00478486	0.000352933	0	-2.86057e-06	0.000191251	1.03563e-05	-22.9058	0.0293436	0.0270298	0.0114211	-18.56	13.5867	12.88	4.32459	0.0699281	0.0234663	0.0737605	18.5506	118078	351867	371151	-71.4494	0.0000000E+000	0.0000000E+000	0.0000000E+000	71.4494	0.0000000E+000	0.0000000E+000	0.0000000E+000	-71.4494	0.0000000E+000	0.0000000E+000	0.0000000E+000	-18.5506	0.0000000E+000	0.0000000E+000	0.0000000E+000	18.5506	2.97994	71.4494	-4.29172e-06	-7.26359e-06	-6.20327e-09	-7.25739e-06	0.22375	6904.26	5.89639	6898.37
10.0032	15.264	2.58321	15.4811	-9.60544	12.8598	0.223988	-0.0126624	6159.15	171.49	1	11	0.00478812	0.000309288	0	-1.11584e-05	0.000286705	1.05964e-05	-71.5271	0.0342605	0.0108557	0.0324952	-9.7172	15.4972	15.2749	2.61571	0.0636893	0.0107785	0.0645949	9.60544	171490	1.01332e+06	1.02773e+06	-80.3946	0.0000000E+000	0.0000000E+000	0.0000000E+000	80.3946	0.0000000E+000	0.0000000E+000	0.0000000E+000	-80.3946	0.0000000E+000	0.0000000E+000	0.0000000E+000	-9.60544	0.0000000E+000	0.0000000E+000	0.0000000E+000	9.60544	5.90894	80.3946	-3.95666e-06	-2.83622e-06	-3.63037e-09	-2.83259e-06	0.223701	17689.2	22.6423	17666.6
3.1604	16.3692	1.66722	16.4539	-5.81559	14.3764	0.224	-0.0109624	30205.4	310.124	1	11	0.00478628	0.000290891	0	-1.76688e-05	0.000229433	6.81837e-06	-34.4124	0.0234396	0.0193375	0.0132468	-5.85461	16.4745	16.3885	1.68047	0.0604631	0.00615825	0.0607759	5.81559	310124	3.04487e+06	3.06063e+06	-84.1844	0.0000000E+000	0.0000000E+000	0.0000000E+000	84.1844	0.0000000E+000	0.0000000E+000	0.0000000E+000	-84.1844	0.0000000E+000	0.0000000E+000	0.0000000E+000	-5.81559	0.0000000E+000	0.0000000E+000	0.0000000E+000	5.81559	9.81824	84.1844	-6.1154e-06	-2.45557e-06	-2.51513e-09	-2.45305e-06	0.22377	20433.5	20.9291	20412.6
1.00006	17.2387	1.63383	17.316	-5.41412	20.0146	0.223998	-0.0114984	97406.1	867.17	1	12	0.00478972	0.000276607	0	-2.39059e-05	0.000267614	3.69666e-06	-3.22022	0.0133643	0.0133432	0.000750722	-5.41243	17.3293	17.2521	1.63458	0.0574925	0.00544894	0.0577501	5.41412	867170	9.14963e+06	9.19063e+06	-84.5859	0.0000000E+000	0.0000000E+000	0.0000000E+000	84.5859	0.0000000E+000	0.0000000E+000	0.0000000E+000	-84.5859	0.0000000E+000	0.0000000E+000	0.0000000E+000	-5.41412	0.0000000E+000	0.0000000E+000	0.0000000E+000	5.41412	10.5511	84.5859	-3.29048e-07	-2.57563e-06	-3.07715e-09	-2.57255e-06	0.22373	19480.7	23.274	19457.4
0.316193	18.267	2.22195	18.4017	-6.93524	34.3582	0.223998	-0.00835836	226534	3302.84	1	12	0.00478834	0.000260212	0	-7.30788e-05	7.67059e-05	3.20239e-06	5.64638	0.0123068	0.0122471	-0.00121085	-6.9269	18.4137	18.2793	2.22074	0.0539453	0.00656176	0.0543429	6.93524	3.30285e+06	2.71532e+07	2.73533e+07	-83.0648	0.0000000E+000	0.0000000E+000	0.0000000E+000	83.0648	0.0000000E+000	0.0000000E+000	0.0000000E+000	-83.0648	0.0000000E+000	0.0000000E+000	0.0000000E+000	-6.93524	0.0000000E+000	0.0000000E+000	0.0000000E+000	6.93524	8.22116	83.0648	-3.38101e-05	-1.87225e-06	-6.41135e-10	-1.87161e-06	0.223921	26799.2	9.17714	26790.1
0.0999041	19.7833	3.88321	20.1608	-11.1052	79.5664	0.223996	-0.0123817	410247	15219.9	1	12	0.00479015	0.000237597	0	-0.000293832	0.00017216	3.02233e-06	-1.65851	0.0127204	0.0127151	0.000368159	-11.0993	20.1734	19.796	3.88358	0.0486723	0.00955375	0.0496011	11.1052	1.52199e+07	7.75388e+07	7.90184e+07	-78.8948	0.0000000E+000	0.0000000E+000	0.0000000E+000	78.8948	0.0000000E+000	0.0000000E+000	0.0000000E+000	-78.8948	0.0000000E+000	0.0000000E+000	0.0000000E+000	-11.1052	0.0000000E+000	0.0000000E+000	0.0000000E+000	11.1052	5.09458	78.8948	-8.36777e-05	-2.77345e-06	-2.13163e-09	-2.77132e-06	0.223824	18090.9	13.9044	18077
0.0315922	22.3595	8.01013	23.751	-19.7097	222.451	0.223996	-0.0127912	628927	71534.7	1	12	0.00478899	0.000201633	0	-0.000459652	0.000153069	2.43823e-06	22.3866	0.0120924	0.0111811	-0.00460544	-19.6902	23.76	22.3707	8.00553	0.0396368	0.0141996	0.0421035	19.7097	7.15347e+07	1.99682e+08	2.12109e+08	-70.2903	0.0000000E+000	0.0000000E+000	0.0000000E+000	70.2903	0.0000000E+000	0.0000000E+000	0.0000000E+000	-70.2903	0.0000000E+000	0.0000000E+000	0.0000000E+000	-19.7097	0.0000000E+000	0.0000000E+000	0.0000000E+000	19.7097	2.7914	70.2903	-5.24784e-05	-2.86517e-06	-1.95793e-09	-2.86322e-06	0.223843	17511.8	11.9668	17499.8
0.0100092	28.4708	17.6256	33.485	-31.7606	673.674	0.223998	-0.0144917	902150	249956	1	12	0.00479013	0.000143053	0	-0.00245306	9.57967e-05	2.18701e-06	-2.55904	0.0152881	0.0152729	0.000682595	-31.7479	33.4984	28.4861	17.6262	0.0253921	0.0157196	0.0298641	31.7606	2.49956e+08	4.03757e+08	4.74866e+08	-58.2394	0.0000000E+000	0.0000000E+000	0.0000000E+000	58.2394	0.0000000E+000	0.0000000E+000	0.0000000E+000	-58.2394	0.0000000E+000	0.0000000E+000	0.0000000E+000	-31.7606	0.0000000E+000	0.0000000E+000	0.0000000E+000	31.7606	1.61531	58.2394	-0.00118049	-3.2461e-06	-1.38825e-09	-3.24471e-06	0.223902	15457	6.61047	15450.4