File: txt/18610_R301_UA697_SOC00_C08.mpt
EC-Lab ASCII FILE
Nb header lines : 65

Potentio Electrochemical Impedance Spectroscopy

Run on channel : 8 (SN 65398)
User :
CE vs. WE compliance from -10 V to 10 V
Electrode connection : standard
Potential control : Ewe
Ewe ctrl range : min = -10.00 V, max = 10.00 V
Safety Limits :
	Do not start on E overload
Acquisition started on : 10/27/2025 16:24:52.507
Technique started on : 10/27/2025 16:24:54.418
Loaded Setting File :  C:\Users\Celltest\OneDrive - store-dot.com\Documents\EC-Lab\Data\@Biologic Test Protocols\anode half cell EIS SOC00.mps
Saved on :
	File : 18610_R301_UA697_SOC00_C08.mpr
	Directory : C:\Users\Celltest\OneDrive - store-dot.com\Documents\EC-Lab\Data\Gyutae\
	Host : 169.254.61.224
Device : VMP-3e (SN .003165)
Address : USB
EC-LAB for windows v11.62 (software)
Internet server v27.00 (firmware)
Command interpretor v12.03 (firmware)
Electrode material :
Initial state :
Electrolyte :
Comments :
Electrode surface area : 0.001 cm²
Characteristic mass : 0.001 g
Equivalent Weight : 0.000 g/eq.
Density : 0.000 g/cm3
Volume (V) : 0.001 cm³
Record Ece
Cycle Definition : Charge/Discharge alternance
Mode                Single sine
E (V)               0.0000
vs.                 Eoc
tE (h:m:s)          0:00:0.0000
record              0
dI                  0.000
unit dI             mA
dt (s)              0.000
fi                  100.000
unit fi             kHz
ff                  10.000
unit ff             mHz
Nd                  6
Points              per decade
spacing             Logarithmic
Va (mV)             5.0
pw                  0.10
Na                  2
corr                0
E range min (V)     -10.000
E range max (V)     10.000
I Range             Auto
Bandwidth           5
nc cycles           0
goto Ns'            0
nr cycles           0
inc. cycle          0

freq/Hz	Re(Z)/Ohm	-Im(Z)/Ohm	|Z|/Ohm	Phase(Z)/deg	time/s	<Ewe>/V	<I>/mA	Cs/µF	Cp/µF	cycle number	I Range	|Ewe|/V	|I|/A	Ns	(Q-Qo)/mA.h	<Ece>/V	|Ece|/V	Phase(Zce)/deg	|Zce|/Ohm	Re(Zce)/Ohm	-Im(Zce)/Ohm	Phase(Zwe-ce)/deg	|Zwe-ce|/Ohm	Re(Zwe-ce)/Ohm	-Im(Zwe-ce)/Ohm	Re(Y)/Ohm-1	Im(Y)/Ohm-1	|Y|/Ohm-1	Phase(Y)/deg	Re(C)/nF	Im(C)/nF	|C|/nF	Phase(C)/deg	Re(M)	Im(M)	|M|	Phase(M)/deg	Re(Permittivity)	Im(Permittivity)	|Permittivity|	Phase(Permittivity)/deg	Re(Resistivity)/Ohm.cm	Im(Resistivity)/Ohm.cm	|Resistivity|/Ohm.cm	Phase(Resistivity)/deg	Re(Conductivity)/mS/cm	Im(Conductivity)/mS/cm	|Conductivity|/mS/cm	Phase(Conductivity)/deg	Tan(Delta)	Loss Angle(Delta)/deg	dq/mA.h	Pwe/W	Pce/W	Pwe-ce/W	<Ewe-Ece>/V	Rwe/Ohm	Rce/Ohm	Rwe-ce/Ohm		Ewe-Ece/V
100004	1.11581	0.366102	1.17433	-18.1649	1.91056	0.217271	-0.00226691	4.34713	0.422497	1	9	0.00463779	0.0039493	0	-1.6587e-06	6.3091e-06	5.61125e-05	97.5185	0.0142082	-0.00185909	-0.014086	-17.5369	1.16824	1.11395	0.352015	0.80911	0.265473	0.851548	18.1649	422.497	1287.69	1355.23	-71.8351	0.0000000E+000	0.0000000E+000	0.0000000E+000	71.8351	0.0000000E+000	0.0000000E+000	0.0000000E+000	-71.8351	0.0000000E+000	0.0000000E+000	0.0000000E+000	-18.1649	0.0000000E+000	0.0000000E+000	0.0000000E+000	18.1649	3.04781	71.8351	-1.6587e-06	-4.92534e-07	-1.43022e-11	-4.9252e-07	0.217265	95844.4	2.78313	95841.7
31621.1	1.4451	0.528875	1.53884	-20.1016	3.43352	0.217257	-0.00401543	9.51676	1.12412	1	9	0.00511927	0.00332672	0	5.92841e-06	0.000178102	2.31873e-05	43.3565	0.00697003	0.00506788	-0.00478517	-19.8699	1.54196	1.45017	0.52409	0.610257	0.223341	0.649842	20.1016	1124.12	3071.53	3270.77	-69.8984	0.0000000E+000	0.0000000E+000	0.0000000E+000	69.8984	0.0000000E+000	0.0000000E+000	0.0000000E+000	-69.8984	0.0000000E+000	0.0000000E+000	0.0000000E+000	-20.1016	0.0000000E+000	0.0000000E+000	0.0000000E+000	20.1016	2.7324	69.8984	9.16368e-07	-8.72378e-07	-7.15154e-10	-8.71663e-07	0.217078	54105.5	44.3543	54061.1
10002.2	1.85888	0.719366	1.99322	-21.1559	4.45855	0.217261	-0.00449906	22.1194	2.88114	1	9	0.00505634	0.00253677	0	1.44481e-05	0.00019719	6.78147e-06	-99.8423	0.00267326	-0.000456958	0.00263392	-21.2312	1.99374	1.85842	0.722	0.467888	0.181067	0.501701	21.1559	2881.14	7445.01	7983.05	-68.8441	0.0000000E+000	0.0000000E+000	0.0000000E+000	68.8441	0.0000000E+000	0.0000000E+000	0.0000000E+000	-68.8441	0.0000000E+000	0.0000000E+000	0.0000000E+000	-21.1559	0.0000000E+000	0.0000000E+000	0.0000000E+000	21.1559	2.58405	68.8441	-8.45659e-08	-9.77472e-07	-8.87168e-10	-9.76585e-07	0.217064	48290.4	43.8291	48246.6
3163.08	2.40113	1.05097	2.62106	-23.6389	5.36166	0.217	-0.0876833	47.8762	7.69744	1	9	0.00459932	0.00175476	0	2.00123e-06	6.35733e-05	4.93613e-06	-25.072	0.002813	0.00254795	0.00119203	-23.6405	2.62387	2.40368	1.05216	0.349512	0.152981	0.381525	23.6389	7697.44	17586.2	19197	-66.3611	0.0000000E+000	0.0000000E+000	0.0000000E+000	66.3611	0.0000000E+000	0.0000000E+000	0.0000000E+000	-66.3611	0.0000000E+000	0.0000000E+000	0.0000000E+000	-23.6389	0.0000000E+000	0.0000000E+000	0.0000000E+000	23.6389	2.28468	66.3611	-9.69355e-06	-1.90273e-05	-5.57431e-09	-1.90217e-05	0.216936	2474.81	0.725033	2474.09
1000.32	3.18224	1.65014	3.58463	-27.4088	6.95979	0.217182	-0.0254257	96.4188	20.432	1	10	0.00460473	0.00128457	0	1.18151e-05	0.000159014	9.15723e-06	33.9079	0.00712862	0.0059163	-0.00397676	-27.3089	3.58806	3.18816	1.64616	0.247653	0.128419	0.278969	27.4088	20432	39402.6	44385	-62.5912	0.0000000E+000	0.0000000E+000	0.0000000E+000	62.5912	0.0000000E+000	0.0000000E+000	0.0000000E+000	-62.5912	0.0000000E+000	0.0000000E+000	0.0000000E+000	-27.4088	0.0000000E+000	0.0000000E+000	0.0000000E+000	27.4088	1.92847	62.5912	1.16397e-06	-5.522e-06	-4.04303e-09	-5.51796e-06	0.217023	8541.83	6.25405	8535.57
316.316	4.5036	2.94058	5.37861	-33.1421	8.31009	0.217185	-0.0259093	171.107	51.1437	1	10	0.00450512	0.000837601	0	1.98873e-06	0.000120837	9.07306e-06	92.1201	0.0108322	-0.000400739	-0.0108248	-33.0478	5.37236	4.5032	2.92975	0.155676	0.101647	0.185922	33.1421	51143.7	78328.4	93546.9	-56.8579	0.0000000E+000	0.0000000E+000	0.0000000E+000	56.8579	0.0000000E+000	0.0000000E+000	0.0000000E+000	-56.8579	0.0000000E+000	0.0000000E+000	0.0000000E+000	-33.1421	0.0000000E+000	0.0000000E+000	0.0000000E+000	33.1421	1.53154	56.8579	-3.59368e-06	-5.62711e-06	-3.13081e-09	-5.62398e-06	0.217064	8382.51	4.66386	8377.84
100.032	7.73706	4.51273	8.95694	-30.2534	9.87179	0.217174	-0.0260655	352.567	89.4954	1	10	0.00487076	0.000543797	0	-8.43802e-06	0.000101749	6.46296e-06	-12.2837	0.0118849	0.0116128	0.00252854	-30.2299	8.96825	7.74867	4.51526	0.0964398	0.0562496	0.111645	30.2534	89495.4	153440	177632	-59.7466	0.0000000E+000	0.0000000E+000	0.0000000E+000	59.7466	0.0000000E+000	0.0000000E+000	0.0000000E+000	-59.7466	0.0000000E+000	0.0000000E+000	0.0000000E+000	-30.2534	0.0000000E+000	0.0000000E+000	0.0000000E+000	30.2534	1.7145	59.7466	-3.71895e-06	-5.66076e-06	-2.65215e-09	-5.6581e-06	0.217072	8331.84	3.9036	8327.93
31.6296	11.8333	3.77986	12.4223	-17.7148	11.2005	0.217157	-0.031772	1331.23	123.253	1	10	0.00486485	0.000391622	0	-1.82462e-05	0.000368982	7.41141e-06	19.2682	0.0189249	0.0178648	-0.00624504	-17.6624	12.4375	11.8512	3.77361	0.0766831	0.0244945	0.0805002	17.7148	123253	385857	405064	-72.2852	0.0000000E+000	0.0000000E+000	0.0000000E+000	72.2852	0.0000000E+000	0.0000000E+000	0.0000000E+000	-72.2852	0.0000000E+000	0.0000000E+000	0.0000000E+000	-17.7148	0.0000000E+000	0.0000000E+000	0.0000000E+000	17.7148	3.13062	72.2852	-3.2871e-06	-6.8995e-06	-1.17233e-08	-6.88778e-06	0.216788	6834.85	11.6134	6823.24
10.0032	13.9111	2.19357	14.083	-8.9609	12.7818	0.217208	-0.0135981	7253.19	175.972	1	11	0.00486612	0.000345531	0	-2.77561e-05	0.000159014	6.88259e-06	-6.26327	0.0199189	0.0198	0.00217309	-8.95709	14.1029	13.9309	2.19575	0.0701409	0.0110602	0.0710076	8.9609	175972	1.11597e+06	1.12976e+06	-81.0391	0.0000000E+000	0.0000000E+000	0.0000000E+000	81.0391	0.0000000E+000	0.0000000E+000	0.0000000E+000	-81.0391	0.0000000E+000	0.0000000E+000	0.0000000E+000	-8.9609	0.0000000E+000	0.0000000E+000	0.0000000E+000	8.9609	6.34176	81.0391	1.15202e-06	-2.95362e-06	-2.16229e-09	-2.95146e-06	0.217049	15973.3	11.6938	15961.6
3.1604	14.8435	1.50678	14.9198	-5.7963	14.2984	0.217203	-0.0139631	33421.6	340.88	1	11	0.0048612	0.000325822	0	-3.32031e-05	-0.000108219	3.66122e-06	110.525	0.0112369	-0.00393983	-0.0105236	-5.75761	14.9148	14.8396	1.49626	0.0666822	0.00676898	0.0670249	5.7963	340880	3.35806e+06	3.37532e+06	-84.2037	0.0000000E+000	0.0000000E+000	0.0000000E+000	84.2037	0.0000000E+000	0.0000000E+000	0.0000000E+000	-84.2037	0.0000000E+000	0.0000000E+000	0.0000000E+000	-5.7963	0.0000000E+000	0.0000000E+000	0.0000000E+000	5.7963	9.85115	84.2037	1.28856e-06	-3.03283e-06	1.51108e-09	-3.03434e-06	0.217311	15555.5	7.75036	15563.2
1.00006	15.6386	1.56265	15.7165	-5.7062	18.8898	0.217225	-0.0110581	101843	1006.8	1	11	0.00486573	0.000309595	0	-5.20397e-05	0.000178102	3.93065e-06	-8.55787	0.0126961	0.0125548	0.00188929	-5.7085	15.7291	15.6511	1.56454	0.0633123	0.00632632	0.0636275	5.7062	1.0068e+06	1.00758e+07	1.0126e+07	-84.2938	0.0000000E+000	0.0000000E+000	0.0000000E+000	84.2938	0.0000000E+000	0.0000000E+000	0.0000000E+000	-84.2938	0.0000000E+000	0.0000000E+000	0.0000000E+000	-5.7062	0.0000000E+000	0.0000000E+000	0.0000000E+000	5.7062	10.0078	84.2938	-1.46452e-05	-2.40209e-06	-1.96946e-09	-2.40012e-06	0.217047	19644	16.106	19627.9
0.316193	16.6675	2.20414	16.8126	-7.53318	34.7447	0.217224	-0.0174343	228365	3924.97	1	12	0.00486625	0.000289441	0	-0.000133154	0.000101749	3.98964e-06	12.0679	0.013784	0.0134793	-0.00288183	-7.51744	16.8256	16.681	2.20126	0.0589658	0.00779775	0.0594792	7.53318	3.92497e+06	2.96803e+07	2.99387e+07	-82.4668	0.0000000E+000	0.0000000E+000	0.0000000E+000	82.4668	0.0000000E+000	0.0000000E+000	0.0000000E+000	-82.4668	0.0000000E+000	0.0000000E+000	0.0000000E+000	-7.53318	0.0000000E+000	0.0000000E+000	0.0000000E+000	7.53318	7.56191	82.4668	-2.46184e-05	-3.78715e-06	-1.77393e-09	-3.78538e-06	0.217123	12459.6	5.83617	12453.8
0.0999041	18.1895	3.81636	18.5856	-11.8494	79.9526	0.217222	-0.0200979	417434	17600.9	1	12	0.0048666	0.000261848	0	-0.000236572	0.00019719	2.9682e-06	4.49371	0.0113356	0.0113007	-0.000888139	-11.8396	18.5964	18.2008	3.81547	0.0526586	0.0110484	0.0538052	11.8494	1.76009e+07	8.38893e+07	8.57158e+07	-78.1506	0.0000000E+000	0.0000000E+000	0.0000000E+000	78.1506	0.0000000E+000	0.0000000E+000	0.0000000E+000	-78.1506	0.0000000E+000	0.0000000E+000	0.0000000E+000	-11.8494	0.0000000E+000	0.0000000E+000	0.0000000E+000	11.8494	4.7662	78.1506	-6.05848e-05	-4.3657e-06	-3.9631e-09	-4.36174e-06	0.217024	10808.2	9.81144	10798.3
0.0315922	20.7331	7.89881	22.1867	-20.8557	222.837	0.217213	-0.0275954	637792	80837.9	1	12	0.00486661	0.000219348	0	-0.0014568	0.000120837	2.57565e-06	-27.9371	0.0117423	0.0103739	0.00550129	-20.8594	22.1984	20.7434	7.90431	0.0421189	0.0160463	0.045072	20.8557	8.08379e+07	2.12186e+08	2.27063e+08	-69.1443	0.0000000E+000	0.0000000E+000	0.0000000E+000	69.1443	0.0000000E+000	0.0000000E+000	0.0000000E+000	-69.1443	0.0000000E+000	0.0000000E+000	0.0000000E+000	-20.8557	0.0000000E+000	0.0000000E+000	0.0000000E+000	20.8557	2.62484	69.1443	-0.000690204	-5.9941e-06	-3.33456e-09	-5.99076e-06	0.217092	7871.35	4.37889	7866.97
0.0146812	24.5345	12.9511	27.743	-27.8284	463.877	0.217219	-0.0334513	837050	182415	1	12	0.00486579	0.000175388	0	-0.003997	0.000178102	2.79442e-06	-21.7684	0.0159328	0.0147966	0.00590876	-27.825	27.7588	24.5493	12.957	0.0318765	0.0168268	0.0360451	27.8284	1.82415e+08	3.45565e+08	3.90756e+08	-62.1716	0.0000000E+000	0.0000000E+000	0.0000000E+000	62.1716	0.0000000E+000	0.0000000E+000	0.0000000E+000	-62.1716	0.0000000E+000	0.0000000E+000	0.0000000E+000	-27.8284	0.0000000E+000	0.0000000E+000	0.0000000E+000	27.8284	1.89439	62.1716	-0.0014646	-7.26625e-06	-5.95773e-09	-7.26029e-06	0.21704	6493.57	5.3242	6488.25