File: txt/18689_R307_UC91_23p8_SOC50_C01.mpt
EC-Lab ASCII FILE
Nb header lines : 65

Potentio Electrochemical Impedance Spectroscopy

Run on channel : 1 (SN 66354)
User :
CE vs. WE compliance from -10 V to 10 V
Electrode connection : standard
Potential control : Ewe
Ewe ctrl range : min = -10.00 V, max = 10.00 V
Safety Limits :
	Do not start on E overload
Acquisition started on : 10/28/2025 15:55:22.292
Technique started on : 10/28/2025 15:55:24.987
Loaded Setting File :  C:\Users\Celltest\OneDrive - store-dot.com\Documents\EC-Lab\Data\@Biologic Test Protocols\cathode half cell EIS SOC50.mps
Saved on :
	File : 18689_R307_UC91_23p8_SOC50_C01.mpr
	Directory : C:\Users\Celltest\OneDrive - store-dot.com\Documents\EC-Lab\Data\Anna\
	Host : 169.254.61.224
Device : VMP-3e (SN .003165)
Address : USB
EC-LAB for windows v11.62 (software)
Internet server v27.00 (firmware)
Command interpretor v12.03 (firmware)
Electrode material :
Initial state :
Electrolyte :
Comments :
Electrode surface area : 0.001 cm²
Characteristic mass : 0.001 g
Equivalent Weight : 0.000 g/eq.
Density : 0.000 g/cm3
Volume (V) : 0.001 cm³
Record Ece
Cycle Definition : Charge/Discharge alternance
Mode                Multi sine
E (V)               0.0000
vs.                 Eoc
tE (h:m:s)          0:00:0.0000
record              0
dI                  0.000
unit dI             mA
dt (s)              0.000
fi                  1.000
unit fi             MHz
ff                  0.100
unit ff             mHz
Nd                  10
Points              per decade
spacing             Logarithmic
Va (mV)             5.0
pw                  0.10
Na                  2
corr                0
E range min (V)     -10.000
E range max (V)     10.000
I Range             Auto
Bandwidth           5
nc cycles           0
goto Ns'            0
nr cycles           0
inc. cycle          0

freq/Hz	Re(Z)/Ohm	-Im(Z)/Ohm	|Z|/Ohm	Phase(Z)/deg	time/s	<Ewe>/V	<I>/mA	Cs/µF	Cp/µF	cycle number	I Range	|Ewe|/V	|I|/A	Ns	(Q-Qo)/mA.h	<Ece>/V	|Ece|/V	Phase(Zce)/deg	|Zce|/Ohm	Re(Zce)/Ohm	-Im(Zce)/Ohm	Phase(Zwe-ce)/deg	|Zwe-ce|/Ohm	Re(Zwe-ce)/Ohm	-Im(Zwe-ce)/Ohm	Re(Y)/Ohm-1	Im(Y)/Ohm-1	|Y|/Ohm-1	Phase(Y)/deg	Re(C)/nF	Im(C)/nF	|C|/nF	Phase(C)/deg	Re(M)	Im(M)	|M|	Phase(M)/deg	Re(Permittivity)	Im(Permittivity)	|Permittivity|	Phase(Permittivity)/deg	Re(Resistivity)/Ohm.cm	Im(Resistivity)/Ohm.cm	|Resistivity|/Ohm.cm	Phase(Resistivity)/deg	Re(Conductivity)/mS/cm	Im(Conductivity)/mS/cm	|Conductivity|/mS/cm	Phase(Conductivity)/deg	Tan(Delta)	Loss Angle(Delta)/deg	dq/mA.h	Pwe/W	Pce/W	Pwe-ce/W	<Ewe-Ece>/V	Rwe/Ohm	Rce/Ohm	Rwe-ce/Ohm		Ewe-Ece/V
1.00002e+06	1.92176	2.65599	3.27833	-54.1121	2.69455	3.96717	0.00275747	0.0599218	0.0393308	1	10	0.000217287	6.62796e-05	0	4.88739e-06	0.000154958	0.000189273	-69.6729	2.85567	0.992003	2.67783	-61.3531	6.07781	2.91377	5.33383	0.178811	0.247127	0.305033	54.1121	39.3308	28.4581	48.5466	-35.8879	0.0000000E+000	0.0000000E+000	0.0000000E+000	35.8879	0.0000000E+000	0.0000000E+000	0.0000000E+000	-35.8879	0.0000000E+000	0.0000000E+000	0.0000000E+000	-54.1121	0.0000000E+000	0.0000000E+000	0.0000000E+000	54.1121	0.723558	35.8879	4.88739e-06	1.09394e-05	4.27293e-10	1.09389e-05	3.96702	1.4387e+06	56.1957	1.43864e+06
251206	1.0237	0.40326	1.10027	-21.5006	5.39854	3.96693	0.0418321	1.5711	0.211047	1	9	0.00285376	0.0025937	0	3.77209e-05	0.00021219	9.31967e-05	116.008	0.0359319	-0.0157559	-0.0322933	-20.2057	1.07404	1.00795	0.370966	0.845626	0.333111	0.908871	21.5006	211.047	535.758	575.827	-68.4994	0.0000000E+000	0.0000000E+000	0.0000000E+000	68.4994	0.0000000E+000	0.0000000E+000	0.0000000E+000	-68.4994	0.0000000E+000	0.0000000E+000	0.0000000E+000	-21.5006	0.0000000E+000	0.0000000E+000	0.0000000E+000	21.5006	2.53857	68.4994	5.3842e-06	0.000165945	8.87635e-09	0.000165936	3.96672	94829.9	5.07243	94824.8
63093.8	1.56067	1.18143	1.95741	-37.1258	7.69656	3.96686	0.0682081	2.13514	0.777817	1	9	0.00503222	0.00257086	0	7.25091e-05	7.86489e-05	2.22802e-05	77.6098	0.00866647	0.00185955	-0.00846462	-36.895	1.9538	1.56252	1.17296	0.407331	0.30835	0.51088	37.1258	777.817	1027.5	1288.7	-52.8742	0.0000000E+000	0.0000000E+000	0.0000000E+000	52.8742	0.0000000E+000	0.0000000E+000	0.0000000E+000	-52.8742	0.0000000E+000	0.0000000E+000	0.0000000E+000	-37.1258	0.0000000E+000	0.0000000E+000	0.0000000E+000	37.1258	1.321	52.8742	1.11869e-05	0.000270572	5.36449e-09	0.000270567	3.96678	58158.1	1.15307	58157
15847.7	3.08697	2.22163	3.80329	-35.7418	10.2446	3.96684	0.0584847	4.52047	1.54243	1	9	0.00494504	0.0013002	0	0.000115079	0.000269422	1.32067e-05	-104.106	0.0101574	-0.00247547	0.00985114	-35.8839	3.80704	3.08449	2.23148	0.21341	0.153586	0.26293	35.7418	1542.43	2143.23	2640.55	-54.2582	0.0000000E+000	0.0000000E+000	0.0000000E+000	54.2582	0.0000000E+000	0.0000000E+000	0.0000000E+000	-54.2582	0.0000000E+000	0.0000000E+000	0.0000000E+000	-35.7418	0.0000000E+000	0.0000000E+000	0.0000000E+000	35.7418	1.38951	54.2582	7.00435e-06	0.000232	1.57571e-08	0.000231984	3.96657	67827	4.60671	67822.4
3983.6	5.27112	3.24239	6.18852	-31.5967	12.1241	3.96667	-0.0273413	12.3219	3.38249	1	10	0.00483978	0.000782058	0	0.000117503	0.000154958	7.48014e-06	22.1246	0.00956469	0.00886041	-0.00360227	-31.5253	6.19418	5.27998	3.23879	0.137635	0.0846626	0.16159	31.5967	3382.49	5498.87	6455.91	-58.4033	0.0000000E+000	0.0000000E+000	0.0000000E+000	58.4033	0.0000000E+000	0.0000000E+000	0.0000000E+000	-58.4033	0.0000000E+000	0.0000000E+000	0.0000000E+000	-31.5967	0.0000000E+000	0.0000000E+000	0.0000000E+000	31.5967	1.62569	58.4034	-2.63687e-06	-0.000108454	-4.23675e-09	-0.00010845	3.96652	145080	5.66755	145074
1000.32	8.84065	5.10616	10.2093	-30.0098	14.7518	3.96665	0.00201209	31.1592	7.79441	1	10	0.00461429	0.000451969	0	0.000116881	0.000250345	8.76831e-06	6.57918	0.0194003	0.0192725	-0.0022228	-29.945	10.2249	8.85992	5.10394	0.0848187	0.0489894	0.0979498	30.0098	7794.41	13495	15584.2	-59.9902	0.0000000E+000	0.0000000E+000	0.0000000E+000	59.9902	0.0000000E+000	0.0000000E+000	0.0000000E+000	-59.9902	0.0000000E+000	0.0000000E+000	0.0000000E+000	-30.0098	0.0000000E+000	0.0000000E+000	0.0000000E+000	30.0098	1.73137	59.9902	7.13552e-07	7.98128e-06	5.03717e-10	7.98077e-06	3.9664	1.9714e+06	124.42	1.97128e+06
251.044	14.8856	5.3803	15.8281	-19.8721	17.452	3.96664	0.00118844	117.832	13.615	1	10	0.00457474	0.000289026	0	0.000118342	0.000154958	3.67685e-06	64.2445	0.0127215	0.00552789	-0.0114577	-19.8263	15.8294	14.8911	5.36885	0.0594167	0.0214758	0.0631788	19.8721	13615.1	37668.5	40053.6	-70.1279	0.0000000E+000	0.0000000E+000	0.0000000E+000	70.1279	0.0000000E+000	0.0000000E+000	0.0000000E+000	-70.1279	0.0000000E+000	0.0000000E+000	0.0000000E+000	-19.8721	0.0000000E+000	0.0000000E+000	0.0000000E+000	19.8721	2.76668	70.1279	1.14026e-08	4.7141e-06	1.84158e-10	4.71391e-06	3.96648	3.33769e+06	130.388	3.33756e+06
63.0823	18.8737	2.86375	19.0897	-8.62781	20.172	3.96665	0.00541851	881.004	19.8266	1	10	0.0045683	0.000239307	0	0.000119916	0.000154958	4.07541e-06	97.379	0.0170301	-0.0021872	-0.016889	-8.57866	19.085	18.8715	2.84686	0.0517914	0.00785843	0.0523842	8.62781	19826.6	130668	132164	-81.3722	0.0000000E+000	0.0000000E+000	0.0000000E+000	81.3722	0.0000000E+000	0.0000000E+000	0.0000000E+000	-81.3722	0.0000000E+000	0.0000000E+000	0.0000000E+000	-8.62781	0.0000000E+000	0.0000000E+000	0.0000000E+000	8.62781	6.59056	81.3722	7.16592e-07	2.14934e-05	8.39642e-10	2.14925e-05	3.9665	732056	28.5979	732027
15.8576	20.2142	1.38992	20.2619	-3.93346	23.075	3.96671	-0.0011187	7220.91	33.9792	1	11	0.00456963	0.000225528	0	0.000120544	-1.67377e-05	8.6543e-06	1.08568	0.0383735	0.0383666	-0.000727081	-3.92398	20.3002	20.2526	1.3892	0.0492374	0.00338555	0.0493536	3.93346	33979.2	494172	495339	-86.0665	0.0000000E+000	0.0000000E+000	0.0000000E+000	86.0665	0.0000000E+000	0.0000000E+000	0.0000000E+000	-86.0665	0.0000000E+000	0.0000000E+000	0.0000000E+000	-3.93346	0.0000000E+000	0.0000000E+000	0.0000000E+000	3.93346	14.5434	86.0665	4.00332e-08	-4.43757e-06	1.87245e-11	-4.43759e-06	3.96673	3.54581e+06	14.9617	3.54583e+06
3.97785	20.8919	0.980925	20.9149	-2.68821	25.9863	3.96673	0.00142138	40788.3	89.7216	1	11	0.00456536	0.000218283	0	0.000118022	0.000231267	1.98049e-06	-43.5609	0.00907302	0.00657469	0.00625245	-2.70446	20.9217	20.8984	0.987177	0.0477603	0.00224246	0.0478129	2.68821	89721.5	1.9109e+06	1.91301e+06	-87.3118	0.0000000E+000	0.0000000E+000	0.0000000E+000	87.3118	0.0000000E+000	0.0000000E+000	0.0000000E+000	-87.3118	0.0000000E+000	0.0000000E+000	0.0000000E+000	-2.68821	0.0000000E+000	0.0000000E+000	0.0000000E+000	2.68821	21.2981	87.3118	-2.22809e-06	5.63822e-06	3.28718e-10	5.63789e-06	3.9665	2.79076e+06	162.706	2.7906e+06
1.00469	21.9415	1.0951	21.9688	-2.85726	240.799	3.9667	-0.000534676	144655	359.44	1	11	0.0050062	0.000227878	0	-0.000749688	0.00021219	3.9956e-07	-1.34091	0.00175339	0.00175291	4.10315e-05	-2.85713	21.9705	21.9432	1.09514	0.0454626	0.00226903	0.0455191	2.85726	359440	7.20179e+06	7.21075e+06	-87.1427	0.0000000E+000	0.0000000E+000	0.0000000E+000	87.1427	0.0000000E+000	0.0000000E+000	0.0000000E+000	-87.1427	0.0000000E+000	0.0000000E+000	0.0000000E+000	-2.85726	0.0000000E+000	0.0000000E+000	0.0000000E+000	2.85726	20.0361	87.1427	-0.000870246	-2.1209e-06	-1.13453e-10	-2.12079e-06	3.96649	7.41888e+06	396.857	7.41848e+06
0.251173	22.9493	1.81352	23.0209	-4.51828	240.799	3.9667	-0.000534676	349402	2168.33	1	11	0.00503291	0.000218624	0	-0.000749688	0.00021219	7.68242e-08	52.0442	0.000351399	0.000216129	-0.000277073	-4.51755	23.021	22.9495	1.81324	0.0433039	0.00342199	0.0434389	4.51828	2.16833e+06	2.74393e+07	2.75248e+07	-85.4817	0.0000000E+000	0.0000000E+000	0.0000000E+000	85.4817	0.0000000E+000	0.0000000E+000	0.0000000E+000	-85.4817	0.0000000E+000	0.0000000E+000	0.0000000E+000	-4.51828	0.0000000E+000	0.0000000E+000	0.0000000E+000	4.51828	12.6546	85.4817	0.000000000000000E+000	-2.1209e-06	-1.13453e-10	-2.12079e-06	3.96649	7.41888e+06	396.857	7.41848e+06
0.0602816	24.6256	3.18409	24.8306	-7.36746	240.8	3.9667	-0.000534676	829183	13634.7	1	11	0.00502645	0.00020243	0	-0.000749688	0.00021219	3.80225e-07	-44.4135	0.00187831	0.00134169	0.0013145	-7.37007	24.8321	24.6269	3.1854	0.0399404	0.00516428	0.0402729	7.36746	1.36347e+07	1.0545e+08	1.06328e+08	-82.6325	0.0000000E+000	0.0000000E+000	0.0000000E+000	82.6325	0.0000000E+000	0.0000000E+000	0.0000000E+000	-82.6325	0.0000000E+000	0.0000000E+000	0.0000000E+000	-7.36746	0.0000000E+000	0.0000000E+000	0.0000000E+000	7.36746	7.73396	82.6325	0.000000000000000E+000	-2.1209e-06	-1.13453e-10	-2.12079e-06	3.96649	7.41888e+06	396.857	7.41848e+06
0.00796479	33.8538	6.97943	34.5657	-11.6491	20329.7	3.96671	0.000679038	2.86303e+06	116728	1	11	0.00502026	0.000145238	0	-0.00367009	0.00021219	3.5388e-07	-8.42409	0.00243655	0.00241026	0.000356952	-11.6489	34.5682	33.8562	6.97979	0.0283345	0.00584155	0.0289304	11.6491	1.16728e+08	5.66189e+08	5.78096e+08	-78.3509	0.0000000E+000	0.0000000E+000	0.0000000E+000	78.3509	0.0000000E+000	0.0000000E+000	0.0000000E+000	-78.3509	0.0000000E+000	0.0000000E+000	0.0000000E+000	-11.6491	0.0000000E+000	0.0000000E+000	0.0000000E+000	11.6491	4.8505	78.3509	-0.0029204	2.69355e-06	1.44085e-10	2.6934e-06	3.96649	5.84165e+06	312.486	5.84134e+06
0.0019912	40.2498	10.1499	41.5099	-14.1533	20329.7	3.96671	0.000679038	7.87489e+06	470831	1	11	0.00503299	0.000121248	0	-0.00367009	0.00021219	4.90172e-07	-16.8194	0.00404272	0.00386978	0.00116978	-14.1536	41.5139	40.2537	10.1511	0.0233594	0.00589059	0.0240907	14.1533	4.70831e+08	1.8671e+09	1.92555e+09	-75.8467	0.0000000E+000	0.0000000E+000	0.0000000E+000	75.8467	0.0000000E+000	0.0000000E+000	0.0000000E+000	-75.8467	0.0000000E+000	0.0000000E+000	0.0000000E+000	-14.1533	0.0000000E+000	0.0000000E+000	0.0000000E+000	14.1533	3.96554	75.8467	0.000000000000000E+000	2.69355e-06	1.44085e-10	2.6934e-06	3.96649	5.84165e+06	312.486	5.84134e+06
0.000497799	44.3759	18.2823	47.9944	-22.391	20329.7	3.96671	0.000679038	1.74878e+07	2.53755e+06	1	11	0.00503724	0.000104955	0	-0.00367009	0.00021219	4.37776e-07	-16.9272	0.0041711	0.00399039	0.00121445	-22.3906	47.9986	44.3799	18.2835	0.0192649	0.00793687	0.0208358	22.391	2.53755e+09	6.15931e+09	6.66155e+09	-67.609	0.0000000E+000	0.0000000E+000	0.0000000E+000	67.609	0.0000000E+000	0.0000000E+000	0.0000000E+000	-67.609	0.0000000E+000	0.0000000E+000	0.0000000E+000	-22.391	0.0000000E+000	0.0000000E+000	0.0000000E+000	22.391	2.42726	67.609	0.000000000000000E+000	2.69355e-06	1.44085e-10	2.6934e-06	3.96649	5.84165e+06	312.486	5.84134e+06
9.95598e-05	50.0027	89.9397	102.905	-60.9278	20329.7	3.96671	0.000679038	1.7774e+07	1.35774e+07	1	11	0.00503621	4.89404e-05	0	-0.00367009	0.00021219	1.36445e-06	-57.4349	0.0278798	0.0150065	0.0234966	-60.9269	102.933	50.0177	89.9632	0.00472194	0.00849335	0.00971771	60.9278	1.35774e+10	7.54843e+09	1.55346e+10	-29.0722	0.0000000E+000	0.0000000E+000	0.0000000E+000	29.0722	0.0000000E+000	0.0000000E+000	0.0000000E+000	-29.0722	0.0000000E+000	0.0000000E+000	0.0000000E+000	-60.9278	0.0000000E+000	0.0000000E+000	0.0000000E+000	60.9278	0.555957	29.0722	0.000000000000000E+000	2.69355e-06	1.44085e-10	2.6934e-06	3.96649	5.84165e+06	312.486	5.84134e+06