File: txt/18691_R307_UC91_23p8_SOC50_C03.mpt
EC-Lab ASCII FILE
Nb header lines : 65

Potentio Electrochemical Impedance Spectroscopy

Run on channel : 3 (SN 65921)
User :
CE vs. WE compliance from -10 V to 10 V
Electrode connection : standard
Potential control : Ewe
Ewe ctrl range : min = -10.00 V, max = 10.00 V
Safety Limits :
	Do not start on E overload
Acquisition started on : 10/28/2025 15:55:34.988
Technique started on : 10/28/2025 15:55:37.223
Loaded Setting File :  C:\Users\Celltest\OneDrive - store-dot.com\Documents\EC-Lab\Data\@Biologic Test Protocols\cathode half cell EIS SOC50.mps
Saved on :
	File : 18691_R307_UC91_23p8_SOC50_C03.mpr
	Directory : C:\Users\Celltest\OneDrive - store-dot.com\Documents\EC-Lab\Data\Anna\
	Host : 169.254.61.224
Device : VMP-3e (SN .003165)
Address : USB
EC-LAB for windows v11.62 (software)
Internet server v27.00 (firmware)
Command interpretor v12.03 (firmware)
Electrode material :
Initial state :
Electrolyte :
Comments :
Electrode surface area : 0.001 cm²
Characteristic mass : 0.001 g
Equivalent Weight : 0.000 g/eq.
Density : 0.000 g/cm3
Volume (V) : 0.001 cm³
Record Ece
Cycle Definition : Charge/Discharge alternance
Mode                Multi sine
E (V)               0.0000
vs.                 Eoc
tE (h:m:s)          0:00:0.0000
record              0
dI                  0.000
unit dI             mA
dt (s)              0.000
fi                  1.000
unit fi             MHz
ff                  0.100
unit ff             mHz
Nd                  10
Points              per decade
spacing             Logarithmic
Va (mV)             5.0
pw                  0.10
Na                  2
corr                0
E range min (V)     -10.000
E range max (V)     10.000
I Range             Auto
Bandwidth           5
nc cycles           0
goto Ns'            0
nr cycles           0
inc. cycle          0

freq/Hz	Re(Z)/Ohm	-Im(Z)/Ohm	|Z|/Ohm	Phase(Z)/deg	time/s	<Ewe>/V	<I>/mA	Cs/µF	Cp/µF	cycle number	I Range	|Ewe|/V	|I|/A	Ns	(Q-Qo)/mA.h	<Ece>/V	|Ece|/V	Phase(Zce)/deg	|Zce|/Ohm	Re(Zce)/Ohm	-Im(Zce)/Ohm	Phase(Zwe-ce)/deg	|Zwe-ce|/Ohm	Re(Zwe-ce)/Ohm	-Im(Zwe-ce)/Ohm	Re(Y)/Ohm-1	Im(Y)/Ohm-1	|Y|/Ohm-1	Phase(Y)/deg	Re(C)/nF	Im(C)/nF	|C|/nF	Phase(C)/deg	Re(M)	Im(M)	|M|	Phase(M)/deg	Re(Permittivity)	Im(Permittivity)	|Permittivity|	Phase(Permittivity)/deg	Re(Resistivity)/Ohm.cm	Im(Resistivity)/Ohm.cm	|Resistivity|/Ohm.cm	Phase(Resistivity)/deg	Re(Conductivity)/mS/cm	Im(Conductivity)/mS/cm	|Conductivity|/mS/cm	Phase(Conductivity)/deg	Tan(Delta)	Loss Angle(Delta)/deg	dq/mA.h	Pwe/W	Pce/W	Pwe-ce/W	<Ewe-Ece>/V	Rwe/Ohm	Rce/Ohm	Rwe-ce/Ohm		Ewe-Ece/V
1.00002e+06	2.41202	3.51996	4.26708	-55.5794	2.23453	3.96797	-0.0332063	0.0452141	0.0307672	1	10	0.000225911	5.29428e-05	0	-2.47885e-05	-0.000118703	0.000198607	-67.791	3.75134	1.41796	3.47304	-61.291	7.97313	3.82998	6.993	0.132471	0.19332	0.234352	55.5794	30.7672	21.083	37.2976	-34.4206	0.0000000E+000	0.0000000E+000	0.0000000E+000	34.4206	0.0000000E+000	0.0000000E+000	0.0000000E+000	-34.4206	0.0000000E+000	0.0000000E+000	0.0000000E+000	-55.5794	0.0000000E+000	0.0000000E+000	0.0000000E+000	55.5794	0.685242	34.4206	-2.47885e-05	-0.000131762	3.9417e-09	-0.000131766	3.96809	119494	3.57471	119498
251206	1.26025	0.366832	1.31256	-16.2291	4.93956	3.96755	-0.00750244	1.72712	0.134903	1	9	0.00234419	0.00178597	0	-3.13344e-05	7.22374e-05	6.35405e-05	95.7902	0.0355775	-0.00358925	-0.035396	-14.7749	1.29964	1.25666	0.331436	0.731513	0.212927	0.761872	16.2291	134.903	463.459	482.694	-73.7709	0.0000000E+000	0.0000000E+000	0.0000000E+000	73.7709	0.0000000E+000	0.0000000E+000	0.0000000E+000	-73.7709	0.0000000E+000	0.0000000E+000	0.0000000E+000	-16.2291	0.0000000E+000	0.0000000E+000	0.0000000E+000	16.2291	3.4355	73.7709	-1.20334e-06	-2.97663e-05	-5.41957e-10	-2.97658e-05	3.96748	528835	9.62853	528826
63093.8	1.79302	1.1179	2.11296	-31.9425	7.24154	3.96747	0.00327543	2.25647	0.631616	1	9	0.00537132	0.00254208	0	-3.81996e-05	-0.000252362	1.52807e-05	41.7032	0.0060111	0.00448789	-0.00399902	-31.7862	2.11466	1.7975	1.1139	0.401607	0.250392	0.47327	31.9425	631.616	1013.06	1193.83	-58.0575	0.0000000E+000	0.0000000E+000	0.0000000E+000	58.0575	0.0000000E+000	0.0000000E+000	0.0000000E+000	-58.0575	0.0000000E+000	0.0000000E+000	0.0000000E+000	-31.9425	0.0000000E+000	0.0000000E+000	0.0000000E+000	31.9425	1.60391	58.0575	2.25664e-06	1.29952e-05	-8.26594e-10	1.2996e-05	3.96773	1.21128e+06	77.0468	1.21136e+06
15847.7	3.15671	1.94195	3.70621	-31.5991	9.54153	3.96747	-0.00340016	5.17149	1.41982	1	9	0.00528973	0.00142726	0	-3.43243e-05	-0.000271456	7.34843e-06	-51.3204	0.00514863	0.00321771	0.00401929	-31.6259	3.71106	3.15993	1.94597	0.229813	0.141377	0.269817	31.5991	1419.82	2307.96	2709.72	-58.4009	0.0000000E+000	0.0000000E+000	0.0000000E+000	58.4009	0.0000000E+000	0.0000000E+000	0.0000000E+000	-58.4009	0.0000000E+000	0.0000000E+000	0.0000000E+000	-31.5991	0.0000000E+000	0.0000000E+000	0.0000000E+000	31.5991	1.62553	58.4009	-6.43079e-07	-1.349e-05	9.22994e-10	-1.3491e-05	3.96774	1.16685e+06	79.8361	1.16693e+06
3983.6	4.96939	2.83614	5.72175	-29.7144	12.0411	3.96745	-0.0419244	14.0869	3.46109	1	10	0.00536543	0.000937725	0	-5.86737e-05	-0.000252362	5.0416e-06	-5.17685	0.00537642	0.00535449	0.000485115	-29.692	5.72665	4.97474	2.83662	0.15179	0.0866301	0.174772	29.7144	3461.09	6064.41	6982.57	-60.2856	0.0000000E+000	0.0000000E+000	0.0000000E+000	60.2856	0.0000000E+000	0.0000000E+000	0.0000000E+000	-60.2856	0.0000000E+000	0.0000000E+000	0.0000000E+000	-29.7144	0.0000000E+000	0.0000000E+000	0.0000000E+000	29.7144	1.75217	60.2856	-3.3441e-06	-0.000166333	1.05801e-08	-0.000166344	3.96771	94633.4	6.01944	94639.4
1000.32	8.19238	4.52456	9.35878	-28.9114	14.6699	3.96743	-0.0432408	35.1645	8.21899	1	10	0.00503147	0.00053762	0	-9.0288e-05	7.22374e-05	8.54541e-06	-89.42	0.0158949	0.000160897	0.0158941	-28.996	9.36662	8.19255	4.54045	0.0935345	0.051658	0.106852	28.9114	8218.99	14881.7	17000.5	-61.0886	0.0000000E+000	0.0000000E+000	0.0000000E+000	61.0886	0.0000000E+000	0.0000000E+000	0.0000000E+000	-61.0886	0.0000000E+000	0.0000000E+000	0.0000000E+000	-28.9114	0.0000000E+000	0.0000000E+000	0.0000000E+000	28.9114	1.81065	61.0886	-5.17071e-06	-0.000171555	-3.1236e-09	-0.000171551	3.96736	91752.1	1.67059	91750.4
251.044	13.5315	4.65488	14.3098	-18.9834	17.37	3.96743	-0.0423943	136.195	14.4116	1	10	0.0048718	0.000340453	0	-0.000121394	-6.1421e-05	1.50983e-05	-34.6221	0.0443477	0.0364945	0.0251966	-19.0311	14.3525	13.568	4.68007	0.0660816	0.0227323	0.0698823	18.9834	14411.6	41893.9	44303.4	-71.0166	0.0000000E+000	0.0000000E+000	0.0000000E+000	71.0166	0.0000000E+000	0.0000000E+000	0.0000000E+000	-71.0166	0.0000000E+000	0.0000000E+000	0.0000000E+000	-18.9834	0.0000000E+000	0.0000000E+000	0.0000000E+000	18.9834	2.90695	71.0166	-4.91521e-06	-0.000168196	2.6039e-09	-0.000168199	3.96749	93584.1	1.4488	93585.5
63.0823	16.8285	2.43815	17.0042	-8.24376	20.089	3.96743	-0.0401532	1034.79	21.2745	1	10	0.00484266	0.000284791	0	-0.000151304	-8.05151e-05	8.59811e-06	-23.2575	0.0301909	0.0277376	0.0119213	-8.27007	17.0334	16.8563	2.45007	0.0582012	0.0084323	0.0588089	8.24376	21274.5	146840	148373	-81.7562	0.0000000E+000	0.0000000E+000	0.0000000E+000	81.7562	0.0000000E+000	0.0000000E+000	0.0000000E+000	-81.7562	0.0000000E+000	0.0000000E+000	0.0000000E+000	-8.24376	0.0000000E+000	0.0000000E+000	0.0000000E+000	8.24376	6.90217	81.7562	-5.24457e-06	-0.000159305	3.23294e-09	-0.000159308	3.96751	98807.2	2.00519	98809.2
15.8576	17.9156	1.12992	17.9512	-3.60882	22.982	3.96744	-0.0413187	8882.49	35.1922	1	11	0.00483878	0.000269552	0	-0.000184668	-0.000175985	2.05346e-05	-37.1333	0.0761804	0.0607335	0.0459879	-3.74264	18.0147	17.9763	1.17591	0.0555962	0.00350641	0.0557067	3.60882	35192.1	557992	559101	-86.3912	0.0000000E+000	0.0000000E+000	0.0000000E+000	86.3912	0.0000000E+000	0.0000000E+000	0.0000000E+000	-86.3912	0.0000000E+000	0.0000000E+000	0.0000000E+000	-3.60882	0.0000000E+000	0.0000000E+000	0.0000000E+000	3.60882	15.8556	86.3912	-5.89834e-06	-0.00016393	7.27149e-09	-0.000163937	3.96762	96020.4	4.25922	96024.6
3.97785	18.4989	0.838981	18.5179	-2.59676	25.8953	3.96746	-0.0391268	47689.1	97.8902	1	11	0.00484057	0.000261399	0	-0.000216827	-0.000156891	7.13624e-06	34.6158	0.0273002	0.0224675	-0.0155084	-2.54573	18.5397	18.5214	0.823473	0.0539463	0.00244663	0.0540017	2.59676	97890.2	2.15841e+06	2.16062e+06	-87.4032	0.0000000E+000	0.0000000E+000	0.0000000E+000	87.4032	0.0000000E+000	0.0000000E+000	0.0000000E+000	-87.4032	0.0000000E+000	0.0000000E+000	0.0000000E+000	-2.59676	0.0000000E+000	0.0000000E+000	0.0000000E+000	2.59676	22.0493	87.4032	-8.23168e-06	-0.000155234	6.13866e-09	-0.00015524	3.96761	101400	4.00982	101404
1.00469	19.2746	0.947122	19.2979	-2.81316	240.708	3.96742	-0.0291276	167256	402.879	1	11	0.00503858	0.000261095	0	-0.0031422	-0.000214174	4.52682e-07	-1.29211	0.00173378	0.00173334	3.90962e-05	-2.81302	19.2996	19.2763	0.947161	0.0517568	0.00254324	0.0518192	2.81316	402879	8.19886e+06	8.20876e+06	-87.1868	0.0000000E+000	0.0000000E+000	0.0000000E+000	87.1868	0.0000000E+000	0.0000000E+000	0.0000000E+000	-87.1868	0.0000000E+000	0.0000000E+000	0.0000000E+000	-2.81316	0.0000000E+000	0.0000000E+000	0.0000000E+000	2.81316	20.3507	87.1868	-0.00287175	-0.000115561	6.23836e-09	-0.000115568	3.96764	136208	7.35294	136216
0.251173	20.1523	1.59161	20.2151	-4.51579	240.713	3.96742	-0.0291276	398117	2467.93	1	11	0.00506589	0.0002506	0	-0.0031422	-0.000214174	3.85792e-07	8.62793	0.00153948	0.00152205	-0.000230948	-4.51479	20.2166	20.1538	1.59138	0.0493145	0.00389481	0.0494681	4.51579	2.46793e+06	3.12479e+07	3.13452e+07	-85.4842	0.0000000E+000	0.0000000E+000	0.0000000E+000	85.4842	0.0000000E+000	0.0000000E+000	0.0000000E+000	-85.4842	0.0000000E+000	0.0000000E+000	0.0000000E+000	-4.51579	0.0000000E+000	0.0000000E+000	0.0000000E+000	4.51579	12.6616	85.4842	0.000000000000000E+000	-0.000115561	6.23836e-09	-0.000115568	3.96764	136208	7.35294	136216
0.0602816	21.6643	2.75604	21.8389	-7.24997	240.717	3.96742	-0.0291276	957966	15256.6	1	11	0.00505627	0.000231526	0	-0.0031422	-0.000214174	7.70473e-07	-12.7167	0.00332781	0.00324618	0.00073255	-7.2508	21.8422	21.6676	2.75677	0.0454237	0.00577861	0.0457898	7.24997	1.52566e+07	1.19927e+08	1.20894e+08	-82.75	0.0000000E+000	0.0000000E+000	0.0000000E+000	82.75	0.0000000E+000	0.0000000E+000	0.0000000E+000	-82.75	0.0000000E+000	0.0000000E+000	0.0000000E+000	-7.24997	0.0000000E+000	0.0000000E+000	0.0000000E+000	7.24997	7.86067	82.75	0.000000000000000E+000	-0.000115561	6.23836e-09	-0.000115568	3.96764	136208	7.35294	136216
0.00796479	29.2602	6.03751	29.8766	-11.6587	20329.5	3.96745	0.00019566	3.3097e+06	135158	1	11	0.00505287	0.000169124	0	-0.0157012	-4.23269e-05	8.44895e-07	167.295	0.0049957	-0.00487339	-0.0010987	-11.6585	29.8716	29.2554	6.03641	0.0327804	0.00676385	0.033471	11.6587	1.35158e+08	6.55029e+08	6.68828e+08	-78.3413	0.0000000E+000	0.0000000E+000	0.0000000E+000	78.3413	0.0000000E+000	0.0000000E+000	0.0000000E+000	-78.3413	0.0000000E+000	0.0000000E+000	0.0000000E+000	-11.6587	0.0000000E+000	0.0000000E+000	0.0000000E+000	11.6587	4.84641	78.3413	-0.0125589	7.76271e-07	-8.28169e-12	7.76279e-07	3.96749	2.02772e+07	216.329	2.02775e+07
0.0019912	34.6149	8.90496	35.742	-14.427	20329.5	3.96745	0.00019566	8.97582e+06	557161	1	11	0.00506651	0.000141752	0	-0.0157012	-4.23269e-05	8.25619e-07	-135.176	0.00582437	-0.00413107	0.0041058	-14.435	35.739	34.6108	8.90906	0.027096	0.00697067	0.0279783	14.427	5.57161e+08	2.16577e+09	2.23629e+09	-75.573	0.0000000E+000	0.0000000E+000	0.0000000E+000	75.573	0.0000000E+000	0.0000000E+000	0.0000000E+000	-75.573	0.0000000E+000	0.0000000E+000	0.0000000E+000	-14.427	0.0000000E+000	0.0000000E+000	0.0000000E+000	14.427	3.88715	75.573	0.000000000000000E+000	7.76271e-07	-8.28169e-12	7.76279e-07	3.96749	2.02772e+07	216.329	2.02775e+07
0.000497799	37.8653	16.6932	41.3817	-23.7907	20329.6	3.96745	0.00019566	1.91525e+07	3.11666e+06	1	11	0.0050664	0.000122431	0	-0.0157012	-4.23269e-05	9.24338e-07	-69.9662	0.00754988	0.0025864	0.00709304	-23.7982	41.3869	37.8679	16.7003	0.0221118	0.00974819	0.0241653	23.7907	3.11666e+09	7.06953e+09	7.72605e+09	-66.2093	0.0000000E+000	0.0000000E+000	0.0000000E+000	66.2093	0.0000000E+000	0.0000000E+000	0.0000000E+000	-66.2093	0.0000000E+000	0.0000000E+000	0.0000000E+000	-23.7907	0.0000000E+000	0.0000000E+000	0.0000000E+000	23.7907	2.2683	66.2093	0.000000000000000E+000	7.76271e-07	-8.28169e-12	7.76279e-07	3.96749	2.02772e+07	216.329	2.02775e+07
9.95598e-05	42.909	89.6588	99.3976	-64.4251	20329.6	3.96745	0.00019566	1.78297e+07	1.4507e+07	1	11	0.00506766	5.09837e-05	0	-0.0157012	-4.23269e-05	3.22774e-06	-5.39881	0.0633092	0.0630284	0.00595661	-64.3939	99.4302	42.972	89.6648	0.00434306	0.00907489	0.0100606	64.4251	1.4507e+10	6.94276e+09	1.60827e+10	-25.5749	0.0000000E+000	0.0000000E+000	0.0000000E+000	25.5749	0.0000000E+000	0.0000000E+000	0.0000000E+000	-25.5749	0.0000000E+000	0.0000000E+000	0.0000000E+000	-64.4251	0.0000000E+000	0.0000000E+000	0.0000000E+000	64.4251	0.478581	25.5749	0.000000000000000E+000	7.76271e-07	-8.28169e-12	7.76279e-07	3.96749	2.02772e+07	216.329	2.02775e+07