File: txt/18696_R307_UC91_25_SOC50_C03.mpt
EC-Lab ASCII FILE
Nb header lines : 65

Potentio Electrochemical Impedance Spectroscopy

Run on channel : 3 (SN 65921)
User :
CE vs. WE compliance from -10 V to 10 V
Electrode connection : standard
Potential control : Ewe
Ewe ctrl range : min = -10.00 V, max = 10.00 V
Safety Limits :
	Do not start on E overload
Acquisition started on : 10/29/2025 14:38:18.091
Technique started on : 10/29/2025 14:38:20.326
Loaded Setting File :  C:\Users\Celltest\OneDrive - store-dot.com\Documents\EC-Lab\Data\@Biologic Test Protocols\cathode half cell EIS SOC50.mps
Saved on :
	File : 18696_R307_UC91_25_SOC50_C03.mpr
	Directory : C:\Users\Celltest\OneDrive - store-dot.com\Documents\EC-Lab\Data\Anna\
	Host : 169.254.61.224
Device : VMP-3e (SN .003165)
Address : USB
EC-LAB for windows v11.62 (software)
Internet server v27.00 (firmware)
Command interpretor v12.03 (firmware)
Electrode material :
Initial state :
Electrolyte :
Comments :
Electrode surface area : 0.001 cm²
Characteristic mass : 0.001 g
Equivalent Weight : 0.000 g/eq.
Density : 0.000 g/cm3
Volume (V) : 0.001 cm³
Record Ece
Cycle Definition : Charge/Discharge alternance
Mode                Multi sine
E (V)               0.0000
vs.                 Eoc
tE (h:m:s)          0:00:0.0000
record              0
dI                  0.000
unit dI             mA
dt (s)              0.000
fi                  1.000
unit fi             MHz
ff                  0.100
unit ff             mHz
Nd                  10
Points              per decade
spacing             Logarithmic
Va (mV)             5.0
pw                  0.10
Na                  2
corr                0
E range min (V)     -10.000
E range max (V)     10.000
I Range             Auto
Bandwidth           5
nc cycles           0
goto Ns'            0
nr cycles           0
inc. cycle          0

freq/Hz	Re(Z)/Ohm	-Im(Z)/Ohm	|Z|/Ohm	Phase(Z)/deg	time/s	<Ewe>/V	<I>/mA	Cs/µF	Cp/µF	cycle number	I Range	|Ewe|/V	|I|/A	Ns	(Q-Qo)/mA.h	<Ece>/V	|Ece|/V	Phase(Zce)/deg	|Zce|/Ohm	Re(Zce)/Ohm	-Im(Zce)/Ohm	Phase(Zwe-ce)/deg	|Zwe-ce|/Ohm	Re(Zwe-ce)/Ohm	-Im(Zwe-ce)/Ohm	Re(Y)/Ohm-1	Im(Y)/Ohm-1	|Y|/Ohm-1	Phase(Y)/deg	Re(C)/nF	Im(C)/nF	|C|/nF	Phase(C)/deg	Re(M)	Im(M)	|M|	Phase(M)/deg	Re(Permittivity)	Im(Permittivity)	|Permittivity|	Phase(Permittivity)/deg	Re(Resistivity)/Ohm.cm	Im(Resistivity)/Ohm.cm	|Resistivity|/Ohm.cm	Phase(Resistivity)/deg	Re(Conductivity)/mS/cm	Im(Conductivity)/mS/cm	|Conductivity|/mS/cm	Phase(Conductivity)/deg	Tan(Delta)	Loss Angle(Delta)/deg	dq/mA.h	Pwe/W	Pce/W	Pwe-ce/W	<Ewe-Ece>/V	Rwe/Ohm	Rce/Ohm	Rwe-ce/Ohm		Ewe-Ece/V
1.00002e+06	2.35088	3.3437	4.08741	-54.8898	2.23452	4.00959	-0.0136148	0.0475976	0.0318524	1	10	0.000222197	5.43613e-05	0	-1.23071e-05	-8.05151e-05	0.000199827	-66.7356	3.67591	1.45189	3.37703	-60.4976	7.72199	3.80277	6.72072	0.140713	0.200138	0.244654	54.8898	31.8524	22.3947	38.9371	-35.1102	0.0000000E+000	0.0000000E+000	0.0000000E+000	35.1102	0.0000000E+000	0.0000000E+000	0.0000000E+000	-35.1102	0.0000000E+000	0.0000000E+000	0.0000000E+000	-54.8898	0.0000000E+000	0.0000000E+000	0.0000000E+000	54.8898	0.703077	35.1102	-1.23071e-05	-5.45898e-05	1.0962e-09	-5.45909e-05	4.00967	294503	5.91379	294509
251206	1.10906	0.412855	1.18342	-20.418	4.93851	4.00919	0.0149483	1.53459	0.186772	1	9	0.0021972	0.00185666	0	-3.64105e-06	-0.000175985	5.63913e-05	91.2594	0.0303724	-0.000667528	-0.0303651	-19.0387	1.17254	1.1084	0.38249	0.791921	0.294797	0.845012	20.418	186.772	501.732	535.368	-69.582	0.0000000E+000	0.0000000E+000	0.0000000E+000	69.582	0.0000000E+000	0.0000000E+000	0.0000000E+000	-69.582	0.0000000E+000	0.0000000E+000	0.0000000E+000	-20.418	0.0000000E+000	0.0000000E+000	0.0000000E+000	20.418	2.68633	69.582	2.03942e-06	5.99306e-05	-2.63068e-09	5.99332e-05	4.00937	268204	11.7729	268216
63093.8	1.53227	1.38968	2.06859	-42.2062	7.24053	4.0091	0.0246819	1.81517	0.819217	1	9	0.00520365	0.00251555	0	3.01524e-05	-8.05151e-05	3.09827e-05	67.5574	0.0123165	0.00470191	-0.0113837	-41.8845	2.06446	1.53697	1.3783	0.358085	0.324762	0.483421	42.2062	819.217	903.274	1219.43	-47.7938	0.0000000E+000	0.0000000E+000	0.0000000E+000	47.7938	0.0000000E+000	0.0000000E+000	0.0000000E+000	-47.7938	0.0000000E+000	0.0000000E+000	0.0000000E+000	-42.2062	0.0000000E+000	0.0000000E+000	0.0000000E+000	42.2062	1.10261	47.7938	6.11546e-06	9.89524e-05	-1.98727e-09	9.89544e-05	4.00918	162431	3.2621	162434
15847.7	3.20218	3.51337	4.75371	-47.6532	9.82153	4.00907	-0.0246001	2.85845	1.5614	1	10	0.00492994	0.00103707	0	3.38315e-05	-2.32329e-05	7.41761e-06	-43.5304	0.00715245	0.00518559	0.00492617	-47.647	4.76084	3.20736	3.5183	0.141703	0.155474	0.210362	47.6532	1561.4	1423.1	2112.62	-42.3468	0.0000000E+000	0.0000000E+000	0.0000000E+000	42.3468	0.0000000E+000	0.0000000E+000	0.0000000E+000	-42.3468	0.0000000E+000	0.0000000E+000	0.0000000E+000	-47.6532	0.0000000E+000	0.0000000E+000	0.0000000E+000	47.6532	0.911426	42.3468	-2.81206e-07	-9.86234e-05	5.7153e-10	-9.8624e-05	4.0091	162970	0.944424	162971
3983.6	7.97501	5.43135	9.64885	-34.2566	11.7941	4.00907	-0.0206288	7.35592	2.33077	1	10	0.00512473	0.000531123	0	2.21069e-05	-9.96091e-05	6.81315e-06	-140.038	0.0128278	-0.00983213	0.00823907	-34.33	9.64537	7.96518	5.43958	0.0856604	0.0583386	0.103639	34.2566	2330.77	3422.35	4140.65	-55.7434	0.0000000E+000	0.0000000E+000	0.0000000E+000	55.7434	0.0000000E+000	0.0000000E+000	0.0000000E+000	-55.7434	0.0000000E+000	0.0000000E+000	0.0000000E+000	-34.2566	0.0000000E+000	0.0000000E+000	0.0000000E+000	34.2566	1.46833	55.7434	-2.12877e-06	-8.27023e-05	2.05482e-09	-8.27044e-05	4.00917	194343	4.82864	194348
1000.32	13.1804	4.91908	14.0684	-20.4661	14.4218	4.00903	-0.0223366	32.3442	3.95433	1	10	0.00456377	0.000324398	0	5.54534e-06	1.49552e-05	1.14114e-05	-100.338	0.0351772	-0.0063128	0.0346061	-20.6071	14.0747	13.1741	4.95369	0.0665944	0.0248538	0.0710811	20.4661	3954.33	10595.4	11309.3	-69.5339	0.0000000E+000	0.0000000E+000	0.0000000E+000	69.5339	0.0000000E+000	0.0000000E+000	0.0000000E+000	-69.5339	0.0000000E+000	0.0000000E+000	0.0000000E+000	-20.4661	0.0000000E+000	0.0000000E+000	0.0000000E+000	20.4661	2.67945	69.5339	-2.53721e-06	-8.95484e-05	-3.3405e-10	-8.9548e-05	4.00902	179482	0.669539	179482
251.044	17.1971	3.75012	17.6013	-12.3017	17.337	4.00904	-0.0202075	169.054	7.67408	1	10	0.00486431	0.000276361	0	-1.15596e-05	0.000205896	8.08478e-06	-55.336	0.0292544	0.0166388	0.0240618	-12.3666	17.6227	17.2138	3.77418	0.0555096	0.0121048	0.0568141	12.3017	7674.09	35191.5	36018.5	-77.6983	0.0000000E+000	0.0000000E+000	0.0000000E+000	77.6983	0.0000000E+000	0.0000000E+000	0.0000000E+000	-77.6983	0.0000000E+000	0.0000000E+000	0.0000000E+000	-12.3017	0.0000000E+000	0.0000000E+000	0.0000000E+000	12.3017	4.58576	77.6983	-2.68078e-06	-8.10125e-05	-4.16063e-09	-8.10083e-05	4.00883	198394	10.1891	198384
63.0823	19.7766	2.33538	19.914	-6.73477	20.0569	4.00903	-0.0204685	1080.33	14.8578	1	10	0.00484976	0.000243535	0	-2.71214e-05	-8.05151e-05	9.56868e-06	-93.6821	0.0392907	-0.00252328	0.0392096	-6.84764	19.9161	19.774	2.37459	0.0498695	0.005889	0.050216	6.73477	14857.8	125819	126694	-83.2652	0.0000000E+000	0.0000000E+000	0.0000000E+000	83.2652	0.0000000E+000	0.0000000E+000	0.0000000E+000	-83.2652	0.0000000E+000	0.0000000E+000	0.0000000E+000	-6.73477	0.0000000E+000	0.0000000E+000	0.0000000E+000	6.73477	8.46825	83.2652	-2.53442e-06	-8.20588e-05	1.64802e-09	-8.20604e-05	4.00911	195864	3.93361	195868
15.8576	21.2751	1.74381	21.3464	-4.68577	22.962	4.00904	-0.0225942	5755.52	38.4089	1	11	0.00485437	0.000227409	0	-4.33482e-05	0.000110426	2.9279e-05	-21.076	0.128751	0.120138	0.0462994	-4.78272	21.47	21.3952	1.79011	0.0466897	0.00382691	0.0468463	4.68577	38408.9	468602	470174	-85.3142	0.0000000E+000	0.0000000E+000	0.0000000E+000	85.3142	0.0000000E+000	0.0000000E+000	0.0000000E+000	-85.3142	0.0000000E+000	0.0000000E+000	0.0000000E+000	-4.68577	0.0000000E+000	0.0000000E+000	0.0000000E+000	4.68577	12.2004	85.3142	-2.14924e-06	-9.05811e-05	-2.49498e-09	-9.05786e-05	4.00893	177437	4.88734	177432
3.97785	22.5091	1.65481	22.5698	-4.20468	25.8754	4.00906	-0.0207306	24178.1	129.976	1	11	0.00484458	0.000214648	0	-6.33338e-05	5.31434e-05	3.18815e-06	46.3967	0.0148529	0.0102435	-0.0107555	-4.17555	22.5793	22.5193	1.64406	0.0441877	0.00324857	0.0443069	4.20468	129976	1.76796e+06	1.77273e+06	-85.7953	0.0000000E+000	0.0000000E+000	0.0000000E+000	85.7953	0.0000000E+000	0.0000000E+000	0.0000000E+000	-85.7953	0.0000000E+000	0.0000000E+000	0.0000000E+000	-4.20468	0.0000000E+000	0.0000000E+000	0.0000000E+000	4.20468	13.6022	85.7953	-4.90759e-06	-8.31103e-05	-1.10169e-09	-8.31092e-05	4.00901	193389	2.56352	193386
1.00469	24.1111	2.00375	24.1942	-4.75064	240.689	4.00903	-0.0117646	79057.6	542.26	1	11	0.00503965	0.0002083	0	-0.00170586	-4.13882e-06	8.32581e-07	0.554458	0.00399702	0.00399684	-3.8679e-05	-4.74977	24.1982	24.1151	2.00371	0.0411903	0.00342311	0.0413323	4.75064	542260	6.52501e+06	6.5475e+06	-85.2494	0.0000000E+000	0.0000000E+000	0.0000000E+000	85.2494	0.0000000E+000	0.0000000E+000	0.0000000E+000	-85.2494	0.0000000E+000	0.0000000E+000	0.0000000E+000	-4.75064	0.0000000E+000	0.0000000E+000	0.0000000E+000	4.75064	12.033	85.2494	-0.00160888	-4.71644e-05	4.86913e-11	-4.71645e-05	4.00903	340772	0.351804	340772
0.251173	25.9451	2.55073	26.0702	-5.61484	240.692	4.00903	-0.0117646	248418	2378.06	1	11	0.00506689	0.000194356	0	-0.00170586	-4.13882e-06	1.15134e-06	-7.55572	0.00592388	0.00587245	0.000778933	-5.61528	26.0761	25.951	2.55151	0.038174	0.00375297	0.038358	5.61484	2.37806e+06	2.41888e+07	2.43054e+07	-84.3852	0.0000000E+000	0.0000000E+000	0.0000000E+000	84.3852	0.0000000E+000	0.0000000E+000	0.0000000E+000	-84.3852	0.0000000E+000	0.0000000E+000	0.0000000E+000	-5.61484	0.0000000E+000	0.0000000E+000	0.0000000E+000	5.61484	10.1717	84.3852	0.000000000000000E+000	-4.71644e-05	4.86913e-11	-4.71645e-05	4.00903	340772	0.351804	340772
0.0602816	28.1995	3.60106	28.4285	-7.27725	240.695	4.00903	-0.0117646	733170	11764.1	1	11	0.00505778	0.000177912	0	-0.00170586	-4.13882e-06	8.44793e-07	-14.9881	0.00474837	0.00458682	0.00122802	-7.27853	28.4332	28.2041	3.60229	0.0348926	0.00445577	0.035176	7.27725	1.17641e+07	9.21231e+07	9.28712e+07	-82.7227	0.0000000E+000	0.0000000E+000	0.0000000E+000	82.7227	0.0000000E+000	0.0000000E+000	0.0000000E+000	-82.7227	0.0000000E+000	0.0000000E+000	0.0000000E+000	-7.27725	0.0000000E+000	0.0000000E+000	0.0000000E+000	7.27725	7.83089	82.7227	0.000000000000000E+000	-4.71644e-05	4.86913e-11	-4.71645e-05	4.00903	340772	0.351804	340772
0.00796479	36.5888	9.05868	37.6935	-13.9057	20329.5	4.00903	0.00246897	2.20588e+06	127402	1	11	0.00505282	0.00013405	0	0.0119215	-9.96091e-05	1.39872e-06	-13.0936	0.0104343	0.010163	0.00236382	-13.9055	37.704	36.599	9.06105	0.0257522	0.00637575	0.0265298	13.9057	1.27402e+08	5.14589e+08	5.30126e+08	-76.0943	0.0000000E+000	0.0000000E+000	0.0000000E+000	76.0943	0.0000000E+000	0.0000000E+000	0.0000000E+000	-76.0943	0.0000000E+000	0.0000000E+000	0.0000000E+000	-13.9057	0.0000000E+000	0.0000000E+000	0.0000000E+000	13.9057	4.03909	76.0943	0.0136274	9.89816e-06	-2.45932e-10	9.89841e-06	4.00913	1.62377e+06	40.3444	1.62381e+06
0.0019912	45.1813	12.6352	46.9148	-15.624	20329.5	4.00903	0.00246897	6.3259e+06	458850	1	11	0.00506589	0.000107981	0	0.0119215	-9.96091e-05	5.67401e-07	15.6201	0.00525465	0.00506058	-0.00141486	-15.6207	46.9193	45.1863	12.6338	0.0205276	0.00574069	0.0213153	15.624	4.5885e+08	1.64076e+09	1.70371e+09	-74.376	0.0000000E+000	0.0000000E+000	0.0000000E+000	74.376	0.0000000E+000	0.0000000E+000	0.0000000E+000	-74.376	0.0000000E+000	0.0000000E+000	0.0000000E+000	-15.624	0.0000000E+000	0.0000000E+000	0.0000000E+000	15.624	3.57581	74.376	0.000000000000000E+000	9.89816e-06	-2.45932e-10	9.89841e-06	4.00913	1.62377e+06	40.3444	1.62381e+06
0.000497799	50.7643	26.9435	57.4714	-27.9575	20329.5	4.00903	0.00246897	1.18662e+07	2.60805e+06	1	11	0.0050662	8.81517e-05	0	0.0119215	-9.96091e-05	1.01652e-06	-24.5835	0.0115315	0.0104863	0.00479733	-27.9568	57.483	50.7748	26.9483	0.0153693	0.00815737	0.0173999	27.9575	2.60805e+09	4.91383e+09	5.56306e+09	-62.0425	0.0000000E+000	0.0000000E+000	0.0000000E+000	62.0425	0.0000000E+000	0.0000000E+000	0.0000000E+000	-62.0425	0.0000000E+000	0.0000000E+000	0.0000000E+000	-27.9575	0.0000000E+000	0.0000000E+000	0.0000000E+000	27.9575	1.8841	62.0425	0.000000000000000E+000	9.89816e-06	-2.45932e-10	9.89841e-06	4.00913	1.62377e+06	40.3444	1.62381e+06
9.95598e-05	65.9707	126.507	142.675	-62.4589	20329.5	4.00903	0.00246897	1.26363e+07	9.9347e+06	1	11	0.00506675	3.55125e-05	0	0.0119215	-9.96091e-05	2.52243e-06	9.50291	0.0710292	0.0700545	-0.0117268	-62.4318	142.697	66.0407	126.495	0.00324082	0.00621468	0.00700894	62.4589	9.93471e+09	5.18073e+09	1.12044e+10	-27.5411	0.0000000E+000	0.0000000E+000	0.0000000E+000	27.5411	0.0000000E+000	0.0000000E+000	0.0000000E+000	-27.5411	0.0000000E+000	0.0000000E+000	0.0000000E+000	-62.4589	0.0000000E+000	0.0000000E+000	0.0000000E+000	62.4589	0.521478	27.5411	0.000000000000000E+000	9.89816e-06	-2.45932e-10	9.89841e-06	4.00913	1.62377e+06	40.3444	1.62381e+06