File: txt/18697_R307_UC91_25_SOC50_C04.mpt
EC-Lab ASCII FILE
Nb header lines : 65

Potentio Electrochemical Impedance Spectroscopy

Run on channel : 4 (SN 66756)
User :
CE vs. WE compliance from -10 V to 10 V
Electrode connection : standard
Potential control : Ewe
Ewe ctrl range : min = -10.00 V, max = 10.00 V
Safety Limits :
	Do not start on E overload
Acquisition started on : 10/29/2025 14:38:24.614
Technique started on : 10/29/2025 14:38:26.848
Loaded Setting File :  C:\Users\Celltest\OneDrive - store-dot.com\Documents\EC-Lab\Data\@Biologic Test Protocols\cathode half cell EIS SOC50.mps
Saved on :
	File : 18697_R307_UC91_25_SOC50_C04.mpr
	Directory : C:\Users\Celltest\OneDrive - store-dot.com\Documents\EC-Lab\Data\Anna\
	Host : 169.254.61.224
Device : VMP-3e (SN .003165)
Address : USB
EC-LAB for windows v11.62 (software)
Internet server v27.00 (firmware)
Command interpretor v12.03 (firmware)
Electrode material :
Initial state :
Electrolyte :
Comments :
Electrode surface area : 0.001 cm²
Characteristic mass : 0.001 g
Equivalent Weight : 0.000 g/eq.
Density : 0.000 g/cm3
Volume (V) : 0.001 cm³
Record Ece
Cycle Definition : Charge/Discharge alternance
Mode                Multi sine
E (V)               0.0000
vs.                 Eoc
tE (h:m:s)          0:00:0.0000
record              0
dI                  0.000
unit dI             mA
dt (s)              0.000
fi                  1.000
unit fi             MHz
ff                  0.100
unit ff             mHz
Nd                  10
Points              per decade
spacing             Logarithmic
Va (mV)             5.0
pw                  0.10
Na                  2
corr                0
E range min (V)     -10.000
E range max (V)     10.000
I Range             Auto
Bandwidth           5
nc cycles           0
goto Ns'            0
nr cycles           0
inc. cycle          0

freq/Hz	Re(Z)/Ohm	-Im(Z)/Ohm	|Z|/Ohm	Phase(Z)/deg	time/s	<Ewe>/V	<I>/mA	Cs/µF	Cp/µF	cycle number	I Range	|Ewe|/V	|I|/A	Ns	(Q-Qo)/mA.h	<Ece>/V	|Ece|/V	Phase(Zce)/deg	|Zce|/Ohm	Re(Zce)/Ohm	-Im(Zce)/Ohm	Phase(Zwe-ce)/deg	|Zwe-ce|/Ohm	Re(Zwe-ce)/Ohm	-Im(Zwe-ce)/Ohm	Re(Y)/Ohm-1	Im(Y)/Ohm-1	|Y|/Ohm-1	Phase(Y)/deg	Re(C)/nF	Im(C)/nF	|C|/nF	Phase(C)/deg	Re(M)	Im(M)	|M|	Phase(M)/deg	Re(Permittivity)	Im(Permittivity)	|Permittivity|	Phase(Permittivity)/deg	Re(Resistivity)/Ohm.cm	Im(Resistivity)/Ohm.cm	|Resistivity|/Ohm.cm	Phase(Resistivity)/deg	Re(Conductivity)/mS/cm	Im(Conductivity)/mS/cm	|Conductivity|/mS/cm	Phase(Conductivity)/deg	Tan(Delta)	Loss Angle(Delta)/deg	dq/mA.h	Pwe/W	Pce/W	Pwe-ce/W	<Ewe-Ece>/V	Rwe/Ohm	Rce/Ohm	Rwe-ce/Ohm		Ewe-Ece/V
1.00002e+06	2.86667	2.72049	3.95207	-43.5013	2.23352	3.97115	0.0335096	0.0585012	0.0277211	1	10	0.000199233	5.04123e-05	0	1.94323e-06	-0.000206601	0.000187267	-70.2613	3.7147	1.25457	3.49643	-56.4594	7.45887	4.12123	6.21693	0.183539	0.17418	0.253032	43.5013	27.7211	29.2106	40.2706	-46.4987	0.0000000E+000	0.0000000E+000	0.0000000E+000	46.4987	0.0000000E+000	0.0000000E+000	0.0000000E+000	-46.4987	0.0000000E+000	0.0000000E+000	0.0000000E+000	-43.5013	0.0000000E+000	0.0000000E+000	0.0000000E+000	43.5013	1.05373	46.4987	1.94323e-06	0.000133072	-6.92313e-09	0.000133079	3.97136	118508	6.16543	118514
251206	1.35357	0.413945	1.41546	-17.0045	4.93952	3.96975	-0.0345226	1.53055	0.1309	1	9	0.00260297	0.00183896	0	-1.92905e-05	-0.000206601	5.76925e-05	77.563	0.0313724	0.00675655	-0.0306362	-15.7366	1.4133	1.36033	0.383309	0.6756	0.20661	0.706487	17.0045	130.9	428.035	447.604	-72.9955	0.0000000E+000	0.0000000E+000	0.0000000E+000	72.9955	0.0000000E+000	0.0000000E+000	0.0000000E+000	-72.9955	0.0000000E+000	0.0000000E+000	0.0000000E+000	-17.0045	0.0000000E+000	0.0000000E+000	0.0000000E+000	17.0045	3.26994	72.9955	-5.42607e-06	-0.000137046	7.13242e-09	-0.000137053	3.96995	114990	5.98452	114996
63093.8	1.95017	1.25992	2.32176	-32.8647	7.23952	3.96962	-0.0439215	2.00213	0.589578	1	9	0.0053047	0.00228478	0	-3.31988e-05	4.18282e-05	2.10322e-05	22.0971	0.00920535	0.00852919	-0.00346285	-32.6791	2.32706	1.9587	1.25645	0.361775	0.233726	0.430708	32.8647	589.578	912.583	1086.47	-57.1353	0.0000000E+000	0.0000000E+000	0.0000000E+000	57.1353	0.0000000E+000	0.0000000E+000	0.0000000E+000	-57.1353	0.0000000E+000	0.0000000E+000	0.0000000E+000	-32.8647	0.0000000E+000	0.0000000E+000	0.0000000E+000	32.8647	1.54786	57.1353	-2.03164e-06	-0.000174352	-1.83716e-09	-0.00017435	3.96958	90379.9	0.952339	90378.9
15847.7	3.45579	2.20806	4.10097	-32.5763	9.54152	3.96963	-0.0428772	4.54825	1.31853	1	9	0.00523559	0.00127667	0	-5.88214e-05	-0.000263931	8.60494e-06	-62.8046	0.00674014	0.00308042	0.00599504	-32.6237	4.1068	3.45887	2.21405	0.205482	0.131291	0.243845	32.5763	1318.53	2063.61	2448.88	-57.4237	0.0000000E+000	0.0000000E+000	0.0000000E+000	57.4237	0.0000000E+000	0.0000000E+000	0.0000000E+000	-57.4237	0.0000000E+000	0.0000000E+000	0.0000000E+000	-32.5763	0.0000000E+000	0.0000000E+000	0.0000000E+000	32.5763	1.56508	57.4237	-4.83899e-06	-0.000170207	1.13166e-08	-0.000170218	3.96989	92581.2	6.15551	92587.4
3983.6	5.65106	3.23688	6.51244	-29.8037	12.0411	3.96961	-0.0210143	12.3429	3.04918	1	10	0.00516054	0.000792412	0	-7.38944e-05	-0.000206601	7.73507e-06	-24.4521	0.00976142	0.00888589	0.00404057	-29.7957	6.52216	5.65994	3.24092	0.133242	0.0763202	0.153552	29.8037	3049.19	5323.37	6134.8	-60.1963	0.0000000E+000	0.0000000E+000	0.0000000E+000	60.1963	0.0000000E+000	0.0000000E+000	0.0000000E+000	-60.1963	0.0000000E+000	0.0000000E+000	0.0000000E+000	-29.8037	0.0000000E+000	0.0000000E+000	0.0000000E+000	29.8037	1.74583	60.1963	-1.42703e-06	-8.34186e-05	4.34159e-09	-8.34229e-05	3.96981	188900	9.83144	188910
1000.32	9.06883	5.13667	10.4225	-29.5276	14.6708	3.96958	-0.024047	30.9741	7.52345	1	10	0.00478282	0.000458892	0	-9.06474e-05	-0.000111051	1.00469e-05	-8.46613	0.0218939	0.0216553	0.00322333	-29.4845	10.443	9.09049	5.1399	0.0834844	0.0472863	0.095946	29.5276	7523.45	13282.7	15265.4	-60.4724	0.0000000E+000	0.0000000E+000	0.0000000E+000	60.4724	0.0000000E+000	0.0000000E+000	0.0000000E+000	-60.4724	0.0000000E+000	0.0000000E+000	0.0000000E+000	-29.5276	0.0000000E+000	0.0000000E+000	0.0000000E+000	29.5276	1.76551	60.4724	-3.15747e-06	-9.54564e-05	2.67045e-09	-9.54591e-05	3.96969	165076	4.61811	165081
251.044	15.2742	6.06918	16.4358	-21.6703	17.3721	3.96957	-0.0256845	104.458	14.2435	1	10	0.00463698	0.000282126	0	-0.000107748	-0.00055058	1.40973e-05	48.1888	0.0499679	0.0333125	-0.0372434	-21.5069	16.4531	15.3075	6.03194	0.0565426	0.0224671	0.0608427	21.6703	14243.5	35846.4	38572.5	-68.3297	0.0000000E+000	0.0000000E+000	0.0000000E+000	68.3297	0.0000000E+000	0.0000000E+000	0.0000000E+000	-68.3297	0.0000000E+000	0.0000000E+000	0.0000000E+000	-21.6703	0.0000000E+000	0.0000000E+000	0.0000000E+000	21.6703	2.51668	68.3297	-3.12361e-06	-0.000101957	1.41414e-08	-0.000101971	3.97012	154551	21.4363	154573
63.0823	20.3879	3.5769	20.6993	-9.95085	20.344	3.9696	-0.0178363	705.352	21.0625	1	11	0.00462836	0.0002236	0	-0.000126182	9.9158e-05	7.16628e-06	69.4042	0.0320495	0.0112742	-0.0300011	-9.86369	20.7052	20.3991	3.5469	0.0475841	0.00834829	0.0483109	9.95085	21062.5	120054	121887	-80.0491	0.0000000E+000	0.0000000E+000	0.0000000E+000	80.0491	0.0000000E+000	0.0000000E+000	0.0000000E+000	-80.0491	0.0000000E+000	0.0000000E+000	0.0000000E+000	-9.95085	0.0000000E+000	0.0000000E+000	0.0000000E+000	9.95085	5.69987	80.0491	-3.78932e-06	-7.08032e-05	-1.76862e-09	-7.08014e-05	3.9695	222557	5.55933	222551
15.8576	21.968	1.54556	22.0223	-4.02443	23.004	3.96961	-0.017961	6493.76	31.985	1	11	0.00461722	0.000209662	0	-0.00014012	-9.19415e-05	6.86451e-06	-24.7403	0.0327409	0.0297358	0.0137023	-4.05452	22.0529	21.9977	1.55927	0.0452966	0.00318686	0.0454086	4.02443	31985	454620	455744	-85.9756	0.0000000E+000	0.0000000E+000	0.0000000E+000	85.9756	0.0000000E+000	0.0000000E+000	0.0000000E+000	-85.9756	0.0000000E+000	0.0000000E+000	0.0000000E+000	-4.02443	0.0000000E+000	0.0000000E+000	0.0000000E+000	4.02443	14.2136	85.9756	-2.53889e-06	-7.12979e-05	1.65136e-09	-7.12996e-05	3.9697	221013	5.11897	221018
3.97785	22.8247	1.09749	22.851	-2.75287	25.9153	3.96962	-0.0156693	36456.1	84.0932	1	11	0.00462452	0.000202377	0	-0.000150261	-0.000244821	6.72337e-06	-15.1086	0.0332221	0.0320737	0.0086593	-2.77067	22.8835	22.8568	1.10615	0.0437112	0.00210179	0.0437617	2.75287	84093.2	1.7489e+06	1.75092e+06	-87.2471	0.0000000E+000	0.0000000E+000	0.0000000E+000	87.2471	0.0000000E+000	0.0000000E+000	0.0000000E+000	-87.2471	0.0000000E+000	0.0000000E+000	0.0000000E+000	-2.75287	0.0000000E+000	0.0000000E+000	0.0000000E+000	2.75287	20.7971	87.2471	-6.71725e-07	-6.22013e-05	3.83618e-09	-6.22051e-05	3.96987	253337	15.6242	253353
1.00469	23.6376	1.13455	23.6648	-2.74795	240.729	3.96958	-0.0126129	139625	320.924	1	11	0.00506296	0.000213944	0	-0.00179618	-7.28316e-05	7.08634e-07	-14.485	0.00331224	0.00320695	0.000828478	-2.74958	23.6681	23.6408	1.13538	0.0422082	0.00202589	0.0422568	2.74795	320924	6.68626e+06	6.69396e+06	-87.2521	0.0000000E+000	0.0000000E+000	0.0000000E+000	87.2521	0.0000000E+000	0.0000000E+000	0.0000000E+000	-87.2521	0.0000000E+000	0.0000000E+000	0.0000000E+000	-2.74795	0.0000000E+000	0.0000000E+000	0.0000000E+000	2.74795	20.8344	87.2521	-0.00162472	-5.0068e-05	9.1862e-10	-5.0069e-05	3.96965	314723	5.77435	314728
0.251173	24.6486	1.8837	24.7205	-4.37017	240.733	3.96958	-0.0126129	336384	1953.19	1	11	0.00509086	0.000205937	0	-0.00179618	-7.28316e-05	6.53125e-07	-7.07559	0.00317148	0.00314733	0.000390659	-4.37051	24.7237	24.6518	1.88409	0.0403347	0.00308246	0.0404523	4.37017	1.95319e+06	2.55579e+07	2.56324e+07	-85.6298	0.0000000E+000	0.0000000E+000	0.0000000E+000	85.6298	0.0000000E+000	0.0000000E+000	0.0000000E+000	-85.6298	0.0000000E+000	0.0000000E+000	0.0000000E+000	-4.37017	0.0000000E+000	0.0000000E+000	0.0000000E+000	4.37017	13.0852	85.6298	0.000000000000000E+000	-5.0068e-05	9.1862e-10	-5.0069e-05	3.96965	314723	5.77435	314728
0.0602816	26.5139	3.40358	26.7315	-7.31503	240.737	3.96958	-0.0126129	775710	12575.5	1	11	0.00508404	0.000190189	0	-0.00179618	-7.28316e-05	5.60583e-07	24.7588	0.0029475	0.00267656	-0.00123441	-7.31168	26.734	26.5166	3.40234	0.0371046	0.00476311	0.0374091	7.31503	1.25755e+07	9.79633e+07	9.87671e+07	-82.685	0.0000000E+000	0.0000000E+000	0.0000000E+000	82.685	0.0000000E+000	0.0000000E+000	0.0000000E+000	-82.685	0.0000000E+000	0.0000000E+000	0.0000000E+000	-7.31503	0.0000000E+000	0.0000000E+000	0.0000000E+000	7.31503	7.79	82.685	0.000000000000000E+000	-5.0068e-05	9.1862e-10	-5.0069e-05	3.96965	314723	5.77435	314728
0.00796479	36.9787	7.13528	37.6608	-10.9214	20329.6	3.96958	-0.000543578	2.8005e+06	100526	1	11	0.00507624	0.000134789	0	-0.00951465	-9.19415e-05	3.89664e-07	14.1908	0.00289093	0.00280271	-0.000708714	-10.9195	37.6634	36.9815	7.13457	0.0260719	0.00503075	0.0265528	10.9214	1.00526e+08	5.20977e+08	5.30587e+08	-79.0786	0.0000000E+000	0.0000000E+000	0.0000000E+000	79.0786	0.0000000E+000	0.0000000E+000	0.0000000E+000	-79.0786	0.0000000E+000	0.0000000E+000	0.0000000E+000	-10.9214	0.0000000E+000	0.0000000E+000	0.0000000E+000	10.9214	5.18251	79.0786	-0.00771847	-2.15778e-06	4.99774e-11	-2.15783e-06	3.96968	7.30269e+06	169.141	7.30286e+06
0.0019912	43.9664	10.5552	45.2157	-13.4997	20329.6	3.96958	-0.000543578	7.57251e+06	412662	1	11	0.00508908	0.000112551	0	-0.00951465	-9.19415e-05	2.46714e-07	-47.0161	0.00219202	0.0014945	0.00160356	-13.5013	45.2175	43.9679	10.5568	0.0215052	0.00516283	0.0221162	13.4997	4.12662e+08	1.71889e+09	1.76773e+09	-76.5003	0.0000000E+000	0.0000000E+000	0.0000000E+000	76.5003	0.0000000E+000	0.0000000E+000	0.0000000E+000	-76.5003	0.0000000E+000	0.0000000E+000	0.0000000E+000	-13.4997	0.0000000E+000	0.0000000E+000	0.0000000E+000	13.4997	4.16538	76.5003	0.000000000000000E+000	-2.15778e-06	4.99774e-11	-2.15783e-06	3.96968	7.30269e+06	169.141	7.30286e+06
0.000497799	47.9206	19.1329	51.599	-21.765	20329.6	3.96958	-0.000543578	1.67103e+07	2.29755e+06	1	11	0.00509159	9.86763e-05	0	-0.00951465	-9.19415e-05	7.08734e-07	-29.6108	0.00718242	0.0062444	0.00354888	-21.7661	51.6061	47.9268	19.1365	0.0179987	0.00718621	0.0193802	21.765	2.29755e+09	5.75448e+09	6.1962e+09	-68.235	0.0000000E+000	0.0000000E+000	0.0000000E+000	68.235	0.0000000E+000	0.0000000E+000	0.0000000E+000	-68.235	0.0000000E+000	0.0000000E+000	0.0000000E+000	-21.765	0.0000000E+000	0.0000000E+000	0.0000000E+000	21.765	2.50461	68.235	0.000000000000000E+000	-2.15778e-06	4.99774e-11	-2.15783e-06	3.96968	7.30269e+06	169.141	7.30286e+06
9.95598e-05	54.7364	88.4994	104.059	-58.2635	20329.6	3.96958	-0.000543578	1.80632e+07	1.30653e+07	1	11	0.00508716	4.88874e-05	0	-0.00951465	-9.19415e-05	4.38715e-06	-2.51389	0.0897399	0.0896535	0.00393613	-58.2226	104.109	54.826	88.5033	0.00505498	0.00817304	0.00960996	58.2635	1.30653e+10	8.08081e+09	1.53623e+10	-31.7365	0.0000000E+000	0.0000000E+000	0.0000000E+000	31.7365	0.0000000E+000	0.0000000E+000	0.0000000E+000	-31.7365	0.0000000E+000	0.0000000E+000	0.0000000E+000	-58.2635	0.0000000E+000	0.0000000E+000	0.0000000E+000	58.2635	0.618494	31.7365	0.000000000000000E+000	-2.15778e-06	4.99774e-11	-2.15783e-06	3.96968	7.30269e+06	169.141	7.30286e+06