File: txt/18695_R307_UC91_25_SOC50_C02.mpt
EC-Lab ASCII FILE
Nb header lines : 65

Potentio Electrochemical Impedance Spectroscopy

Run on channel : 2 (SN 66139)
User :
CE vs. WE compliance from -10 V to 10 V
Electrode connection : standard
Potential control : Ewe
Ewe ctrl range : min = -10.00 V, max = 10.00 V
Safety Limits :
	Do not start on E overload
Acquisition started on : 10/29/2025 14:38:12.278
Technique started on : 10/29/2025 14:38:14.513
Loaded Setting File :  C:\Users\Celltest\OneDrive - store-dot.com\Documents\EC-Lab\Data\@Biologic Test Protocols\cathode half cell EIS SOC50.mps
Saved on :
	File : 18695_R307_UC91_25_SOC50_C02.mpr
	Directory : C:\Users\Celltest\OneDrive - store-dot.com\Documents\EC-Lab\Data\Anna\
	Host : 169.254.61.224
Device : VMP-3e (SN .003165)
Address : USB
EC-LAB for windows v11.62 (software)
Internet server v27.00 (firmware)
Command interpretor v12.03 (firmware)
Electrode material :
Initial state :
Electrolyte :
Comments :
Electrode surface area : 0.001 cm²
Characteristic mass : 0.001 g
Equivalent Weight : 0.000 g/eq.
Density : 0.000 g/cm3
Volume (V) : 0.001 cm³
Record Ece
Cycle Definition : Charge/Discharge alternance
Mode                Multi sine
E (V)               0.0000
vs.                 Eoc
tE (h:m:s)          0:00:0.0000
record              0
dI                  0.000
unit dI             mA
dt (s)              0.000
fi                  1.000
unit fi             MHz
ff                  0.100
unit ff             mHz
Nd                  10
Points              per decade
spacing             Logarithmic
Va (mV)             5.0
pw                  0.10
Na                  2
corr                0
E range min (V)     -10.000
E range max (V)     10.000
I Range             Auto
Bandwidth           5
nc cycles           0
goto Ns'            0
nr cycles           0
inc. cycle          0

freq/Hz	Re(Z)/Ohm	-Im(Z)/Ohm	|Z|/Ohm	Phase(Z)/deg	time/s	<Ewe>/V	<I>/mA	Cs/µF	Cp/µF	cycle number	I Range	|Ewe|/V	|I|/A	Ns	(Q-Qo)/mA.h	<Ece>/V	|Ece|/V	Phase(Zce)/deg	|Zce|/Ohm	Re(Zce)/Ohm	-Im(Zce)/Ohm	Phase(Zwe-ce)/deg	|Zwe-ce|/Ohm	Re(Zwe-ce)/Ohm	-Im(Zwe-ce)/Ohm	Re(Y)/Ohm-1	Im(Y)/Ohm-1	|Y|/Ohm-1	Phase(Y)/deg	Re(C)/nF	Im(C)/nF	|C|/nF	Phase(C)/deg	Re(M)	Im(M)	|M|	Phase(M)/deg	Re(Permittivity)	Im(Permittivity)	|Permittivity|	Phase(Permittivity)/deg	Re(Resistivity)/Ohm.cm	Im(Resistivity)/Ohm.cm	|Resistivity|/Ohm.cm	Phase(Resistivity)/deg	Re(Conductivity)/mS/cm	Im(Conductivity)/mS/cm	|Conductivity|/mS/cm	Phase(Conductivity)/deg	Tan(Delta)	Loss Angle(Delta)/deg	dq/mA.h	Pwe/W	Pce/W	Pwe-ce/W	<Ewe-Ece>/V	Rwe/Ohm	Rce/Ohm	Rwe-ce/Ohm		Ewe-Ece/V
1.00002e+06	2.30371	2.86609	3.67717	-51.2083	2.23452	3.96916	-0.00274526	0.0555293	0.0337345	1	10	0.000208931	5.68185e-05	0	-7.1725e-07	-7.60209e-05	0.000177184	-67.426	3.11842	1.19709	2.8795	-58.646	6.72811	3.5008	5.7456	0.170373	0.211964	0.271948	51.2083	33.7345	27.1152	43.2811	-38.7917	0.0000000E+000	0.0000000E+000	0.0000000E+000	38.7917	0.0000000E+000	0.0000000E+000	0.0000000E+000	-38.7917	0.0000000E+000	0.0000000E+000	0.0000000E+000	-51.2083	0.0000000E+000	0.0000000E+000	0.0000000E+000	51.2083	0.803782	38.7917	-7.1725e-07	-1.08964e-05	2.08697e-10	-1.08966e-05	3.96923	1.44582e+06	27.6917	1.44585e+06
251206	1.37351	0.360472	1.42002	-14.7054	4.93753	3.96916	0.0235789	1.75759	0.113259	1	9	0.00305812	0.00215358	0	5.94469e-06	-0.000266929	3.75677e-05	69.2713	0.0174444	0.0061743	-0.0163151	-14.0064	1.42196	1.37968	0.344157	0.681147	0.178765	0.704215	14.7054	113.259	431.55	446.164	-75.2946	0.0000000E+000	0.0000000E+000	0.0000000E+000	75.2946	0.0000000E+000	0.0000000E+000	0.0000000E+000	-75.2946	0.0000000E+000	0.0000000E+000	0.0000000E+000	-14.7054	0.0000000E+000	0.0000000E+000	0.0000000E+000	14.7054	3.8103	75.2946	1.56156e-06	9.35885e-05	-6.29391e-09	9.35948e-05	3.96943	168335	11.3207	168346
63093.8	1.85687	1.06276	2.13949	-29.7842	7.11354	3.96904	0.0131128	2.37356	0.585663	1	9	0.00527471	0.00246541	0	1.6042e-06	0.000133978	2.40487e-05	22.1194	0.00975446	0.00903654	-0.00367293	-29.5792	2.14552	1.8659	1.05908	0.40566	0.232174	0.467402	29.7842	585.663	1023.28	1179.03	-60.2158	0.0000000E+000	0.0000000E+000	0.0000000E+000	60.2158	0.0000000E+000	0.0000000E+000	0.0000000E+000	-60.2158	0.0000000E+000	0.0000000E+000	0.0000000E+000	-29.7842	0.0000000E+000	0.0000000E+000	0.0000000E+000	29.7842	1.74722	60.2158	1.14231e-06	5.20454e-05	1.75684e-09	5.20436e-05	3.9689	302683	10.2173	302673
15847.7	3.17552	1.98842	3.7467	-32.0536	9.41152	3.96902	0.0112505	5.05064	1.42254	1	9	0.00519212	0.00138579	0	-4.79995e-06	0.000248523	8.57946e-06	-75.2679	0.00619104	0.00157438	0.00598752	-32.1183	3.75121	3.1771	1.99441	0.226213	0.141648	0.266902	32.0536	1422.54	2271.81	2680.44	-57.9464	0.0000000E+000	0.0000000E+000	0.0000000E+000	57.9464	0.0000000E+000	0.0000000E+000	0.0000000E+000	-57.9464	0.0000000E+000	0.0000000E+000	0.0000000E+000	-32.0536	0.0000000E+000	0.0000000E+000	0.0000000E+000	32.0536	1.59701	57.9464	1.94943e-07	4.46536e-05	2.79602e-09	4.46508e-05	3.96877	352785	22.0899	352763
3983.6	5.17003	2.9195	5.9374	-29.4533	11.7911	3.969	-0.00569561	13.6847	3.30872	1	10	0.00530842	0.000894065	0	-9.15979e-06	1.94333e-05	5.03344e-06	-11.6968	0.00562984	0.00551293	0.00114135	-29.4367	5.94276	5.17555	2.92064	0.146656	0.0828163	0.168424	29.4533	3308.72	5859.29	6728.96	-60.5467	0.0000000E+000	0.0000000E+000	0.0000000E+000	60.5467	0.0000000E+000	0.0000000E+000	0.0000000E+000	-60.5467	0.0000000E+000	0.0000000E+000	0.0000000E+000	-29.4533	0.0000000E+000	0.0000000E+000	0.0000000E+000	29.4533	1.77086	60.5467	-6.15521e-07	-2.26059e-05	-1.10685e-10	-2.26058e-05	3.96898	696852	3.41198	696848
1000.32	8.30508	4.56514	9.47707	-28.7967	14.4198	3.96895	-0.00848209	34.8519	8.08699	1	10	0.00490365	0.000517423	0	-1.48717e-05	0.000133978	2.332e-06	-99.2084	0.00450695	-0.000721233	0.00444887	-28.8224	9.47858	8.30436	4.56959	0.0924689	0.0508283	0.105518	28.7967	8086.99	14712.2	16788.3	-61.2033	0.0000000E+000	0.0000000E+000	0.0000000E+000	61.2033	0.0000000E+000	0.0000000E+000	0.0000000E+000	-61.2033	0.0000000E+000	0.0000000E+000	0.0000000E+000	-28.7967	0.0000000E+000	0.0000000E+000	0.0000000E+000	28.7967	1.81924	61.2033	-1.30432e-06	-3.3665e-05	-1.13642e-09	-3.36639e-05	3.96882	467922	15.7955	467906
251.044	13.8292	5.18707	14.77	-20.5602	17.12	3.96897	-0.00785998	122.221	15.0742	1	10	0.00480314	0.000325197	0	-2.09067e-05	0.000114888	5.89659e-06	-60.285	0.0181324	0.00898797	0.015748	-20.6051	14.7839	13.8382	5.20282	0.0633925	0.0237774	0.067705	20.5602	15074.2	40189	42923.1	-69.4398	0.0000000E+000	0.0000000E+000	0.0000000E+000	69.4398	0.0000000E+000	0.0000000E+000	0.0000000E+000	-69.4398	0.0000000E+000	0.0000000E+000	0.0000000E+000	-20.5602	0.0000000E+000	0.0000000E+000	0.0000000E+000	20.5602	2.66608	69.4398	-1.18315e-06	-3.1196e-05	-9.03014e-10	-3.11951e-05	3.96885	504959	14.6168	504944
63.0823	17.9429	2.9161	18.1783	-9.23108	19.8399	3.96896	-0.00733845	865.187	22.2643	1	10	0.00478689	0.00026333	0	-2.72089e-05	0.000210342	7.97817e-06	70.1821	0.0302972	0.0102717	-0.0285029	-9.13724	18.1839	17.9531	2.8876	0.0542982	0.00882463	0.0550107	9.23108	22264.3	136993	138790	-80.7689	0.0000000E+000	0.0000000E+000	0.0000000E+000	80.7689	0.0000000E+000	0.0000000E+000	0.0000000E+000	-80.7689	0.0000000E+000	0.0000000E+000	0.0000000E+000	-9.23108	0.0000000E+000	0.0000000E+000	0.0000000E+000	9.23108	6.15304	80.7689	-6.81625e-07	-2.9126e-05	-1.54358e-09	-2.91245e-05	3.96875	540844	28.663	540815
15.8576	19.2562	1.27185	19.2982	-3.77882	22.743	3.969	-0.00437725	7891.29	34.2757	1	11	0.00479875	0.000248664	0	-3.3222e-05	9.57967e-05	8.88456e-06	-138.523	0.0357293	-0.026769	0.0236643	-3.85427	19.273	19.2294	1.29551	0.0517057	0.0034151	0.0518184	3.77882	34275.7	518946	520076	-86.2212	0.0000000E+000	0.0000000E+000	0.0000000E+000	86.2212	0.0000000E+000	0.0000000E+000	0.0000000E+000	-86.2212	0.0000000E+000	0.0000000E+000	0.0000000E+000	-3.77882	0.0000000E+000	0.0000000E+000	0.0000000E+000	3.77882	15.1403	86.2212	-1.56835e-06	-1.73733e-05	-4.19326e-10	-1.73729e-05	3.9689	906733	21.8851	906711
3.97785	19.7998	0.833847	19.8174	-2.41152	25.6543	3.96901	-0.00265337	47982.8	84.9502	1	11	0.00478809	0.00024161	0	-3.36732e-05	1.94333e-05	3.24343e-06	21.9774	0.0134242	0.0124487	-0.0050239	-2.3955	19.8296	19.8123	0.828823	0.050416	0.00212321	0.0504607	2.41152	84950.1	2.01716e+06	2.01895e+06	-87.5885	0.0000000E+000	0.0000000E+000	0.0000000E+000	87.5885	0.0000000E+000	0.0000000E+000	0.0000000E+000	-87.5885	0.0000000E+000	0.0000000E+000	0.0000000E+000	-2.41152	0.0000000E+000	0.0000000E+000	0.0000000E+000	2.41152	23.7452	87.5885	-3.23158e-07	-1.05312e-05	-5.15638e-11	-1.05312e-05	3.96899	1.49584e+06	7.32401	1.49583e+06
1.00469	20.7579	0.990322	20.7815	-2.73141	240.467	3.96897	-0.00383181	159959	363.252	1	11	0.00497853	0.000239565	0	-0.00117654	0.00017216	2.15065e-07	99.3396	0.000897731	-0.000145689	-0.00088583	-2.72899	20.7813	20.7578	0.989436	0.048065	0.00229309	0.0481197	2.73141	363252	7.61405e+06	7.62271e+06	-87.2686	0.0000000E+000	0.0000000E+000	0.0000000E+000	87.2686	0.0000000E+000	0.0000000E+000	0.0000000E+000	-87.2686	0.0000000E+000	0.0000000E+000	0.0000000E+000	-2.73141	0.0000000E+000	0.0000000E+000	0.0000000E+000	2.73141	20.9608	87.2686	-0.00114497	-1.52083e-05	-6.59685e-10	-1.52077e-05	3.96879	1.03579e+06	44.9292	1.03575e+06
0.251173	21.6373	1.71963	21.7055	-4.54405	240.473	3.96897	-0.00383181	368478	2312.82	1	11	0.00500404	0.000230542	0	-0.00117654	0.00017216	5.80783e-07	161.377	0.0025192	-0.00238729	-0.000804488	-4.54243	21.7031	21.6349	1.71883	0.0459264	0.00365001	0.0460712	4.54405	2.31281e+06	2.91011e+07	2.91928e+07	-85.456	0.0000000E+000	0.0000000E+000	0.0000000E+000	85.456	0.0000000E+000	0.0000000E+000	0.0000000E+000	-85.456	0.0000000E+000	0.0000000E+000	0.0000000E+000	-4.54405	0.0000000E+000	0.0000000E+000	0.0000000E+000	4.54405	12.5825	85.456	0.000000000000000E+000	-1.52083e-05	-6.59685e-10	-1.52077e-05	3.96879	1.03579e+06	44.9292	1.03575e+06
0.0602816	23.315	3.23534	23.5384	-7.90028	240.478	3.96897	-0.00383181	816046	15417	1	11	0.00499852	0.000212356	0	-0.00117654	0.00017216	2.42011e-07	-2.84306	0.00113965	0.00113824	5.6527e-05	-7.90003	23.5396	23.3162	3.2354	0.0420805	0.00583936	0.0424837	7.90028	1.5417e+07	1.111e+08	1.12165e+08	-82.0997	0.0000000E+000	0.0000000E+000	0.0000000E+000	82.0997	0.0000000E+000	0.0000000E+000	0.0000000E+000	-82.0997	0.0000000E+000	0.0000000E+000	0.0000000E+000	-7.90028	0.0000000E+000	0.0000000E+000	0.0000000E+000	7.90028	7.20636	82.0997	0.000000000000000E+000	-1.52083e-05	-6.59685e-10	-1.52077e-05	3.96879	1.03579e+06	44.9292	1.03575e+06
0.00796479	33.1582	7.29624	33.9514	-12.4098	20329.4	3.96898	-0.000325686	2.73871e+06	126482	1	11	0.00499405	0.000147094	0	-0.00693538	0.000229433	2.03663e-07	-3.14085	0.00138458	0.0013825	7.5862e-05	-12.4094	33.9528	33.1595	7.29632	0.0287657	0.00632971	0.0294539	12.4098	1.26482e+08	5.74805e+08	5.88556e+08	-77.5902	0.0000000E+000	0.0000000E+000	0.0000000E+000	77.5902	0.0000000E+000	0.0000000E+000	0.0000000E+000	-77.5902	0.0000000E+000	0.0000000E+000	0.0000000E+000	-12.4098	0.0000000E+000	0.0000000E+000	0.0000000E+000	12.4098	4.54455	77.5902	-0.00575884	-1.29264e-06	-7.47229e-11	-1.29256e-06	3.96875	1.21865e+07	704.46	1.21858e+07
0.0019912	40.3572	10.5935	41.7244	-14.708	20329.4	3.96898	-0.000325686	7.5451e+06	486370	1	11	0.0050064	0.000119987	0	-0.00693538	0.000229433	9.46505e-08	-23.6123	0.000788837	0.000722793	0.000315966	-14.7082	41.7252	40.3579	10.5939	0.0231814	0.006085	0.0239668	14.708	4.8637e+08	1.85288e+09	1.91565e+09	-75.292	0.0000000E+000	0.0000000E+000	0.0000000E+000	75.292	0.0000000E+000	0.0000000E+000	0.0000000E+000	-75.292	0.0000000E+000	0.0000000E+000	0.0000000E+000	-14.708	0.0000000E+000	0.0000000E+000	0.0000000E+000	14.708	3.80961	75.292	0.000000000000000E+000	-1.29264e-06	-7.47229e-11	-1.29256e-06	3.96875	1.21865e+07	704.46	1.21858e+07
0.000497799	44.8952	18.1453	48.4234	-22.0071	20329.4	3.96898	-0.000325686	1.76198e+07	2.47411e+06	1	11	0.00500862	0.000103434	0	-0.00693538	0.000229433	4.87878e-07	7.97412	0.00471681	0.0046712	-0.000654343	-22.0043	48.4275	44.8998	18.1446	0.0191465	0.00773844	0.0206512	22.0071	2.47411e+09	6.12146e+09	6.60253e+09	-67.9929	0.0000000E+000	0.0000000E+000	0.0000000E+000	67.9929	0.0000000E+000	0.0000000E+000	0.0000000E+000	-67.9929	0.0000000E+000	0.0000000E+000	0.0000000E+000	-22.0071	0.0000000E+000	0.0000000E+000	0.0000000E+000	22.0071	2.4742	67.9929	0.000000000000000E+000	-1.29264e-06	-7.47229e-11	-1.29256e-06	3.96875	1.21865e+07	704.46	1.21858e+07
9.95598e-05	51.8079	82.3618	97.3012	-57.829	20329.4	3.96898	-0.000325686	1.94093e+07	1.39067e+07	1	11	0.00500232	5.14106e-05	0	-0.00693538	0.000229433	4.1758e-06	-3.42278	0.0812245	0.0810796	0.00484936	-57.7901	97.3485	51.889	82.3667	0.00547216	0.0086994	0.0102774	57.829	1.39067e+10	8.74772e+09	1.64292e+10	-32.171	0.0000000E+000	0.0000000E+000	0.0000000E+000	32.171	0.0000000E+000	0.0000000E+000	0.0000000E+000	-32.171	0.0000000E+000	0.0000000E+000	0.0000000E+000	-57.829	0.0000000E+000	0.0000000E+000	0.0000000E+000	57.829	0.629028	32.171	0.000000000000000E+000	-1.29264e-06	-7.47229e-11	-1.29256e-06	3.96875	1.21865e+07	704.46	1.21858e+07