File: txt/18694_R307_UC91_25_SOC50_C01.mpt
EC-Lab ASCII FILE
Nb header lines : 65

Potentio Electrochemical Impedance Spectroscopy

Run on channel : 1 (SN 66354)
User :
CE vs. WE compliance from -10 V to 10 V
Electrode connection : standard
Potential control : Ewe
Ewe ctrl range : min = -10.00 V, max = 10.00 V
Safety Limits :
	Do not start on E overload
Acquisition started on : 10/29/2025 14:38:06.248
Technique started on : 10/29/2025 14:38:08.943
Loaded Setting File :  C:\Users\Celltest\OneDrive - store-dot.com\Documents\EC-Lab\Data\@Biologic Test Protocols\cathode half cell EIS SOC50.mps
Saved on :
	File : 18694_R307_UC91_25_SOC50_C01.mpr
	Directory : C:\Users\Celltest\OneDrive - store-dot.com\Documents\EC-Lab\Data\Anna\
	Host : 169.254.61.224
Device : VMP-3e (SN .003165)
Address : USB
EC-LAB for windows v11.62 (software)
Internet server v27.00 (firmware)
Command interpretor v12.03 (firmware)
Electrode material :
Initial state :
Electrolyte :
Comments :
Electrode surface area : 0.001 cm²
Characteristic mass : 0.001 g
Equivalent Weight : 0.000 g/eq.
Density : 0.000 g/cm3
Volume (V) : 0.001 cm³
Record Ece
Cycle Definition : Charge/Discharge alternance
Mode                Multi sine
E (V)               0.0000
vs.                 Eoc
tE (h:m:s)          0:00:0.0000
record              0
dI                  0.000
unit dI             mA
dt (s)              0.000
fi                  1.000
unit fi             MHz
ff                  0.100
unit ff             mHz
Nd                  10
Points              per decade
spacing             Logarithmic
Va (mV)             5.0
pw                  0.10
Na                  2
corr                0
E range min (V)     -10.000
E range max (V)     10.000
I Range             Auto
Bandwidth           5
nc cycles           0
goto Ns'            0
nr cycles           0
inc. cycle          0

freq/Hz	Re(Z)/Ohm	-Im(Z)/Ohm	|Z|/Ohm	Phase(Z)/deg	time/s	<Ewe>/V	<I>/mA	Cs/µF	Cp/µF	cycle number	I Range	|Ewe|/V	|I|/A	Ns	(Q-Qo)/mA.h	<Ece>/V	|Ece|/V	Phase(Zce)/deg	|Zce|/Ohm	Re(Zce)/Ohm	-Im(Zce)/Ohm	Phase(Zwe-ce)/deg	|Zwe-ce|/Ohm	Re(Zwe-ce)/Ohm	-Im(Zwe-ce)/Ohm	Re(Y)/Ohm-1	Im(Y)/Ohm-1	|Y|/Ohm-1	Phase(Y)/deg	Re(C)/nF	Im(C)/nF	|C|/nF	Phase(C)/deg	Re(M)	Im(M)	|M|	Phase(M)/deg	Re(Permittivity)	Im(Permittivity)	|Permittivity|	Phase(Permittivity)/deg	Re(Resistivity)/Ohm.cm	Im(Resistivity)/Ohm.cm	|Resistivity|/Ohm.cm	Phase(Resistivity)/deg	Re(Conductivity)/mS/cm	Im(Conductivity)/mS/cm	|Conductivity|/mS/cm	Phase(Conductivity)/deg	Tan(Delta)	Loss Angle(Delta)/deg	dq/mA.h	Pwe/W	Pce/W	Pwe-ce/W	<Ewe-Ece>/V	Rwe/Ohm	Rce/Ohm	Rwe-ce/Ohm		Ewe-Ece/V
1.00002e+06	2.92414	2.0624	3.57827	-35.1954	2.69456	3.97026	-0.00562441	0.0771685	0.0256352	1	10	0.0002384	6.66242e-05	0	1.10588e-06	5.95716e-05	0.000197068	-70.8005	2.9579	0.972733	2.79338	-51.2522	6.22609	3.89687	4.85578	0.228376	0.161074	0.279464	35.1954	25.6352	36.3465	44.4773	-54.8046	0.0000000E+000	0.0000000E+000	0.0000000E+000	54.8046	0.0000000E+000	0.0000000E+000	0.0000000E+000	-54.8046	0.0000000E+000	0.0000000E+000	0.0000000E+000	-35.1954	0.0000000E+000	0.0000000E+000	0.0000000E+000	35.1954	1.41783	54.8046	1.10588e-06	-2.23304e-05	-3.35055e-10	-2.23301e-05	3.9702	705898	10.5916	705887
251206	1.33641	0.449741	1.41005	-18.5996	5.40056	3.96989	-0.0127828	1.40873	0.143311	1	9	0.00367348	0.0026052	0	-5.46185e-06	-0.000207511	5.63229e-05	104.406	0.0216194	-0.00537879	-0.0209396	-17.8568	1.39839	1.33103	0.428801	0.672152	0.226199	0.709193	18.5996	143.311	425.851	449.318	-71.4004	0.0000000E+000	0.0000000E+000	0.0000000E+000	71.4004	0.0000000E+000	0.0000000E+000	0.0000000E+000	-71.4004	0.0000000E+000	0.0000000E+000	0.0000000E+000	-18.5996	0.0000000E+000	0.0000000E+000	0.0000000E+000	18.5996	2.97151	71.4004	-6.44033e-07	-5.07463e-05	2.65257e-09	-5.0749e-05	3.9701	310565	16.2336	310581
63093.8	1.94558	1.20991	2.29111	-31.8766	7.82453	3.96988	0.00908548	2.08487	0.58143	1	9	0.00541677	0.00236426	0	-2.58134e-05	-9.30469e-05	1.21958e-05	25.1344	0.00515839	0.00466997	-0.00219099	-31.7686	2.29392	1.95025	1.20772	0.370645	0.230497	0.436471	31.8766	581.43	934.957	1101	-58.1234	0.0000000E+000	0.0000000E+000	0.0000000E+000	58.1234	0.0000000E+000	0.0000000E+000	0.0000000E+000	-58.1234	0.0000000E+000	0.0000000E+000	0.0000000E+000	-31.8766	0.0000000E+000	0.0000000E+000	0.0000000E+000	31.8766	1.60803	58.1234	-4.29418e-06	3.60683e-05	-8.45376e-10	3.60691e-05	3.96997	436948	10.2413	436958
15847.7	3.45423	2.15782	4.07282	-31.9926	10.2486	3.96986	0.00778155	4.65413	1.30641	1	9	0.00454189	0.00111517	0	-1.88353e-05	-7.39696e-05	2.5618e-06	-147.279	0.00229722	-0.00193268	0.00124177	-32.0218	4.07184	3.4523	2.15906	0.208238	0.130084	0.24553	31.9926	1306.41	2091.29	2465.81	-58.0074	0.0000000E+000	0.0000000E+000	0.0000000E+000	58.0074	0.0000000E+000	0.0000000E+000	0.0000000E+000	-58.0074	0.0000000E+000	0.0000000E+000	0.0000000E+000	-31.9926	0.0000000E+000	0.0000000E+000	0.0000000E+000	31.9926	1.60079	58.0074	7.58485e-07	3.08916e-05	-5.75598e-10	3.08922e-05	3.96993	510163	9.50577	510172
3983.6	5.65638	3.09818	6.44929	-28.711	12.1271	3.96975	-0.030416	12.8955	2.97596	1	10	0.00480186	0.000744556	0	-2.44676e-05	0.000402963	7.99727e-06	-11.6959	0.010741	0.010518	0.00217739	-28.6831	6.45956	5.6669	3.10036	0.135992	0.0744875	0.155056	28.711	2975.96	5433.24	6194.87	-61.289	0.0000000E+000	0.0000000E+000	0.0000000E+000	61.289	0.0000000E+000	0.0000000E+000	0.0000000E+000	-61.289	0.0000000E+000	0.0000000E+000	0.0000000E+000	-28.711	0.0000000E+000	0.0000000E+000	0.0000000E+000	28.711	1.82571	61.289	-2.90441e-06	-0.000120744	-1.22565e-08	-0.000120732	3.96935	130515	13.2484	130502
1000.32	8.92369	4.51386	10.0004	-26.8316	14.7558	3.96976	-0.000268791	35.2479	7.18121	1	10	0.00460996	0.000460979	0	-2.70601e-05	5.95716e-05	1.00733e-05	-16.699	0.0218521	0.0209305	0.00627905	-26.8096	10.0219	8.94462	4.52014	0.0892305	0.0451353	0.0999964	26.8316	7181.21	14196.9	15909.8	-63.1684	0.0000000E+000	0.0000000E+000	0.0000000E+000	63.1684	0.0000000E+000	0.0000000E+000	0.0000000E+000	-63.1684	0.0000000E+000	0.0000000E+000	0.0000000E+000	-26.8316	0.0000000E+000	0.0000000E+000	0.0000000E+000	26.8316	1.97696	63.1684	3.64309e-07	-1.06704e-06	-1.60123e-11	-1.06702e-06	3.9697	1.4769e+07	221.628	1.47687e+07
251.044	14.1222	4.91596	14.9533	-19.1931	17.457	3.96975	-0.00192356	128.962	13.938	1	10	0.00457167	0.000305729	0	-2.81309e-05	0.00042204	1.04946e-05	38.2584	0.0343264	0.0269539	-0.0212552	-19.0824	14.9718	14.1491	4.8947	0.0631575	0.0219853	0.0668747	19.1931	13938	40040	42396.6	-70.8069	0.0000000E+000	0.0000000E+000	0.0000000E+000	70.8069	0.0000000E+000	0.0000000E+000	0.0000000E+000	-70.8069	0.0000000E+000	0.0000000E+000	0.0000000E+000	-19.1931	0.0000000E+000	0.0000000E+000	0.0000000E+000	19.1931	2.87272	70.8069	7.23129e-09	-7.63605e-06	-8.11819e-10	-7.63524e-06	3.96933	2.06376e+06	219.406	2.06354e+06
63.0823	17.8797	2.64746	18.0747	-8.42262	20.1789	3.96976	0.0027053	952.979	20.4457	1	10	0.00456354	0.000252483	0	-2.8348e-05	-0.000398284	5.78877e-06	-33.064	0.0229274	0.0192146	0.0125086	-8.45289	18.0955	17.8989	2.65997	0.0547294	0.00810381	0.0553261	8.42262	20445.7	138081	139586	-81.5774	0.0000000E+000	0.0000000E+000	0.0000000E+000	81.5774	0.0000000E+000	0.0000000E+000	0.0000000E+000	-81.5774	0.0000000E+000	0.0000000E+000	0.0000000E+000	-8.42262	0.0000000E+000	0.0000000E+000	0.0000000E+000	8.42262	6.75353	81.5774	2.14773e-07	1.07394e-05	-1.07748e-09	1.07405e-05	3.97016	1.4674e+06	147.224	1.46755e+06
15.8576	19.2072	1.30328	19.2514	-3.88179	23.0831	3.9698	-0.00474766	7700.95	35.2937	1	11	0.00455093	0.000236395	0	-2.95774e-05	-1.67377e-05	1.35561e-05	42.4036	0.0573453	0.0423445	-0.0386707	-3.75868	19.2911	19.2496	1.26461	0.0518251	0.00351653	0.0519442	3.88179	35293.7	520144	521340	-86.1182	0.0000000E+000	0.0000000E+000	0.0000000E+000	86.1182	0.0000000E+000	0.0000000E+000	0.0000000E+000	-86.1182	0.0000000E+000	0.0000000E+000	0.0000000E+000	-3.88179	0.0000000E+000	0.0000000E+000	0.0000000E+000	3.88179	14.7376	86.1182	3.06812e-07	-1.88473e-05	7.94647e-11	-1.88473e-05	3.96982	836161	3.52546	836164
3.97785	19.8758	0.861475	19.8945	-2.48181	25.9944	3.96984	-0.00226381	46443.9	87.0859	1	11	0.00456579	0.0002295	0	-3.47811e-05	0.000135881	2.67331e-06	79.2506	0.0116484	0.00217258	-0.011444	-2.44861	19.8962	19.878	0.850031	0.050218	0.00217659	0.0502651	2.48181	87085.8	2.00924e+06	2.01112e+06	-87.5182	0.0000000E+000	0.0000000E+000	0.0000000E+000	87.5182	0.0000000E+000	0.0000000E+000	0.0000000E+000	-87.5182	0.0000000E+000	0.0000000E+000	0.0000000E+000	-2.48181	0.0000000E+000	0.0000000E+000	0.0000000E+000	2.48181	23.0719	87.5182	-1.38984e-06	-8.98694e-06	-3.07608e-10	-8.98663e-06	3.9697	1.75361e+06	60.0232	1.75355e+06
1.00469	20.9098	1.02367	20.9348	-2.80276	240.806	3.9698	-0.00269985	154749	370.005	1	11	0.00500646	0.000239145	0	-0.00111896	-0.00028382	1.2949e-07	38.6251	0.000541471	0.000423023	-0.000337998	-2.80178	20.9352	20.9102	1.02333	0.0477102	0.00233572	0.0477673	2.80276	370005	7.55784e+06	7.56689e+06	-87.1972	0.0000000E+000	0.0000000E+000	0.0000000E+000	87.1972	0.0000000E+000	0.0000000E+000	0.0000000E+000	-87.1972	0.0000000E+000	0.0000000E+000	0.0000000E+000	-2.80276	0.0000000E+000	0.0000000E+000	0.0000000E+000	2.80276	20.4263	87.1972	-0.00107718	-1.07179e-05	7.66271e-10	-1.07186e-05	3.97008	1.47038e+06	105.124	1.47049e+06
0.251173	21.8048	1.73282	21.8735	-4.54374	240.809	3.9698	-0.00269985	365672	2294.9	1	11	0.00503354	0.00023012	0	-0.00111896	-0.00028382	1.65736e-07	7.96848	0.000720217	0.000713263	-9.98424e-05	-4.54333	21.8742	21.8055	1.73272	0.0455737	0.00362173	0.0457174	4.54374	2.2949e+06	2.88776e+07	2.89686e+07	-85.4563	0.0000000E+000	0.0000000E+000	0.0000000E+000	85.4563	0.0000000E+000	0.0000000E+000	0.0000000E+000	-85.4563	0.0000000E+000	0.0000000E+000	0.0000000E+000	-4.54374	0.0000000E+000	0.0000000E+000	0.0000000E+000	4.54374	12.5834	85.4563	0.000000000000000E+000	-1.07179e-05	7.66271e-10	-1.07186e-05	3.97008	1.47038e+06	105.124	1.47049e+06
0.0602816	23.4558	3.29243	23.6857	-7.99027	240.812	3.9698	-0.00269985	801897	15494.5	1	11	0.00502592	0.000212192	0	-0.00111896	-0.00028382	3.26197e-07	-36.1272	0.00153727	0.00124167	0.000906345	-7.99202	23.6871	23.457	3.29333	0.0418097	0.00586872	0.0422195	7.99027	1.54945e+07	1.10385e+08	1.11468e+08	-82.0097	0.0000000E+000	0.0000000E+000	0.0000000E+000	82.0097	0.0000000E+000	0.0000000E+000	0.0000000E+000	-82.0097	0.0000000E+000	0.0000000E+000	0.0000000E+000	-7.99027	0.0000000E+000	0.0000000E+000	0.0000000E+000	7.99027	7.12415	82.0097	0.000000000000000E+000	-1.07179e-05	7.66271e-10	-1.07186e-05	3.97008	1.47038e+06	105.124	1.47049e+06
0.00796479	33.6552	7.93097	34.577	-13.2601	20329.7	3.9698	0.00052161	2.51953e+06	132555	1	11	0.00502038	0.000145194	0	-0.00169017	0.000345731	4.7816e-07	-18.7181	0.00329325	0.00311906	0.00105684	-13.2606	34.5803	33.6583	7.93203	0.0281499	0.00663363	0.028921	13.2601	1.32555e+08	5.625e+08	5.77908e+08	-76.7399	0.0000000E+000	0.0000000E+000	0.0000000E+000	76.7399	0.0000000E+000	0.0000000E+000	0.0000000E+000	-76.7399	0.0000000E+000	0.0000000E+000	0.0000000E+000	-13.2601	0.0000000E+000	0.0000000E+000	0.0000000E+000	13.2601	4.24351	76.7399	-0.000571209	2.07069e-06	1.80337e-10	2.07051e-06	3.96945	7.61067e+06	662.815	7.61e+06
0.0019912	41.7638	11.4153	43.2958	-15.2873	20329.7	3.9698	0.00052161	7.00192e+06	486747	1	11	0.00503402	0.00011627	0	-0.00169017	0.000345731	5.24398e-07	-30.2227	0.00451016	0.00389712	0.00227024	-15.2888	43.3002	41.7677	11.4176	0.0222797	0.00608971	0.0230969	15.2873	4.86746e+08	1.7808e+09	1.84612e+09	-74.7127	0.0000000E+000	0.0000000E+000	0.0000000E+000	74.7127	0.0000000E+000	0.0000000E+000	0.0000000E+000	-74.7127	0.0000000E+000	0.0000000E+000	0.0000000E+000	-15.2873	0.0000000E+000	0.0000000E+000	0.0000000E+000	15.2873	3.65857	74.7127	0.000000000000000E+000	2.07069e-06	1.80337e-10	2.07051e-06	3.96945	7.61067e+06	662.815	7.61e+06
0.000497799	46.6723	19.0109	50.3956	-22.1624	20329.7	3.9698	0.00052161	1.68176e+07	2.39322e+06	1	11	0.00503622	9.99337e-05	0	-0.00169017	0.000345731	7.73667e-07	-16.0361	0.00774181	0.00744056	0.00213862	-22.1615	50.4033	46.6797	19.013	0.018377	0.00748544	0.019843	22.1624	2.39322e+09	5.87544e+09	6.34415e+09	-67.8376	0.0000000E+000	0.0000000E+000	0.0000000E+000	67.8376	0.0000000E+000	0.0000000E+000	0.0000000E+000	-67.8376	0.0000000E+000	0.0000000E+000	0.0000000E+000	-22.1624	0.0000000E+000	0.0000000E+000	0.0000000E+000	22.1624	2.45503	67.8376	0.000000000000000E+000	2.07069e-06	1.80337e-10	2.07051e-06	3.96945	7.61067e+06	662.815	7.61e+06
9.95598e-05	54.2832	85.5976	101.359	-57.6185	20329.7	3.9698	0.00052161	1.86756e+07	1.33191e+07	1	11	0.00503131	4.96386e-05	0	-0.00169017	0.000345731	1.07401e-06	-75.9317	0.0216366	0.00525938	0.0209876	-57.6223	101.379	54.2884	85.6186	0.00528375	0.0083318	0.00986594	57.6185	1.33191e+10	8.44653e+09	1.57716e+10	-32.3815	0.0000000E+000	0.0000000E+000	0.0000000E+000	32.3815	0.0000000E+000	0.0000000E+000	0.0000000E+000	-32.3815	0.0000000E+000	0.0000000E+000	0.0000000E+000	-57.6185	0.0000000E+000	0.0000000E+000	0.0000000E+000	57.6185	0.634167	32.3815	0.000000000000000E+000	2.07069e-06	1.80337e-10	2.07051e-06	3.96945	7.61067e+06	662.815	7.61e+06