File: txt/18692_R307_UC91_23p8_SOC50_C04.mpt
EC-Lab ASCII FILE
Nb header lines : 65

Potentio Electrochemical Impedance Spectroscopy

Run on channel : 4 (SN 66756)
User :
CE vs. WE compliance from -10 V to 10 V
Electrode connection : standard
Potential control : Ewe
Ewe ctrl range : min = -10.00 V, max = 10.00 V
Safety Limits :
	Do not start on E overload
Acquisition started on : 10/28/2025 15:55:43.028
Technique started on : 10/28/2025 15:55:45.263
Loaded Setting File :  C:\Users\Celltest\OneDrive - store-dot.com\Documents\EC-Lab\Data\@Biologic Test Protocols\cathode half cell EIS SOC50.mps
Saved on :
	File : 18692_R307_UC91_23p8_SOC50_C04.mpr
	Directory : C:\Users\Celltest\OneDrive - store-dot.com\Documents\EC-Lab\Data\Anna\
	Host : 169.254.61.224
Device : VMP-3e (SN .003165)
Address : USB
EC-LAB for windows v11.62 (software)
Internet server v27.00 (firmware)
Command interpretor v12.03 (firmware)
Electrode material :
Initial state :
Electrolyte :
Comments :
Electrode surface area : 0.001 cm²
Characteristic mass : 0.001 g
Equivalent Weight : 0.000 g/eq.
Density : 0.000 g/cm3
Volume (V) : 0.001 cm³
Record Ece
Cycle Definition : Charge/Discharge alternance
Mode                Multi sine
E (V)               0.0000
vs.                 Eoc
tE (h:m:s)          0:00:0.0000
record              0
dI                  0.000
unit dI             mA
dt (s)              0.000
fi                  1.000
unit fi             MHz
ff                  0.100
unit ff             mHz
Nd                  10
Points              per decade
spacing             Logarithmic
Va (mV)             5.0
pw                  0.10
Na                  2
corr                0
E range min (V)     -10.000
E range max (V)     10.000
I Range             Auto
Bandwidth           5
nc cycles           0
goto Ns'            0
nr cycles           0
inc. cycle          0

freq/Hz	Re(Z)/Ohm	-Im(Z)/Ohm	|Z|/Ohm	Phase(Z)/deg	time/s	<Ewe>/V	<I>/mA	Cs/µF	Cp/µF	cycle number	I Range	|Ewe|/V	|I|/A	Ns	(Q-Qo)/mA.h	<Ece>/V	|Ece|/V	Phase(Zce)/deg	|Zce|/Ohm	Re(Zce)/Ohm	-Im(Zce)/Ohm	Phase(Zwe-ce)/deg	|Zwe-ce|/Ohm	Re(Zwe-ce)/Ohm	-Im(Zwe-ce)/Ohm	Re(Y)/Ohm-1	Im(Y)/Ohm-1	|Y|/Ohm-1	Phase(Y)/deg	Re(C)/nF	Im(C)/nF	|C|/nF	Phase(C)/deg	Re(M)	Im(M)	|M|	Phase(M)/deg	Re(Permittivity)	Im(Permittivity)	|Permittivity|	Phase(Permittivity)/deg	Re(Resistivity)/Ohm.cm	Im(Resistivity)/Ohm.cm	|Resistivity|/Ohm.cm	Phase(Resistivity)/deg	Re(Conductivity)/mS/cm	Im(Conductivity)/mS/cm	|Conductivity|/mS/cm	Phase(Conductivity)/deg	Tan(Delta)	Loss Angle(Delta)/deg	dq/mA.h	Pwe/W	Pce/W	Pwe-ce/W	<Ewe-Ece>/V	Rwe/Ohm	Rce/Ohm	Rwe-ce/Ohm		Ewe-Ece/V
1.00002e+06	2.15789	2.9281	3.63735	-53.6113	2.23452	3.969	0.0300219	0.0543533	0.0352232	1	10	0.000204158	5.61283e-05	0	2.31933e-06	-0.000359481	0.000184509	-66.5222	3.28727	1.30963	3.01513	-59.739	6.88082	3.46752	5.94323	0.163103	0.221318	0.274926	53.6113	35.2232	25.9581	43.755	-36.3887	0.0000000E+000	0.0000000E+000	0.0000000E+000	36.3887	0.0000000E+000	0.0000000E+000	0.0000000E+000	-36.3887	0.0000000E+000	0.0000000E+000	0.0000000E+000	-53.6113	0.0000000E+000	0.0000000E+000	0.0000000E+000	53.6113	0.73696	36.3887	2.31933e-06	0.000119157	-1.07923e-08	0.000119168	3.96936	132203	11.9739	132215
251206	1.21413	0.361798	1.26689	-16.5935	4.93557	3.96762	-0.0451523	1.75115	0.142816	1	9	0.00274034	0.00216304	0	-2.26465e-05	9.9158e-05	9.55294e-05	76.0674	0.0441644	0.0106339	-0.042865	-14.5958	1.26561	1.22477	0.318933	0.756461	0.225417	0.789333	16.5935	142.816	479.266	500.092	-73.4065	0.0000000E+000	0.0000000E+000	0.0000000E+000	73.4065	0.0000000E+000	0.0000000E+000	0.0000000E+000	-73.4065	0.0000000E+000	0.0000000E+000	0.0000000E+000	-16.5935	0.0000000E+000	0.0000000E+000	0.0000000E+000	16.5935	3.35583	73.4065	-3.74349e-06	-0.000179147	-4.47722e-09	-0.000179143	3.96752	87871.8	2.19608	87869.6
63093.8	1.67996	1.11407	2.01579	-33.5505	7.10956	3.96747	-0.051008	2.26423	0.691599	1	9	0.00532312	0.0026407	0	-4.66163e-05	0.000252038	1.29784e-05	55.9162	0.00491476	0.00275426	-0.0040705	-33.4108	2.01585	1.68272	1.11	0.413434	0.274171	0.496082	33.5505	691.599	1042.89	1251.37	-56.4495	0.0000000E+000	0.0000000E+000	0.0000000E+000	56.4495	0.0000000E+000	0.0000000E+000	0.0000000E+000	-56.4495	0.0000000E+000	0.0000000E+000	0.0000000E+000	-33.5505	0.0000000E+000	0.0000000E+000	0.0000000E+000	33.5505	1.50795	56.4495	-4.31183e-06	-0.000202373	-1.28559e-08	-0.00020236	3.96722	77781.3	4.94114	77776.3
15847.7	3.06966	2.17317	3.76105	-35.2966	9.40753	3.96748	-0.0485837	4.62127	1.54287	1	9	0.00527788	0.0014033	0	-7.77169e-05	-3.46116e-05	5.32032e-06	-69.7927	0.00379129	0.00130958	0.00355793	-35.3293	3.76417	3.07097	2.17673	0.217007	0.15363	0.265883	35.2966	1542.87	2179.35	2670.21	-54.7034	0.0000000E+000	0.0000000E+000	0.0000000E+000	54.7034	0.0000000E+000	0.0000000E+000	0.0000000E+000	-54.7034	0.0000000E+000	0.0000000E+000	0.0000000E+000	-35.2966	0.0000000E+000	0.0000000E+000	0.0000000E+000	35.2966	1.41253	54.7034	-4.28715e-06	-0.000192755	1.68156e-09	-0.000192756	3.96751	81662.7	0.712412	81663.4
3983.6	5.31384	3.30019	6.25525	-31.8426	11.7841	3.96744	-0.0247781	12.1061	3.36972	1	10	0.00520881	0.000832709	0	-9.76382e-05	-0.000111051	5.32543e-06	32.1836	0.00639531	0.00541264	-0.00340636	-31.79	6.25806	5.31926	3.29679	0.135806	0.0843431	0.159866	31.8426	3369.72	5425.79	6387.03	-58.1574	0.0000000E+000	0.0000000E+000	0.0000000E+000	58.1574	0.0000000E+000	0.0000000E+000	0.0000000E+000	-58.1574	0.0000000E+000	0.0000000E+000	0.0000000E+000	-31.8426	0.0000000E+000	0.0000000E+000	0.0000000E+000	31.8426	1.61016	58.1574	-2.58975e-06	-9.83056e-05	2.75164e-09	-9.83083e-05	3.96755	160119	4.48184	160124
1000.32	8.87302	5.37448	10.3738	-31.2037	14.4128	3.96741	-0.0259382	29.6036	7.94589	1	10	0.00475413	0.000458282	0	-0.000116716	-0.000321261	8.24746e-06	-79.7157	0.0179965	0.00321296	0.0177073	-31.2781	10.3857	8.87623	5.39219	0.0824511	0.0499415	0.0963968	31.2037	7945.89	13118.3	15337.1	-58.7963	0.0000000E+000	0.0000000E+000	0.0000000E+000	58.7963	0.0000000E+000	0.0000000E+000	0.0000000E+000	-58.7963	0.0000000E+000	0.0000000E+000	0.0000000E+000	-31.2037	0.0000000E+000	0.0000000E+000	0.0000000E+000	31.2037	1.65095	58.7963	-3.05268e-06	-0.000102907	8.33292e-09	-0.000102916	3.96773	152956	12.3856	152969
251.044	15.3739	6.12949	16.5508	-21.7369	17.113	3.96742	-0.0263634	103.43	14.1859	1	10	0.00463742	0.000280193	0	-0.000135395	2.27182e-05	8.02396e-06	79.1819	0.0286372	0.00537498	-0.0281283	-21.6395	16.5454	15.3793	6.10136	0.0561239	0.0223763	0.0604201	21.7369	14185.9	35581	38304.6	-68.2631	0.0000000E+000	0.0000000E+000	0.0000000E+000	68.2631	0.0000000E+000	0.0000000E+000	0.0000000E+000	-68.2631	0.0000000E+000	0.0000000E+000	0.0000000E+000	-21.7369	0.0000000E+000	0.0000000E+000	0.0000000E+000	21.7369	2.50819	68.2631	-3.3878e-06	-0.000104595	-5.9893e-10	-0.000104594	3.96739	150489	0.861733	150489
63.0823	20.3507	3.47393	20.6451	-9.6872	20.085	3.96746	-0.017555	726.258	20.5637	1	11	0.00464142	0.00022482	0	-0.000154864	4.18282e-05	8.90026e-06	30.4744	0.0395885	0.0341195	-0.0200774	-9.61645	20.6754	20.3848	3.45386	0.047747	0.00815057	0.0484376	9.6872	20563.7	120464	122207	-80.3128	0.0000000E+000	0.0000000E+000	0.0000000E+000	80.3128	0.0000000E+000	0.0000000E+000	0.0000000E+000	-80.3128	0.0000000E+000	0.0000000E+000	0.0000000E+000	-9.6872	0.0000000E+000	0.0000000E+000	0.0000000E+000	9.6872	5.85812	80.3128	-3.70822e-06	-6.96489e-05	-7.34296e-10	-6.96482e-05	3.96742	226001	2.38269	225999
15.8576	21.7954	1.5463	21.8502	-4.05811	22.743	3.96744	-0.0182456	6490.68	32.5062	1	11	0.00462227	0.000211544	0	-0.000169586	-0.000435921	2.28696e-05	24.9929	0.108108	0.0979848	-0.0456762	-3.92105	21.9447	21.8934	1.50062	0.0456515	0.0032388	0.0457662	4.05811	32506.3	458182	459334	-85.9419	0.0000000E+000	0.0000000E+000	0.0000000E+000	85.9419	0.0000000E+000	0.0000000E+000	0.0000000E+000	-85.9419	0.0000000E+000	0.0000000E+000	0.0000000E+000	-4.05811	0.0000000E+000	0.0000000E+000	0.0000000E+000	4.05811	14.0952	85.9419	-3.00394e-06	-7.23883e-05	7.95364e-09	-7.23963e-05	3.96787	217446	23.8918	217470
3.97785	22.589	1.04344	22.6131	-2.64475	25.6554	3.96746	-0.0158721	38344.5	81.6431	1	11	0.00462701	0.000204616	0	-0.000180907	-5.37216e-05	6.35925e-06	-67.9508	0.0310789	0.0116671	0.0288058	-2.71626	22.6261	22.6007	1.07225	0.044175	0.00204055	0.0442221	2.64475	81643.1	1.76746e+06	1.76934e+06	-87.3552	0.0000000E+000	0.0000000E+000	0.0000000E+000	87.3552	0.0000000E+000	0.0000000E+000	0.0000000E+000	-87.3552	0.0000000E+000	0.0000000E+000	0.0000000E+000	-2.64475	0.0000000E+000	0.0000000E+000	0.0000000E+000	2.64475	21.6486	87.3552	-2.12497e-06	-6.29718e-05	8.52674e-10	-6.29727e-05	3.96751	249964	3.38466	249968
1.00469	23.3958	1.15926	23.4245	-2.8367	240.47	3.96742	-0.0146162	136648	334.68	1	11	0.00506291	0.000216138	0	-0.00193373	-0.000225711	4.95184e-07	10.8834	0.00229106	0.00224985	-0.000432576	-2.83537	23.4267	23.398	1.15883	0.0426381	0.00211273	0.0426904	2.8367	334680	6.75436e+06	6.76265e+06	-87.1633	0.0000000E+000	0.0000000E+000	0.0000000E+000	87.1633	0.0000000E+000	0.0000000E+000	0.0000000E+000	-87.1633	0.0000000E+000	0.0000000E+000	0.0000000E+000	-2.8367	0.0000000E+000	0.0000000E+000	0.0000000E+000	2.8367	20.1816	87.1633	-0.00173393	-5.79887e-05	3.29905e-09	-5.7992e-05	3.96765	271439	15.4425	271455
0.251173	24.4834	1.86755	24.5545	-4.36198	240.473	3.96742	-0.0146162	339292	1962.71	1	11	0.00509075	0.000207324	0	-0.00193373	-0.000225711	3.93842e-07	-5.66498	0.00189965	0.00189037	0.000187517	-4.36208	24.5564	24.4853	1.86774	0.0406077	0.00309749	0.0407257	4.36198	1.96271e+06	2.57309e+07	2.58056e+07	-85.638	0.0000000E+000	0.0000000E+000	0.0000000E+000	85.638	0.0000000E+000	0.0000000E+000	0.0000000E+000	-85.638	0.0000000E+000	0.0000000E+000	0.0000000E+000	-4.36198	0.0000000E+000	0.0000000E+000	0.0000000E+000	4.36198	13.1099	85.638	0.000000000000000E+000	-5.79887e-05	3.29905e-09	-5.7992e-05	3.96765	271439	15.4425	271455
0.0602816	26.264	3.06804	26.4426	-6.66285	240.475	3.96742	-0.0146162	860545	11584.8	1	11	0.00508391	0.000192262	0	-0.00193373	-0.000225711	9.02386e-07	-17.5603	0.00469352	0.0044748	0.00141608	-6.66477	26.4472	26.2685	3.06946	0.0375624	0.00438787	0.0378178	6.66285	1.15848e+07	9.91718e+07	9.98461e+07	-83.3372	0.0000000E+000	0.0000000E+000	0.0000000E+000	83.3372	0.0000000E+000	0.0000000E+000	0.0000000E+000	-83.3372	0.0000000E+000	0.0000000E+000	0.0000000E+000	-6.66285	0.0000000E+000	0.0000000E+000	0.0000000E+000	6.66285	8.5605	83.3372	0.000000000000000E+000	-5.79887e-05	3.29905e-09	-5.7992e-05	3.96765	271439	15.4425	271455
0.00796479	34.4806	6.06371	35.0097	-9.97397	20329.4	3.96743	-0.000227124	3.29539e+06	98856.9	1	11	0.00507608	0.000144991	0	-0.0126238	-9.19415e-05	3.88195e-07	-37.1766	0.00267738	0.00213327	0.00161787	-9.97597	35.0121	34.4828	6.06533	0.0281318	0.00494722	0.0285635	9.97397	9.88569e+07	5.62138e+08	5.70765e+08	-80.026	0.0000000E+000	0.0000000E+000	0.0000000E+000	80.026	0.0000000E+000	0.0000000E+000	0.0000000E+000	-80.026	0.0000000E+000	0.0000000E+000	0.0000000E+000	-9.97397	0.0000000E+000	0.0000000E+000	0.0000000E+000	9.97397	5.68639	80.026	-0.0106901	-9.01097e-07	2.08821e-11	-9.01118e-07	3.96752	1.74682e+07	404.808	1.74686e+07
0.0019912	39.5354	9.43217	40.645	-13.4185	20329.4	3.96743	-0.000227124	8.47411e+06	456357	1	11	0.00508868	0.000125198	0	-0.0126238	-9.19415e-05	9.20442e-07	28.3201	0.00735187	0.00647193	-0.0034877	-13.4116	40.6504	39.5419	9.42869	0.0239316	0.0057095	0.0246033	13.4185	4.56357e+08	1.91284e+09	1.96652e+09	-76.5815	0.0000000E+000	0.0000000E+000	0.0000000E+000	76.5815	0.0000000E+000	0.0000000E+000	0.0000000E+000	-76.5815	0.0000000E+000	0.0000000E+000	0.0000000E+000	-13.4185	0.0000000E+000	0.0000000E+000	0.0000000E+000	13.4185	4.19155	76.5815	0.000000000000000E+000	-9.01097e-07	2.08821e-11	-9.01118e-07	3.96752	1.74682e+07	404.808	1.74686e+07
0.000497799	42.7666	17.5323	46.2208	-22.2914	20329.4	3.96743	-0.000227124	1.82359e+07	2.6238e+06	1	11	0.00509058	0.000110136	0	-0.0126238	-9.19415e-05	2.58091e-06	42.5965	0.0234339	0.0172506	-0.0158608	-22.2651	46.2307	42.7838	17.5165	0.0200184	0.00820663	0.0216353	22.2914	2.6238e+09	6.40023e+09	6.91717e+09	-67.7086	0.0000000E+000	0.0000000E+000	0.0000000E+000	67.7086	0.0000000E+000	0.0000000E+000	0.0000000E+000	-67.7086	0.0000000E+000	0.0000000E+000	0.0000000E+000	-22.2914	0.0000000E+000	0.0000000E+000	0.0000000E+000	22.2914	2.4393	67.7086	0.000000000000000E+000	-9.01097e-07	2.08821e-11	-9.01118e-07	3.96752	1.74682e+07	404.808	1.74686e+07
9.95598e-05	46.7789	92.242	103.426	-63.109	20329.4	3.96743	-0.000227124	1.73304e+07	1.37851e+07	1	11	0.00509108	4.92246e-05	0	-0.0126238	-9.19415e-05	3.89529e-06	-113.688	0.0791331	-0.0317917	0.0724661	-63.1428	103.476	46.7471	92.3144	0.00437315	0.00862329	0.00966879	63.109	1.37851e+10	6.99085e+09	1.54564e+10	-26.891	0.0000000E+000	0.0000000E+000	0.0000000E+000	26.891	0.0000000E+000	0.0000000E+000	0.0000000E+000	-26.891	0.0000000E+000	0.0000000E+000	0.0000000E+000	-63.109	0.0000000E+000	0.0000000E+000	0.0000000E+000	63.109	0.507132	26.891	0.000000000000000E+000	-9.01097e-07	2.08821e-11	-9.01118e-07	3.96752	1.74682e+07	404.808	1.74686e+07