File: txt/18698_R307_UC91_25_SOC50_C05.mpt
EC-Lab ASCII FILE
Nb header lines : 65

Potentio Electrochemical Impedance Spectroscopy

Run on channel : 5 (SN 65912)
User :
CE vs. WE compliance from -10 V to 10 V
Electrode connection : standard
Potential control : Ewe
Ewe ctrl range : min = -10.00 V, max = 10.00 V
Safety Limits :
	Do not start on E overload
Acquisition started on : 10/29/2025 14:38:31.353
Technique started on : 10/29/2025 14:38:34.048
Loaded Setting File :  C:\Users\Celltest\OneDrive - store-dot.com\Documents\EC-Lab\Data\@Biologic Test Protocols\cathode half cell EIS SOC50.mps
Saved on :
	File : 18698_R307_UC91_25_SOC50_C05.mpr
	Directory : C:\Users\Celltest\OneDrive - store-dot.com\Documents\EC-Lab\Data\Anna\
	Host : 169.254.61.224
Device : VMP-3e (SN .003165)
Address : USB
EC-LAB for windows v11.62 (software)
Internet server v27.00 (firmware)
Command interpretor v12.03 (firmware)
Electrode material :
Initial state :
Electrolyte :
Comments :
Electrode surface area : 0.001 cm²
Characteristic mass : 0.001 g
Equivalent Weight : 0.000 g/eq.
Density : 0.000 g/cm3
Volume (V) : 0.001 cm³
Record Ece
Cycle Definition : Charge/Discharge alternance
Mode                Multi sine
E (V)               0.0000
vs.                 Eoc
tE (h:m:s)          0:00:0.0000
record              0
dI                  0.000
unit dI             mA
dt (s)              0.000
fi                  1.000
unit fi             MHz
ff                  0.100
unit ff             mHz
Nd                  10
Points              per decade
spacing             Logarithmic
Va (mV)             5.0
pw                  0.10
Na                  2
corr                0
E range min (V)     -10.000
E range max (V)     10.000
I Range             Auto
Bandwidth           5
nc cycles           0
goto Ns'            0
nr cycles           0
inc. cycle          0

freq/Hz	Re(Z)/Ohm	-Im(Z)/Ohm	|Z|/Ohm	Phase(Z)/deg	time/s	<Ewe>/V	<I>/mA	Cs/µF	Cp/µF	cycle number	I Range	|Ewe|/V	|I|/A	Ns	(Q-Qo)/mA.h	<Ece>/V	|Ece|/V	Phase(Zce)/deg	|Zce|/Ohm	Re(Zce)/Ohm	-Im(Zce)/Ohm	Phase(Zwe-ce)/deg	|Zwe-ce|/Ohm	Re(Zwe-ce)/Ohm	-Im(Zwe-ce)/Ohm	Re(Y)/Ohm-1	Im(Y)/Ohm-1	|Y|/Ohm-1	Phase(Y)/deg	Re(C)/nF	Im(C)/nF	|C|/nF	Phase(C)/deg	Re(M)	Im(M)	|M|	Phase(M)/deg	Re(Permittivity)	Im(Permittivity)	|Permittivity|	Phase(Permittivity)/deg	Re(Resistivity)/Ohm.cm	Im(Resistivity)/Ohm.cm	|Resistivity|/Ohm.cm	Phase(Resistivity)/deg	Re(Conductivity)/mS/cm	Im(Conductivity)/mS/cm	|Conductivity|/mS/cm	Phase(Conductivity)/deg	Tan(Delta)	Loss Angle(Delta)/deg	dq/mA.h	Pwe/W	Pce/W	Pwe-ce/W	<Ewe-Ece>/V	Rwe/Ohm	Rce/Ohm	Rwe-ce/Ohm		Ewe-Ece/V
1.00002e+06	0.957098	-0.403546	1.03869	22.862	2.69453	3.97394	0.0409422	-0.394384	-0.0595291	1	9	0.000223525	0.000215198	0	1.16547e-05	-0.000117823	0.000189999	3.82775	0.8829	0.88093	-0.0589399	14.1236	1.89532	1.83803	-0.462486	0.887117	-0.374039	0.962747	-22.862	-59.5291	141.186	153.223	-112.862	0.0000000E+000	0.0000000E+000	0.0000000E+000	112.862	0.0000000E+000	0.0000000E+000	0.0000000E+000	-112.862	0.0000000E+000	0.0000000E+000	0.0000000E+000	22.862	0.0000000E+000	0.0000000E+000	0.0000000E+000	-22.862	2.37172	67.138	1.16547e-05	0.000162702	-4.82392e-09	0.000162706	3.97405	97062.1	2.87778	97065
251206	1.27762	0.425876	1.34673	-18.4351	4.99656	3.97231	-0.0321967	1.48767	0.148769	1	9	0.00345107	0.00256256	0	1.26688e-06	-0.000366009	5.12979e-05	92.4753	0.0200182	-0.000864556	-0.0199996	-17.6353	1.33971	1.27675	0.405877	0.704435	0.234814	0.74254	18.4351	148.769	446.304	470.446	-71.5649	0.0000000E+000	0.0000000E+000	0.0000000E+000	71.5649	0.0000000E+000	0.0000000E+000	0.0000000E+000	-71.5649	0.0000000E+000	0.0000000E+000	0.0000000E+000	-18.4351	0.0000000E+000	0.0000000E+000	0.0000000E+000	18.4351	2.99997	71.5649	-2.57689e-06	-0.000127895	1.17843e-08	-0.000127907	3.97268	123376	11.3679	123388
63093.8	1.87211	1.24401	2.24775	-33.6038	7.29555	3.97203	-0.0291058	2.02773	0.6211	1	9	0.0053362	0.00237402	0	-2.07626e-05	0.000130363	1.32612e-05	40.7545	0.00558595	0.00423143	-0.00364662	-33.4668	2.24926	1.87635	1.24036	0.370542	0.246223	0.44489	33.6038	621.1	934.697	1122.24	-56.3962	0.0000000E+000	0.0000000E+000	0.0000000E+000	56.3962	0.0000000E+000	0.0000000E+000	0.0000000E+000	-56.3962	0.0000000E+000	0.0000000E+000	0.0000000E+000	-33.6038	0.0000000E+000	0.0000000E+000	0.0000000E+000	33.6038	1.5049	56.3962	-2.42456e-06	-0.000115609	-3.79432e-09	-0.000115605	3.9719	136468	4.47894	136464
15847.7	3.45771	2.30494	4.15554	-33.6878	9.59352	3.972	-0.0286217	4.35707	1.34048	1	9	0.00509427	0.0012259	0	-3.77073e-05	-4.14579e-05	8.23255e-06	-99.4609	0.00671553	-0.00110387	0.00662419	-33.7722	4.1583	3.45661	2.31157	0.200232	0.133476	0.240642	33.6878	1340.47	2010.89	2416.72	-56.3122	0.0000000E+000	0.0000000E+000	0.0000000E+000	56.3122	0.0000000E+000	0.0000000E+000	0.0000000E+000	-56.3122	0.0000000E+000	0.0000000E+000	0.0000000E+000	-33.6878	0.0000000E+000	0.0000000E+000	0.0000000E+000	33.6878	1.50013	56.3122	-3.17482e-06	-0.000113686	1.1866e-09	-0.000113687	3.97204	138776	1.44848	138777
3983.6	5.73213	3.28126	6.60485	-29.7882	11.5961	3.97196	-0.0249527	12.176	3.0051	1	10	0.00513603	0.000777615	0	-4.85484e-05	-7.96403e-05	9.6083e-06	-30.3979	0.0123561	0.0106575	0.00625223	-29.7894	6.6172	5.74279	3.28751	0.131399	0.0752168	0.151404	29.7882	3005.1	5249.71	6048.97	-60.2118	0.0000000E+000	0.0000000E+000	0.0000000E+000	60.2118	0.0000000E+000	0.0000000E+000	0.0000000E+000	-60.2118	0.0000000E+000	0.0000000E+000	0.0000000E+000	-29.7882	0.0000000E+000	0.0000000E+000	0.0000000E+000	29.7882	1.74693	60.2118	-1.38484e-06	-9.91111e-05	1.98724e-09	-9.91131e-05	3.97204	159179	3.19165	159183
1000.32	9.15881	4.98107	10.4257	-28.5398	14.2248	3.97195	-0.0108708	31.9417	7.29112	1	10	0.00482351	0.000462656	0	-5.77461e-05	3.4907e-05	3.35677e-06	-4.82931	0.00725543	0.00722967	0.000610817	-28.5238	10.4323	9.16604	4.98168	0.0842616	0.0458262	0.095917	28.5398	7291.12	13406.4	15260.8	-61.4602	0.0000000E+000	0.0000000E+000	0.0000000E+000	61.4602	0.0000000E+000	0.0000000E+000	0.0000000E+000	-61.4602	0.0000000E+000	0.0000000E+000	0.0000000E+000	-28.5398	0.0000000E+000	0.0000000E+000	0.0000000E+000	28.5398	1.83872	61.4602	-1.42877e-06	-4.31782e-05	-3.79466e-10	-4.31778e-05	3.97192	365378	3.21108	365375
251.044	15.1412	5.84041	16.2285	-21.0932	16.925	3.97195	-0.0113102	108.549	14.059	1	10	0.0047521	0.000292824	0	-6.55535e-05	-0.000117823	1.12443e-05	51.161	0.0383994	0.0240816	-0.0299097	-20.9641	16.2403	15.1652	5.8105	0.0574911	0.0221761	0.0616199	21.0932	14059	36447.7	39065.2	-68.9068	0.0000000E+000	0.0000000E+000	0.0000000E+000	68.9068	0.0000000E+000	0.0000000E+000	0.0000000E+000	-68.9068	0.0000000E+000	0.0000000E+000	0.0000000E+000	-21.0932	0.0000000E+000	0.0000000E+000	0.0000000E+000	21.0932	2.59248	68.9068	-1.49245e-06	-4.49234e-05	1.33259e-09	-4.49247e-05	3.97207	351185	10.4174	351195
63.0823	19.9577	3.41879	20.2484	-9.7205	19.896	3.97199	-0.00921811	737.973	21.0379	1	11	0.00474811	0.000234493	0	-7.43002e-05	-9.87315e-05	9.19352e-06	4.47522	0.039206	0.0390865	-0.00305916	-9.69335	20.2864	19.9968	3.41573	0.0486775	0.00833853	0.0493866	9.7205	21037.9	122812	124601	-80.2795	0.0000000E+000	0.0000000E+000	0.0000000E+000	80.2795	0.0000000E+000	0.0000000E+000	0.0000000E+000	-80.2795	0.0000000E+000	0.0000000E+000	0.0000000E+000	-9.7205	0.0000000E+000	0.0000000E+000	0.0000000E+000	9.7205	5.83766	80.2795	-1.64644e-06	-3.66143e-05	9.10118e-10	-3.66152e-05	3.97209	430890	10.7106	430901
15.8576	21.4723	1.52936	21.5267	-4.074	22.554	3.972	-0.00906546	6562.56	33.1236	1	11	0.00474649	0.000220493	0	-8.25368e-05	0.000187637	1.24208e-05	7.91441	0.0563319	0.0557953	-0.00775655	-4.04294	21.5818	21.5281	1.52161	0.0463365	0.00330031	0.0464539	4.074	33123.7	465058	466236	-85.926	0.0000000E+000	0.0000000E+000	0.0000000E+000	85.926	0.0000000E+000	0.0000000E+000	0.0000000E+000	-85.926	0.0000000E+000	0.0000000E+000	0.0000000E+000	-4.074	0.0000000E+000	0.0000000E+000	0.0000000E+000	4.074	14.0401	85.926	-1.96394e-06	-3.6008e-05	-1.70101e-09	-3.60063e-05	3.97182	438147	20.698	438126
3.97785	22.123	0.944081	22.1432	-2.44357	25.4673	3.97201	-0.00761956	42380.1	77.0374	1	11	0.00475006	0.000214516	0	-8.92023e-05	-0.000270552	4.39998e-06	9.98117	0.0205112	0.0202008	-0.0035551	-2.43216	22.1632	22.1432	0.940526	0.0451196	0.00192544	0.0451607	2.44357	77037.4	1.80525e+06	1.80689e+06	-87.5564	0.0000000E+000	0.0000000E+000	0.0000000E+000	87.5564	0.0000000E+000	0.0000000E+000	0.0000000E+000	-87.5564	0.0000000E+000	0.0000000E+000	0.0000000E+000	-2.44357	0.0000000E+000	0.0000000E+000	0.0000000E+000	2.44357	23.4334	87.5564	-2.91864e-06	-3.0265e-05	2.06149e-09	-3.0267e-05	3.97228	521292	35.5076	521327
1.00469	22.8699	1.04736	22.8939	-2.6221	240.281	3.97196	-0.00772046	151249	316.55	1	11	0.00507623	0.000221729	0	-0.0014176	1.58158e-05	6.50291e-07	-20.3687	0.00293282	0.00274944	0.0010208	-2.62434	22.8967	22.8727	1.04838	0.0436341	0.00199828	0.0436798	2.6221	316550	6.91214e+06	6.91938e+06	-87.3779	0.0000000E+000	0.0000000E+000	0.0000000E+000	87.3779	0.0000000E+000	0.0000000E+000	0.0000000E+000	-87.3779	0.0000000E+000	0.0000000E+000	0.0000000E+000	-2.6221	0.0000000E+000	0.0000000E+000	0.0000000E+000	2.6221	21.8359	87.3779	-0.00132218	-3.06654e-05	-1.22105e-10	-3.06652e-05	3.97194	514472	2.04855	514470
0.251173	23.817	1.82081	23.8865	-4.37177	240.282	3.97196	-0.00772046	348002	2022.12	1	11	0.00510666	0.000213789	0	-0.0014176	1.58158e-05	4.96343e-07	12.074	0.00232165	0.00227029	-0.000485629	-4.37019	23.8887	23.8193	1.82033	0.0417429	0.00319125	0.0418647	4.37177	2.02212e+06	2.64502e+07	2.65274e+07	-85.6282	0.0000000E+000	0.0000000E+000	0.0000000E+000	85.6282	0.0000000E+000	0.0000000E+000	0.0000000E+000	-85.6282	0.0000000E+000	0.0000000E+000	0.0000000E+000	-4.37177	0.0000000E+000	0.0000000E+000	0.0000000E+000	4.37177	13.0804	85.6282	0.000000000000000E+000	-3.06654e-05	-1.22105e-10	-3.06652e-05	3.97194	514472	2.04855	514470
0.0602816	25.5984	3.37348	25.8197	-7.50744	240.283	3.97196	-0.00772046	782632	13360.1	1	11	0.00509534	0.000197343	0	-0.0014176	1.58158e-05	6.41298e-07	28.1375	0.00324967	0.00286562	-0.00153251	-7.50324	25.8224	25.6013	3.37194	0.0383981	0.00506027	0.0387301	7.50744	1.33601e+07	1.01378e+08	1.02255e+08	-82.4926	0.0000000E+000	0.0000000E+000	0.0000000E+000	82.4926	0.0000000E+000	0.0000000E+000	0.0000000E+000	-82.4926	0.0000000E+000	0.0000000E+000	0.0000000E+000	-7.50744	0.0000000E+000	0.0000000E+000	0.0000000E+000	7.50744	7.58814	82.4926	0.000000000000000E+000	-3.06654e-05	-1.22105e-10	-3.06652e-05	3.97194	514472	2.04855	514470
0.00796479	35.6562	7.49787	36.436	-11.8753	20329.2	3.97196	-0.000811602	2.66507e+06	112856	1	11	0.00508918	0.000139675	0	-0.0099523	-4.14579e-05	2.18623e-07	-129.962	0.00156523	-0.00100532	0.0011997	-11.8775	36.4352	35.6552	7.49907	0.026858	0.00564777	0.0274454	11.8753	1.12855e+08	5.36685e+08	5.48423e+08	-78.1247	0.0000000E+000	0.0000000E+000	0.0000000E+000	78.1247	0.0000000E+000	0.0000000E+000	0.0000000E+000	-78.1247	0.0000000E+000	0.0000000E+000	0.0000000E+000	-11.8753	0.0000000E+000	0.0000000E+000	0.0000000E+000	11.8753	4.75551	78.1247	-0.0085347	-3.22365e-06	3.36473e-11	-3.22369e-06	3.972	4.89398e+06	51.0815	4.89403e+06
0.0019912	42.9031	10.584	44.1894	-13.8579	20329.2	3.97196	-0.000811602	7.5519e+06	433232	1	11	0.00510062	0.000115426	0	-0.0099523	-4.14579e-05	3.12074e-07	-96.046	0.00270366	-0.000284768	0.00268862	-13.8614	44.1897	42.9029	10.5867	0.0219712	0.00542018	0.0226299	13.8579	4.33231e+08	1.75614e+09	1.80879e+09	-76.1421	0.0000000E+000	0.0000000E+000	0.0000000E+000	76.1421	0.0000000E+000	0.0000000E+000	0.0000000E+000	-76.1421	0.0000000E+000	0.0000000E+000	0.0000000E+000	-13.8579	0.0000000E+000	0.0000000E+000	0.0000000E+000	13.8579	4.05359	76.1421	0.000000000000000E+000	-3.22365e-06	3.36473e-11	-3.22369e-06	3.972	4.89398e+06	51.0815	4.89403e+06
0.000497799	47.1612	18.4258	50.6329	-21.3404	20329.2	3.97196	-0.000811602	1.73516e+07	2.29787e+06	1	11	0.00510189	0.000100762	0	-0.0099523	-4.14579e-05	5.31846e-07	-27.1121	0.00527821	0.00469823	0.00240546	-21.341	50.6382	47.1659	18.4282	0.0183958	0.0071872	0.01975	21.3404	2.29787e+09	5.88147e+09	6.31442e+09	-68.6596	0.0000000E+000	0.0000000E+000	0.0000000E+000	68.6596	0.0000000E+000	0.0000000E+000	0.0000000E+000	-68.6596	0.0000000E+000	0.0000000E+000	0.0000000E+000	-21.3404	0.0000000E+000	0.0000000E+000	0.0000000E+000	21.3404	2.55953	68.6596	0.000000000000000E+000	-3.22365e-06	3.36473e-11	-3.22369e-06	3.972	4.89398e+06	51.0815	4.89403e+06
9.95598e-05	54.6239	85.3683	101.348	-57.3864	20329.2	3.97196	-0.000811602	1.87258e+07	1.32861e+07	1	11	0.00509947	5.03162e-05	0	-0.0099523	-4.14579e-05	3.04279e-06	-85.3108	0.0604734	0.00494375	0.060271	-57.4024	101.402	54.6288	85.4286	0.005318	0.00831117	0.00986695	57.3864	1.32861e+10	8.50128e+09	1.57732e+10	-32.6136	0.0000000E+000	0.0000000E+000	0.0000000E+000	32.6136	0.0000000E+000	0.0000000E+000	0.0000000E+000	-32.6136	0.0000000E+000	0.0000000E+000	0.0000000E+000	-57.3864	0.0000000E+000	0.0000000E+000	0.0000000E+000	57.3864	0.639862	32.6136	0.000000000000000E+000	-3.22365e-06	3.36473e-11	-3.22369e-06	3.972	4.89398e+06	51.0815	4.89403e+06