File: txt/18699_R307_UC91_26p5_SOC50_C01.mpt
EC-Lab ASCII FILE
Nb header lines : 65

Potentio Electrochemical Impedance Spectroscopy

Run on channel : 1 (SN 66354)
User :
CE vs. WE compliance from -10 V to 10 V
Electrode connection : standard
Potential control : Ewe
Ewe ctrl range : min = -10.00 V, max = 10.00 V
Safety Limits :
	Do not start on E overload
Acquisition started on : 10/30/2025 15:42:55.319
Technique started on : 10/30/2025 15:42:58.014
Loaded Setting File :  C:\Users\Celltest\OneDrive - store-dot.com\Documents\EC-Lab\Data\@Biologic Test Protocols\cathode half cell EIS SOC50.mps
Saved on :
	File : 18699_R307_UC91_26p5_SOC50_C01.mpr
	Directory : C:\Users\Celltest\OneDrive - store-dot.com\Documents\EC-Lab\Data\Anna\
	Host : 169.254.61.224
Device : VMP-3e (SN .003165)
Address : USB
EC-LAB for windows v11.62 (software)
Internet server v27.00 (firmware)
Command interpretor v12.03 (firmware)
Electrode material :
Initial state :
Electrolyte :
Comments :
Electrode surface area : 0.001 cm²
Characteristic mass : 0.001 g
Equivalent Weight : 0.000 g/eq.
Density : 0.000 g/cm3
Volume (V) : 0.001 cm³
Record Ece
Cycle Definition : Charge/Discharge alternance
Mode                Multi sine
E (V)               0.0000
vs.                 Eoc
tE (h:m:s)          0:00:0.0000
record              0
dI                  0.000
unit dI             mA
dt (s)              0.000
fi                  1.000
unit fi             MHz
ff                  0.100
unit ff             mHz
Nd                  10
Points              per decade
spacing             Logarithmic
Va (mV)             5.0
pw                  0.10
Na                  2
corr                0
E range min (V)     -10.000
E range max (V)     10.000
I Range             Auto
Bandwidth           5
nc cycles           0
goto Ns'            0
nr cycles           0
inc. cycle          0

freq/Hz	Re(Z)/Ohm	-Im(Z)/Ohm	|Z|/Ohm	Phase(Z)/deg	time/s	<Ewe>/V	<I>/mA	Cs/µF	Cp/µF	cycle number	I Range	|Ewe|/V	|I|/A	Ns	(Q-Qo)/mA.h	<Ece>/V	|Ece|/V	Phase(Zce)/deg	|Zce|/Ohm	Re(Zce)/Ohm	-Im(Zce)/Ohm	Phase(Zwe-ce)/deg	|Zwe-ce|/Ohm	Re(Zwe-ce)/Ohm	-Im(Zwe-ce)/Ohm	Re(Y)/Ohm-1	Im(Y)/Ohm-1	|Y|/Ohm-1	Phase(Y)/deg	Re(C)/nF	Im(C)/nF	|C|/nF	Phase(C)/deg	Re(M)	Im(M)	|M|	Phase(M)/deg	Re(Permittivity)	Im(Permittivity)	|Permittivity|	Phase(Permittivity)/deg	Re(Resistivity)/Ohm.cm	Im(Resistivity)/Ohm.cm	|Resistivity|/Ohm.cm	Phase(Resistivity)/deg	Re(Conductivity)/mS/cm	Im(Conductivity)/mS/cm	|Conductivity|/mS/cm	Phase(Conductivity)/deg	Tan(Delta)	Loss Angle(Delta)/deg	dq/mA.h	Pwe/W	Pce/W	Pwe-ce/W	<Ewe-Ece>/V	Rwe/Ohm	Rce/Ohm	Rwe-ce/Ohm		Ewe-Ece/V
1.00002e+06	2.69995	2.38261	3.60091	-41.4273	2.69451	3.97149	-0.00158069	0.0667973	0.0292442	1	10	0.000237662	6.60006e-05	0	4.74604e-06	2.1417e-05	0.000191202	-71.0865	2.89697	0.939022	2.74056	-54.6139	6.28403	3.63897	5.12317	0.208224	0.18375	0.277708	41.4273	29.2442	33.1393	44.1977	-48.5727	0.0000000E+000	0.0000000E+000	0.0000000E+000	48.5727	0.0000000E+000	0.0000000E+000	0.0000000E+000	-48.5727	0.0000000E+000	0.0000000E+000	0.0000000E+000	-41.4273	0.0000000E+000	0.0000000E+000	0.0000000E+000	41.4273	1.13319	48.5727	4.74604e-06	-6.27767e-06	-3.38535e-11	-6.27764e-06	3.97147	2.51251e+06	13.5492	2.5125e+06
251206	1.39561	0.460529	1.46963	-18.2621	5.39554	3.97107	0.000703263	1.37573	0.135093	1	9	0.00381324	0.00259469	0	3.1428e-06	0.000402963	5.44594e-05	115.059	0.0209887	-0.0088897	-0.0190132	-17.6609	1.45531	1.38672	0.441516	0.646172	0.213227	0.680444	18.2621	135.093	409.391	431.104	-71.7379	0.0000000E+000	0.0000000E+000	0.0000000E+000	71.7379	0.0000000E+000	0.0000000E+000	0.0000000E+000	-71.7379	0.0000000E+000	0.0000000E+000	0.0000000E+000	-18.2621	0.0000000E+000	0.0000000E+000	0.0000000E+000	18.2621	3.03045	71.7379	-2.375e-06	2.79271e-06	2.83389e-10	2.79243e-06	3.97067	5.64664e+06	572.99	5.64607e+06
63093.8	2.05943	1.24102	2.40445	-31.0732	7.81957	3.97106	0.0194794	2.03262	0.541476	1	9	0.00546402	0.00227246	0	-2.07165e-05	2.1417e-05	2.8836e-05	89.9964	0.0126893	8.01169e-07	-0.0126893	-30.8135	2.39793	2.05943	1.22833	0.356218	0.214658	0.415895	31.0732	541.476	898.564	1049.1	-58.9268	0.0000000E+000	0.0000000E+000	0.0000000E+000	58.9268	0.0000000E+000	0.0000000E+000	0.0000000E+000	-58.9268	0.0000000E+000	0.0000000E+000	0.0000000E+000	-31.0732	0.0000000E+000	0.0000000E+000	0.0000000E+000	31.0732	1.65947	58.9268	4.18709e-06	7.73542e-05	4.1719e-10	7.73537e-05	3.97104	203859	1.09946	203858
15847.7	3.57942	2.15877	4.18002	-31.0943	10.2436	3.97104	0.01825	4.6521	1.2408	1	9	0.00451691	0.0010806	0	2.97795e-06	-0.000112124	8.87076e-06	-111.634	0.00820914	-0.00302653	0.00763086	-31.2053	4.18138	3.5764	2.1664	0.20486	0.123552	0.239233	31.0943	1240.8	2057.36	2402.57	-58.9057	0.0000000E+000	0.0000000E+000	0.0000000E+000	58.9057	0.0000000E+000	0.0000000E+000	0.0000000E+000	-58.9057	0.0000000E+000	0.0000000E+000	0.0000000E+000	-31.0943	0.0000000E+000	0.0000000E+000	0.0000000E+000	31.0943	1.65809	58.9057	9.13934e-07	7.24715e-05	-2.04627e-09	7.24736e-05	3.97115	217591	6.14379	217597
3983.6	5.69683	3.0757	6.47408	-28.3645	12.1251	3.97098	-0.0220714	12.9897	2.93178	1	10	0.00467006	0.000721347	0	-6.69589e-07	0.000154958	1.04345e-05	-1.15349	0.0144653	0.0144624	0.000291199	-28.3061	6.48695	5.71129	3.07599	0.135918	0.0733816	0.154462	28.3645	2931.78	5430.26	6171.15	-61.6355	0.0000000E+000	0.0000000E+000	0.0000000E+000	61.6355	0.0000000E+000	0.0000000E+000	0.0000000E+000	-61.6355	0.0000000E+000	0.0000000E+000	0.0000000E+000	-28.3645	0.0000000E+000	0.0000000E+000	0.0000000E+000	28.3645	1.8522	61.6355	-9.95356e-07	-8.7645e-05	-3.42014e-09	-8.76416e-05	3.97083	179915	7.02077	179908
1000.32	8.85914	4.77132	10.0623	-28.3058	14.9678	3.97099	0.00472158	33.3459	7.49765	1	10	0.00498156	0.000495072	0	3.72212e-06	2.1417e-05	1.40521e-05	-82.0553	0.0283839	0.00392316	0.0281115	-28.436	10.0791	8.86306	4.79943	0.0874978	0.0471242	0.0993809	28.3058	7497.66	13921.3	15811.9	-61.6942	0.0000000E+000	0.0000000E+000	0.0000000E+000	61.6942	0.0000000E+000	0.0000000E+000	0.0000000E+000	-61.6942	0.0000000E+000	0.0000000E+000	0.0000000E+000	-28.3058	0.0000000E+000	0.0000000E+000	0.0000000E+000	28.3058	1.85675	61.6942	8.11605e-07	1.87494e-05	1.01122e-10	1.87493e-05	3.97097	841030	4.53597	841026
251.044	14.6763	6.26726	15.9585	-23.124	17.6681	3.971	0.00475512	101.156	15.6014	1	10	0.00493871	0.000309473	0	6.87017e-06	0.000307577	4.36184e-06	-75.9059	0.0140944	0.00343222	0.0136702	-23.1643	15.967	14.6797	6.28093	0.0576281	0.0246091	0.0626627	23.124	15601.4	36534.6	39726.3	-66.876	0.0000000E+000	0.0000000E+000	0.0000000E+000	66.876	0.0000000E+000	0.0000000E+000	0.0000000E+000	-66.876	0.0000000E+000	0.0000000E+000	0.0000000E+000	-23.124	0.0000000E+000	0.0000000E+000	0.0000000E+000	23.124	2.34174	66.876	6.68862e-07	1.88826e-05	1.46256e-09	1.88811e-05	3.97069	835100	64.6833	835035
63.0823	20.517	3.98829	20.901	-11.0005	20.639	3.97105	0.000695587	632.596	23.0337	1	11	0.0049361	0.000236165	0	1.09291e-05	-1.67377e-05	3.9658e-06	64.3378	0.0167925	0.00727223	-0.0151361	-10.956	20.9053	20.5243	3.97315	0.0469654	0.00912957	0.0478445	11.0005	23033.7	118492	120710	-78.9995	0.0000000E+000	0.0000000E+000	0.0000000E+000	78.9995	0.0000000E+000	0.0000000E+000	0.0000000E+000	-78.9995	0.0000000E+000	0.0000000E+000	0.0000000E+000	-11.0005	0.0000000E+000	0.0000000E+000	0.0000000E+000	11.0005	5.14431	78.9995	4.05779e-07	2.76221e-06	-1.16425e-11	2.76222e-06	3.97107	5.70892e+06	24.0626	5.70894e+06
15.8576	22.4119	1.75088	22.4802	-4.46703	23.297	3.97104	-4.88127e-06	5732.28	34.7728	1	11	0.00493144	0.000219369	0	1.18582e-05	0.000135881	2.03671e-05	-51.6843	0.0928444	0.057563	0.0728462	-4.64022	22.5433	22.4695	1.82373	0.0443485	0.00346463	0.0444836	4.46703	34772.8	445105	446461	-85.533	0.0000000E+000	0.0000000E+000	0.0000000E+000	85.533	0.0000000E+000	0.0000000E+000	0.0000000E+000	-85.533	0.0000000E+000	0.0000000E+000	0.0000000E+000	-4.46703	0.0000000E+000	0.0000000E+000	0.0000000E+000	4.46703	12.8004	85.533	5.00074e-07	-1.93837e-08	-6.63271e-13	-1.93831e-08	3.9709	8.13526e+08	27837.2	8.13498e+08
3.97785	23.1745	1.07532	23.1994	-2.65668	26.2103	3.97106	0.00197587	37207.6	79.9384	1	11	0.00493499	0.00021272	0	1.47119e-05	-7.39696e-05	3.75374e-06	-59.4987	0.0176464	0.00895656	0.0152044	-2.69315	23.2091	23.1835	1.09053	0.0430581	0.00199795	0.0431045	2.65668	79938.4	1.72277e+06	1.72462e+06	-87.3433	0.0000000E+000	0.0000000E+000	0.0000000E+000	87.3433	0.0000000E+000	0.0000000E+000	0.0000000E+000	-87.3433	0.0000000E+000	0.0000000E+000	0.0000000E+000	-2.65668	0.0000000E+000	0.0000000E+000	0.0000000E+000	2.65668	21.5512	87.3433	2.83745e-06	7.8463e-06	-1.46154e-10	7.84644e-06	3.97114	2.00978e+06	37.4365	2.00982e+06
1.00469	24.3366	1.12333	24.3625	-2.64278	241.022	3.97103	-0.000507831	141020	299.813	1	11	0.00500604	0.000205482	0	-0.000772406	0.000135881	2.41761e-07	-14.4682	0.00117656	0.00113925	0.000293955	-2.64335	24.3636	24.3377	1.12362	0.0410031	0.00189262	0.0410467	2.64278	299813	6.49536e+06	6.50227e+06	-87.3572	0.0000000E+000	0.0000000E+000	0.0000000E+000	87.3572	0.0000000E+000	0.0000000E+000	0.0000000E+000	-87.3572	0.0000000E+000	0.0000000E+000	0.0000000E+000	-2.64278	0.0000000E+000	0.0000000E+000	0.0000000E+000	2.64278	21.6647	87.3572	-0.000787816	-2.01661e-06	-6.90045e-11	-2.01654e-06	3.9709	7.8196e+06	267.571	7.81933e+06
0.251173	25.2893	1.87154	25.3585	-4.23246	241.024	3.97103	-0.000507831	338570	1844.16	1	11	0.00503291	0.000198471	0	-0.000772406	0.000135881	2.04994e-07	117.336	0.00103287	-0.000474308	-0.000917525	-4.23047	25.3579	25.2888	1.87062	0.039327	0.0029104	0.0394345	4.23246	1.84416e+06	2.49194e+07	2.49875e+07	-85.7675	0.0000000E+000	0.0000000E+000	0.0000000E+000	85.7675	0.0000000E+000	0.0000000E+000	0.0000000E+000	-85.7675	0.0000000E+000	0.0000000E+000	0.0000000E+000	-4.23246	0.0000000E+000	0.0000000E+000	0.0000000E+000	4.23246	13.5126	85.7675	0.000000000000000E+000	-2.01661e-06	-6.90045e-11	-2.01654e-06	3.9709	7.8196e+06	267.571	7.81933e+06
0.0602816	27.0914	3.62478	27.3328	-7.62079	241.027	3.97103	-0.000507831	728373	12809.9	1	11	0.00502778	0.000183946	0	-0.000772406	0.000135881	6.30768e-07	-33.2634	0.00342909	0.00286726	0.00188082	-7.6239	27.3359	27.0943	3.62666	0.0362629	0.0048519	0.036586	7.62079	1.28099e+07	9.57409e+07	9.6594e+07	-82.3792	0.0000000E+000	0.0000000E+000	0.0000000E+000	82.3792	0.0000000E+000	0.0000000E+000	0.0000000E+000	-82.3792	0.0000000E+000	0.0000000E+000	0.0000000E+000	-7.62079	0.0000000E+000	0.0000000E+000	0.0000000E+000	7.62079	7.47396	82.3792	0.000000000000000E+000	-2.01661e-06	-6.90045e-11	-2.01654e-06	3.9709	7.8196e+06	267.571	7.81933e+06
0.00796479	36.6322	7.9635	37.4878	-12.2647	20329.9	3.97105	0.000393495	2.50924e+06	113232	1	11	0.00502072	0.000133929	0	-0.0030335	-3.5815e-05	3.97047e-07	-6.45454	0.0029646	0.00294581	0.000333265	-12.2643	37.4907	36.6351	7.96383	0.0260665	0.00566663	0.0266754	12.2647	1.13232e+08	5.2087e+08	5.33036e+08	-77.7353	0.0000000E+000	0.0000000E+000	0.0000000E+000	77.7353	0.0000000E+000	0.0000000E+000	0.0000000E+000	-77.7353	0.0000000E+000	0.0000000E+000	0.0000000E+000	-12.2647	0.0000000E+000	0.0000000E+000	0.0000000E+000	12.2647	4.60001	77.7353	-0.00226109	1.56259e-06	-1.4093e-11	1.5626e-06	3.97108	1.00917e+07	91.0176	1.00918e+07
0.0019912	44.6135	11.4503	46.0594	-14.3945	20329.9	3.97105	0.000393495	6.98057e+06	431404	1	11	0.00503337	0.00010928	0	-0.0030335	-3.5815e-05	4.6366e-07	-24.6148	0.00424287	0.00385731	0.00176722	-14.3955	46.0636	44.6173	11.452	0.0210295	0.00539732	0.0217111	14.3945	4.31404e+08	1.68087e+09	1.73535e+09	-75.6055	0.0000000E+000	0.0000000E+000	0.0000000E+000	75.6055	0.0000000E+000	0.0000000E+000	0.0000000E+000	-75.6055	0.0000000E+000	0.0000000E+000	0.0000000E+000	-14.3945	0.0000000E+000	0.0000000E+000	0.0000000E+000	14.3945	3.89629	75.6055	0.000000000000000E+000	1.56259e-06	-1.4093e-11	1.5626e-06	3.97108	1.00917e+07	91.0176	1.00918e+07
0.000497799	49.9555	17.6486	52.9814	-19.4576	20329.9	3.97105	0.000393495	1.81158e+07	2.01015e+06	1	11	0.00503808	9.50915e-05	0	-0.0030335	-3.5815e-05	1.37415e-06	-24.3179	0.0144508	0.0131686	0.00595082	-19.4589	52.9958	49.9687	17.6545	0.0177966	0.00628728	0.0188746	19.4576	2.01015e+09	5.68988e+09	6.03452e+09	-70.5424	0.0000000E+000	0.0000000E+000	0.0000000E+000	70.5424	0.0000000E+000	0.0000000E+000	0.0000000E+000	-70.5424	0.0000000E+000	0.0000000E+000	0.0000000E+000	-19.4576	0.0000000E+000	0.0000000E+000	0.0000000E+000	19.4576	2.83057	70.5424	0.000000000000000E+000	1.56259e-06	-1.4093e-11	1.5626e-06	3.97108	1.00917e+07	91.0176	1.00918e+07
9.95598e-05	57.8858	80.4022	99.0721	-54.2479	20329.9	3.97105	0.000393495	1.98824e+07	1.30949e+07	1	11	0.0050319	5.07903e-05	0	-0.0030335	-3.5815e-05	2.02935e-06	-42.492	0.0399554	0.029462	0.0269893	-54.2432	99.1112	57.9153	80.4292	0.00589752	0.00819154	0.0100937	54.2479	1.30949e+10	9.4277e+09	1.61356e+10	-35.7521	0.0000000E+000	0.0000000E+000	0.0000000E+000	35.7521	0.0000000E+000	0.0000000E+000	0.0000000E+000	-35.7521	0.0000000E+000	0.0000000E+000	0.0000000E+000	-54.2479	0.0000000E+000	0.0000000E+000	0.0000000E+000	54.2479	0.719953	35.7521	0.000000000000000E+000	1.56259e-06	-1.4093e-11	1.5626e-06	3.97108	1.00917e+07	91.0176	1.00918e+07