File: txt/18690_R307_UC91_23p8_SOC50_C02.mpt
EC-Lab ASCII FILE
Nb header lines : 65

Potentio Electrochemical Impedance Spectroscopy

Run on channel : 2 (SN 66139)
User :
CE vs. WE compliance from -10 V to 10 V
Electrode connection : standard
Potential control : Ewe
Ewe ctrl range : min = -10.00 V, max = 10.00 V
Safety Limits :
	Do not start on E overload
Acquisition started on : 10/28/2025 15:55:28.556
Technique started on : 10/28/2025 15:55:31.250
Loaded Setting File :  C:\Users\Celltest\OneDrive - store-dot.com\Documents\EC-Lab\Data\@Biologic Test Protocols\cathode half cell EIS SOC50.mps
Saved on :
	File : 18690_R307_UC91_23p8_SOC50_C02.mpr
	Directory : C:\Users\Celltest\OneDrive - store-dot.com\Documents\EC-Lab\Data\Anna\
	Host : 169.254.61.224
Device : VMP-3e (SN .003165)
Address : USB
EC-LAB for windows v11.62 (software)
Internet server v27.00 (firmware)
Command interpretor v12.03 (firmware)
Electrode material :
Initial state :
Electrolyte :
Comments :
Electrode surface area : 0.001 cm²
Characteristic mass : 0.001 g
Equivalent Weight : 0.000 g/eq.
Density : 0.000 g/cm3
Volume (V) : 0.001 cm³
Record Ece
Cycle Definition : Charge/Discharge alternance
Mode                Multi sine
E (V)               0.0000
vs.                 Eoc
tE (h:m:s)          0:00:0.0000
record              0
dI                  0.000
unit dI             mA
dt (s)              0.000
fi                  1.000
unit fi             MHz
ff                  0.100
unit ff             mHz
Nd                  10
Points              per decade
spacing             Logarithmic
Va (mV)             5.0
pw                  0.10
Na                  2
corr                0
E range min (V)     -10.000
E range max (V)     10.000
I Range             Auto
Bandwidth           5
nc cycles           0
goto Ns'            0
nr cycles           0
inc. cycle          0

freq/Hz	Re(Z)/Ohm	-Im(Z)/Ohm	|Z|/Ohm	Phase(Z)/deg	time/s	<Ewe>/V	<I>/mA	Cs/µF	Cp/µF	cycle number	I Range	|Ewe|/V	|I|/A	Ns	(Q-Qo)/mA.h	<Ece>/V	|Ece|/V	Phase(Zce)/deg	|Zce|/Ohm	Re(Zce)/Ohm	-Im(Zce)/Ohm	Phase(Zwe-ce)/deg	|Zwe-ce|/Ohm	Re(Zwe-ce)/Ohm	-Im(Zwe-ce)/Ohm	Re(Y)/Ohm-1	Im(Y)/Ohm-1	|Y|/Ohm-1	Phase(Y)/deg	Re(C)/nF	Im(C)/nF	|C|/nF	Phase(C)/deg	Re(M)	Im(M)	|M|	Phase(M)/deg	Re(Permittivity)	Im(Permittivity)	|Permittivity|	Phase(Permittivity)/deg	Re(Resistivity)/Ohm.cm	Im(Resistivity)/Ohm.cm	|Resistivity|/Ohm.cm	Phase(Resistivity)/deg	Re(Conductivity)/mS/cm	Im(Conductivity)/mS/cm	|Conductivity|/mS/cm	Phase(Conductivity)/deg	Tan(Delta)	Loss Angle(Delta)/deg	dq/mA.h	Pwe/W	Pce/W	Pwe-ce/W	<Ewe-Ece>/V	Rwe/Ohm	Rce/Ohm	Rwe-ce/Ohm		Ewe-Ece/V
1.00002e+06	1.01135	-0.355429	1.07199	19.3635	2.69353	3.9667	-0.0597402	-0.447774	-0.0492247	1	9	0.000217504	0.000202898	0	-2.29314e-05	-0.000305111	0.000177945	1.65773	0.877019	0.876652	-0.0253711	11.4033	1.92602	1.888	-0.3808	0.880077	-0.309293	0.932844	-19.3635	-49.2247	140.066	148.464	-109.363	0.0000000E+000	0.0000000E+000	0.0000000E+000	109.363	0.0000000E+000	0.0000000E+000	0.0000000E+000	-109.363	0.0000000E+000	0.0000000E+000	0.0000000E+000	19.3635	0.0000000E+000	0.0000000E+000	0.0000000E+000	-19.3635	2.84544	70.6365	-2.29314e-05	-0.000236972	1.82274e-08	-0.00023699	3.96701	66399.2	5.1073	66404.3
251206	1.16666	0.517376	1.27623	-23.9158	4.99352	3.9667	-0.049423	1.22457	0.20125	1	9	0.00328964	0.00257762	0	-5.81227e-05	-0.000209657	2.62997e-05	-21.5893	0.0102031	0.00948729	0.00375424	-23.8973	1.28643	1.17614	0.52113	0.716282	0.317649	0.783557	23.9158	201.25	453.81	496.433	-66.0842	0.0000000E+000	0.0000000E+000	0.0000000E+000	66.0842	0.0000000E+000	0.0000000E+000	0.0000000E+000	-66.0842	0.0000000E+000	0.0000000E+000	0.0000000E+000	-23.9158	0.0000000E+000	0.0000000E+000	0.0000000E+000	23.9158	2.25495	66.0842	-4.25593e-06	-0.000196046	1.03619e-08	-0.000196057	3.96691	80260.2	4.24209	80264.5
63093.8	1.91672	1.38238	2.36322	-35.7999	7.54353	3.9666	-0.0328859	1.82476	0.624385	1	9	0.00505427	0.00213872	0	-7.35516e-05	0.000114888	1.77497e-05	79.3336	0.00829923	0.00153611	-0.00815583	-35.6175	2.35971	1.91826	1.37422	0.343203	0.247525	0.423151	35.7999	624.385	865.734	1067.4	-54.2001	0.0000000E+000	0.0000000E+000	0.0000000E+000	54.2001	0.0000000E+000	0.0000000E+000	0.0000000E+000	-54.2001	0.0000000E+000	0.0000000E+000	0.0000000E+000	-35.7999	0.0000000E+000	0.0000000E+000	0.0000000E+000	35.7999	1.38654	54.2001	-7.37893e-06	-0.000130445	-3.77818e-09	-0.000130441	3.96649	120617	3.49352	120614
15847.7	3.58376	2.12542	4.16663	-30.6709	9.96951	3.96661	-0.0364615	4.72507	1.22951	1	9	0.00457686	0.00109846	0	-9.25586e-05	0.000267614	1.46222e-05	-104.701	0.0133116	-0.00337823	0.0128758	-30.8468	4.17031	3.58038	2.1383	0.206429	0.122427	0.240002	30.6709	1229.51	2073.12	2410.29	-59.3291	0.0000000E+000	0.0000000E+000	0.0000000E+000	59.3291	0.0000000E+000	0.0000000E+000	0.0000000E+000	-59.3291	0.0000000E+000	0.0000000E+000	0.0000000E+000	-30.6709	0.0000000E+000	0.0000000E+000	0.0000000E+000	30.6709	1.68614	59.3291	-3.59187e-06	-0.000144629	-9.75762e-09	-0.000144619	3.96634	108789	7.33964	108782
3983.6	5.50844	2.90787	6.22886	-27.8293	11.8491	3.96651	-0.0522832	13.7395	2.99435	1	10	0.0046691	0.000749592	0	-0.000113437	-3.78392e-05	4.9668e-06	-50.4707	0.00662601	0.00421727	0.00511064	-27.8527	6.23497	5.51266	2.91298	0.141975	0.0749477	0.160543	27.8293	2994.35	5672.27	6414.1	-62.1707	0.0000000E+000	0.0000000E+000	0.0000000E+000	62.1707	0.0000000E+000	0.0000000E+000	0.0000000E+000	-62.1707	0.0000000E+000	0.0000000E+000	0.0000000E+000	-27.8293	0.0000000E+000	0.0000000E+000	0.0000000E+000	27.8293	1.89432	62.1707	-4.38806e-06	-0.000207382	1.97835e-09	-0.000207384	3.96654	75865.8	0.723736	75866.5
1000.32	8.73744	4.7607	9.95023	-28.5843	14.6908	3.96652	-0.0273131	33.4203	7.65043	1	10	0.00496717	0.000499202	0	-0.000138102	3.42479e-07	7.93043e-06	-24.2286	0.0158862	0.0144869	0.00651937	-28.5774	9.96607	8.75192	4.76722	0.0882506	0.0480845	0.1005	28.5843	7650.43	14041	15990	-61.4157	0.0000000E+000	0.0000000E+000	0.0000000E+000	61.4157	0.0000000E+000	0.0000000E+000	0.0000000E+000	-61.4157	0.0000000E+000	0.0000000E+000	0.0000000E+000	-28.5843	0.0000000E+000	0.0000000E+000	0.0000000E+000	28.5843	1.83532	61.4157	-3.69165e-06	-0.000108338	-9.35416e-12	-0.000108338	3.96652	145224	0.012539	145224
251.044	14.4302	5.20447	15.3401	-19.8326	17.3901	3.96652	-0.0278271	121.813	14.0214	1	10	0.00492081	0.000320781	0	-0.000158007	-1.87484e-05	8.1198e-06	34.0679	0.0253125	0.0209683	-0.0141795	-19.7563	15.355	14.4512	5.19029	0.0613223	0.0221168	0.0651888	19.8326	14021.4	38876.6	41327.8	-70.1674	0.0000000E+000	0.0000000E+000	0.0000000E+000	70.1674	0.0000000E+000	0.0000000E+000	0.0000000E+000	-70.1674	0.0000000E+000	0.0000000E+000	0.0000000E+000	-19.8326	0.0000000E+000	0.0000000E+000	0.0000000E+000	19.8326	2.77266	70.1674	-3.18022e-06	-0.000110377	5.21714e-10	-0.000110377	3.96653	142541	0.673744	142542
63.0823	18.3206	2.78439	18.531	-8.64175	20.11	3.96653	-0.0232042	906.115	20.4572	1	10	0.00491272	0.000265108	0	-0.000177444	-9.51117e-05	7.58456e-06	97.9748	0.0286093	-0.0039692	-0.0283326	-8.55695	18.5228	18.3166	2.75605	0.0533511	0.00810836	0.0539637	8.64175	20457.2	134603	136149	-81.3582	0.0000000E+000	0.0000000E+000	0.0000000E+000	81.3582	0.0000000E+000	0.0000000E+000	0.0000000E+000	-81.3582	0.0000000E+000	0.0000000E+000	0.0000000E+000	-8.64175	0.0000000E+000	0.0000000E+000	0.0000000E+000	8.64175	6.57976	81.3582	-2.91919e-06	-9.20399e-05	2.20699e-09	-9.20421e-05	3.96662	170940	4.09891	170944
15.8576	19.5358	1.252	19.5759	-3.66694	23.0141	3.96656	-0.0269102	8016.37	32.7904	1	11	0.00490076	0.000250347	0	-0.000198404	0.000267614	2.7423e-05	-6.83685	0.10954	0.108761	0.0130399	-3.68457	19.6852	19.6445	1.26504	0.0509787	0.00326711	0.0510833	3.66694	32790.4	511649	512699	-86.3331	0.0000000E+000	0.0000000E+000	0.0000000E+000	86.3331	0.0000000E+000	0.0000000E+000	0.0000000E+000	-86.3331	0.0000000E+000	0.0000000E+000	0.0000000E+000	-3.66694	0.0000000E+000	0.0000000E+000	0.0000000E+000	3.66694	15.6036	86.3331	-3.32208e-06	-0.000106741	-7.20155e-09	-0.000106734	3.96629	147400	9.94473	147390
3.97785	20.2078	0.872761	20.2266	-2.47303	25.9253	3.96657	-0.0245606	45843.3	85.3533	1	11	0.00491329	0.000242912	0	-0.000221401	0.000553977	9.11331e-06	14.6411	0.0375169	0.0362987	-0.0094829	-2.44181	20.2625	20.2441	0.863279	0.0493937	0.00213328	0.0494398	2.47303	85353.2	1.97626e+06	1.9781e+06	-87.527	0.0000000E+000	0.0000000E+000	0.0000000E+000	87.527	0.0000000E+000	0.0000000E+000	0.0000000E+000	-87.527	0.0000000E+000	0.0000000E+000	0.0000000E+000	-2.47303	0.0000000E+000	0.0000000E+000	0.0000000E+000	2.47303	23.1539	87.527	-6.687e-06	-9.74215e-05	-1.3606e-08	-9.74079e-05	3.96602	161501	22.5555	161478
1.00469	21.1603	0.995308	21.1837	-2.69301	240.737	3.96653	-0.0197602	159158	351.35	1	11	0.0049781	0.000234997	0	-0.00241077	0.00017216	2.06275e-07	100.088	0.000877778	-0.000153749	-0.000864208	-2.6907	21.1835	21.1602	0.994444	0.0471539	0.00221796	0.0472061	2.69301	351350	7.46972e+06	7.47798e+06	-87.307	0.0000000E+000	0.0000000E+000	0.0000000E+000	87.307	0.0000000E+000	0.0000000E+000	0.0000000E+000	-87.307	0.0000000E+000	0.0000000E+000	0.0000000E+000	-2.69301	0.0000000E+000	0.0000000E+000	0.0000000E+000	2.69301	21.2601	87.307	-0.00215385	-7.83795e-05	-3.40191e-09	-7.8376e-05	3.96636	200734	8.71247	200725
0.251173	22.0808	1.65023	22.1424	-4.27411	240.741	3.96653	-0.0197602	383973	2132.76	1	11	0.00500383	0.000225984	0	-0.00241077	0.00017216	4.6191e-07	142.784	0.002044	-0.00162776	-0.00123625	-4.27123	22.1407	22.0792	1.649	0.0450366	0.00336586	0.0451622	4.27411	2.13276e+06	2.85372e+07	2.86168e+07	-85.7259	0.0000000E+000	0.0000000E+000	0.0000000E+000	85.7259	0.0000000E+000	0.0000000E+000	0.0000000E+000	-85.7259	0.0000000E+000	0.0000000E+000	0.0000000E+000	-4.27411	0.0000000E+000	0.0000000E+000	0.0000000E+000	4.27411	13.3804	85.7259	0.000000000000000E+000	-7.83795e-05	-3.40191e-09	-7.8376e-05	3.96636	200734	8.71247	200725
0.0602816	23.632	2.87214	23.8059	-6.92954	240.745	3.96653	-0.0197602	919240	13380.5	1	11	0.00499821	0.000209957	0	-0.00241077	0.00017216	3.42271e-07	0.816354	0.0016302	0.00163003	-2.32264e-05	-6.92901	23.8075	23.6336	2.87212	0.0416996	0.00506802	0.0420065	6.92954	1.33805e+07	1.10095e+08	1.10905e+08	-83.0705	0.0000000E+000	0.0000000E+000	0.0000000E+000	83.0705	0.0000000E+000	0.0000000E+000	0.0000000E+000	-83.0705	0.0000000E+000	0.0000000E+000	0.0000000E+000	-6.92954	0.0000000E+000	0.0000000E+000	0.0000000E+000	6.92954	8.22799	83.0705	0.000000000000000E+000	-7.83795e-05	-3.40191e-09	-7.8376e-05	3.96636	200734	8.71247	200725
0.00796479	31.8715	5.98774	32.4291	-10.6402	20329.7	3.96655	-0.000294179	3.33721e+06	113773	1	11	0.00499434	0.000154008	0	-0.0152485	0.000114888	3.28993e-07	163.591	0.0021362	-0.0020492	-0.000603452	-10.6398	32.4269	31.8694	5.98713	0.0303063	0.00569369	0.0308365	10.6402	1.13773e+08	6.05591e+08	6.16185e+08	-79.3598	0.0000000E+000	0.0000000E+000	0.0000000E+000	79.3598	0.0000000E+000	0.0000000E+000	0.0000000E+000	-79.3598	0.0000000E+000	0.0000000E+000	0.0000000E+000	-10.6402	0.0000000E+000	0.0000000E+000	0.0000000E+000	10.6402	5.32279	79.3598	-0.0128377	-1.16688e-06	-3.37975e-11	-1.16684e-06	3.96644	1.34835e+07	390.536	1.34831e+07
0.0019912	36.8886	8.70834	37.9025	-13.2827	20329.7	3.96655	-0.000294179	9.17847e+06	484513	1	11	0.00500711	0.000132105	0	-0.0152485	0.000114888	6.13019e-07	-63.1404	0.00464039	0.00209656	0.00413977	-13.2881	37.9055	36.8907	8.71248	0.0256777	0.00606177	0.0263835	13.2827	4.84513e+08	2.0524e+09	2.10881e+09	-76.7173	0.0000000E+000	0.0000000E+000	0.0000000E+000	76.7173	0.0000000E+000	0.0000000E+000	0.0000000E+000	-76.7173	0.0000000E+000	0.0000000E+000	0.0000000E+000	-13.2827	0.0000000E+000	0.0000000E+000	0.0000000E+000	13.2827	4.236	76.7173	0.000000000000000E+000	-1.16688e-06	-3.37975e-11	-1.16684e-06	3.96644	1.34835e+07	390.536	1.34831e+07
0.000497799	39.731	17.3439	43.3516	-23.5829	20329.7	3.96655	-0.000294179	1.8434e+07	2.95054e+06	1	11	0.00501229	0.000115619	0	-0.0152485	0.000114888	2.09024e-06	-86.6701	0.0180786	0.00105009	0.0180481	-23.6042	43.3598	39.732	17.3619	0.0211407	0.00922861	0.0230672	23.5829	2.95055e+09	6.75904e+09	7.37498e+09	-66.4171	0.0000000E+000	0.0000000E+000	0.0000000E+000	66.4171	0.0000000E+000	0.0000000E+000	0.0000000E+000	-66.4171	0.0000000E+000	0.0000000E+000	0.0000000E+000	-23.5829	0.0000000E+000	0.0000000E+000	0.0000000E+000	23.5829	2.29078	66.4171	0.000000000000000E+000	-1.16688e-06	-3.37975e-11	-1.16684e-06	3.96644	1.34835e+07	390.536	1.34831e+07
9.95598e-05	44.6406	93.1765	103.318	-64.4011	20329.7	3.96655	-0.000294179	1.71565e+07	1.39537e+07	1	11	0.00500886	4.848e-05	0	-0.0152485	0.000114888	3.01815e-06	85.5277	0.0622557	0.00485447	-0.0620662	-64.3838	103.264	44.6454	93.1144	0.00418193	0.00872877	0.00967884	64.4011	1.39537e+10	6.68517e+09	1.54725e+10	-25.5989	0.0000000E+000	0.0000000E+000	0.0000000E+000	25.5989	0.0000000E+000	0.0000000E+000	0.0000000E+000	-25.5989	0.0000000E+000	0.0000000E+000	0.0000000E+000	-64.4011	0.0000000E+000	0.0000000E+000	0.0000000E+000	64.4011	0.479097	25.5989	0.000000000000000E+000	-1.16688e-06	-3.37975e-11	-1.16684e-06	3.96644	1.34835e+07	390.536	1.34831e+07