File: txt/18693_R307_UC91_23p8_SOC50_C05.mpt
EC-Lab ASCII FILE
Nb header lines : 65

Potentio Electrochemical Impedance Spectroscopy

Run on channel : 5 (SN 65912)
User :
CE vs. WE compliance from -10 V to 10 V
Electrode connection : standard
Potential control : Ewe
Ewe ctrl range : min = -10.00 V, max = 10.00 V
Safety Limits :
	Do not start on E overload
Acquisition started on : 10/28/2025 15:55:49.601
Technique started on : 10/28/2025 15:55:52.295
Loaded Setting File :  C:\Users\Celltest\OneDrive - store-dot.com\Documents\EC-Lab\Data\@Biologic Test Protocols\cathode half cell EIS SOC50.mps
Saved on :
	File : 18693_R307_UC91_23p8_SOC50_C05.mpr
	Directory : C:\Users\Celltest\OneDrive - store-dot.com\Documents\EC-Lab\Data\Anna\
	Host : 169.254.61.224
Device : VMP-3e (SN .003165)
Address : USB
EC-LAB for windows v11.62 (software)
Internet server v27.00 (firmware)
Command interpretor v12.03 (firmware)
Electrode material :
Initial state :
Electrolyte :
Comments :
Electrode surface area : 0.001 cm²
Characteristic mass : 0.001 g
Equivalent Weight : 0.000 g/eq.
Density : 0.000 g/cm3
Volume (V) : 0.001 cm³
Record Ece
Cycle Definition : Charge/Discharge alternance
Mode                Multi sine
E (V)               0.0000
vs.                 Eoc
tE (h:m:s)          0:00:0.0000
record              0
dI                  0.000
unit dI             mA
dt (s)              0.000
fi                  1.000
unit fi             MHz
ff                  0.100
unit ff             mHz
Nd                  10
Points              per decade
spacing             Logarithmic
Va (mV)             5.0
pw                  0.10
Na                  2
corr                0
E range min (V)     -10.000
E range max (V)     10.000
I Range             Auto
Bandwidth           5
nc cycles           0
goto Ns'            0
nr cycles           0
inc. cycle          0

freq/Hz	Re(Z)/Ohm	-Im(Z)/Ohm	|Z|/Ohm	Phase(Z)/deg	time/s	<Ewe>/V	<I>/mA	Cs/µF	Cp/µF	cycle number	I Range	|Ewe|/V	|I|/A	Ns	(Q-Qo)/mA.h	<Ece>/V	|Ece|/V	Phase(Zce)/deg	|Zce|/Ohm	Re(Zce)/Ohm	-Im(Zce)/Ohm	Phase(Zwe-ce)/deg	|Zwe-ce|/Ohm	Re(Zwe-ce)/Ohm	-Im(Zwe-ce)/Ohm	Re(Y)/Ohm-1	Im(Y)/Ohm-1	|Y|/Ohm-1	Phase(Y)/deg	Re(C)/nF	Im(C)/nF	|C|/nF	Phase(C)/deg	Re(M)	Im(M)	|M|	Phase(M)/deg	Re(Permittivity)	Im(Permittivity)	|Permittivity|	Phase(Permittivity)/deg	Re(Resistivity)/Ohm.cm	Im(Resistivity)/Ohm.cm	|Resistivity|/Ohm.cm	Phase(Resistivity)/deg	Re(Conductivity)/mS/cm	Im(Conductivity)/mS/cm	|Conductivity|/mS/cm	Phase(Conductivity)/deg	Tan(Delta)	Loss Angle(Delta)/deg	dq/mA.h	Pwe/W	Pce/W	Pwe-ce/W	<Ewe-Ece>/V	Rwe/Ohm	Rce/Ohm	Rwe-ce/Ohm		Ewe-Ece/V
1.00002e+06	0.973703	-0.227944	1.00003	13.1757	2.69354	3.96964	0.0254132	-0.698207	-0.0362757	1	9	0.000219734	0.000219728	0	1.34724e-05	0.000416731	0.000182885	-2.72418	0.832323	0.831382	0.0395587	5.95802	1.81489	1.80509	-0.188385	0.973648	-0.227931	0.999972	-13.1757	-36.2757	154.958	159.147	-103.176	0.0000000E+000	0.0000000E+000	0.0000000E+000	103.176	0.0000000E+000	0.0000000E+000	0.0000000E+000	-103.176	0.0000000E+000	0.0000000E+000	0.0000000E+000	13.1757	0.0000000E+000	0.0000000E+000	0.0000000E+000	-13.1757	4.27168	76.8243	1.34724e-05	0.000100881	1.05905e-08	0.000100871	3.96922	156204	16.3982	156187
251206	1.14901	0.460978	1.23803	-21.8604	4.99356	3.96801	-0.0712985	1.37439	0.190548	1	9	0.00342036	0.00276273	0	-1.63298e-05	-3.27544e-06	5.03867e-05	82.3647	0.018238	0.00242323	-0.0180763	-21.0393	1.23368	1.15144	0.442902	0.749651	0.300756	0.807732	21.8604	190.548	474.951	511.749	-68.1396	0.0000000E+000	0.0000000E+000	0.0000000E+000	68.1396	0.0000000E+000	0.0000000E+000	0.0000000E+000	-68.1396	0.0000000E+000	0.0000000E+000	0.0000000E+000	-21.8604	0.0000000E+000	0.0000000E+000	0.0000000E+000	21.8604	2.49255	68.1396	-7.76536e-06	-0.000282913	2.33534e-10	-0.000282913	3.96801	55653.4	0.0459398	55653.5
63093.8	1.84688	1.19356	2.19899	-32.8729	7.54155	3.96777	-0.028361	2.11343	0.622632	1	9	0.00502917	0.00228703	0	-5.24881e-05	-0.000194188	2.29602e-05	89.7587	0.0100393	4.22756e-05	-0.0100392	-32.6521	2.1936	1.84692	1.18352	0.381937	0.24683	0.454754	32.8729	622.632	963.441	1147.12	-57.1271	0.0000000E+000	0.0000000E+000	0.0000000E+000	57.1271	0.0000000E+000	0.0000000E+000	0.0000000E+000	-57.1271	0.0000000E+000	0.0000000E+000	0.0000000E+000	-32.8729	0.0000000E+000	0.0000000E+000	0.0000000E+000	32.8729	1.54737	57.1271	-2.58861e-06	-0.00011253	5.50736e-09	-0.000112536	3.96797	139902	6.84699	139909
15847.7	3.30358	1.90657	3.81427	-29.9903	10.0935	3.96774	-0.0424004	5.26745	1.31609	1	9	0.00504427	0.00132247	0	-8.08133e-05	0.000187637	9.38895e-06	-102.176	0.00709953	-0.00149735	0.00693984	-30.0918	3.81645	3.30208	1.91351	0.227071	0.131048	0.262173	29.9903	1316.09	2280.43	2632.95	-60.0097	0.0000000E+000	0.0000000E+000	0.0000000E+000	60.0097	0.0000000E+000	0.0000000E+000	0.0000000E+000	-60.0097	0.0000000E+000	0.0000000E+000	0.0000000E+000	-29.9903	0.0000000E+000	0.0000000E+000	0.0000000E+000	29.9903	1.73273	60.0097	-3.69904e-06	-0.000168234	-7.95588e-09	-0.000168226	3.96756	93577.9	4.42535	93573.4
3983.6	5.01472	2.63151	5.66324	-27.6885	11.8521	3.96758	-0.0439198	15.1824	3.27808	1	10	0.00463373	0.000818212	0	-9.73557e-05	1.58158e-05	1.4247e-05	-64.1831	0.0174123	0.00758303	0.0156744	-27.7931	5.67724	5.0223	2.64718	0.156357	0.0820494	0.176577	27.6885	3278.08	6246.86	7054.72	-62.3115	0.0000000E+000	0.0000000E+000	0.0000000E+000	62.3115	0.0000000E+000	0.0000000E+000	0.0000000E+000	-62.3115	0.0000000E+000	0.0000000E+000	0.0000000E+000	-27.6885	0.0000000E+000	0.0000000E+000	0.0000000E+000	27.6885	1.90564	62.3115	-3.74726e-06	-0.000174255	-6.94625e-10	-0.000174254	3.96756	90336.9	0.360106	90336.5
1000.32	7.91727	4.18628	8.9559	-27.8678	14.6938	3.9676	-0.0094894	38.006	8.30408	1	10	0.00480493	0.00053651	0	-0.000108377	-4.14579e-05	7.92414e-06	-76.8308	0.0147698	0.00336495	0.0143814	-27.939	8.9656	7.92063	4.20066	0.0987091	0.0521928	0.111658	27.8678	8304.08	15705	17765.3	-62.1322	0.0000000E+000	0.0000000E+000	0.0000000E+000	62.1322	0.0000000E+000	0.0000000E+000	0.0000000E+000	-62.1322	0.0000000E+000	0.0000000E+000	0.0000000E+000	-27.8678	0.0000000E+000	0.0000000E+000	0.0000000E+000	27.8678	1.89124	62.1322	-7.13792e-07	-3.76501e-05	3.9341e-10	-3.76505e-05	3.96764	418108	4.36886	418113
251.044	12.8673	4.49851	13.631	-19.2701	17.394	3.96759	-0.00985802	140.929	15.3492	1	10	0.00474888	0.000348389	0	-0.000114618	5.39982e-05	3.96862e-05	-129.676	0.113913	-0.0727269	0.0876756	-19.7201	13.5917	12.7945	4.58619	0.0692522	0.0242112	0.0733624	19.2701	15349.2	43903.9	46509.7	-70.7299	0.0000000E+000	0.0000000E+000	0.0000000E+000	70.7299	0.0000000E+000	0.0000000E+000	0.0000000E+000	-70.7299	0.0000000E+000	0.0000000E+000	0.0000000E+000	-19.2701	0.0000000E+000	0.0000000E+000	0.0000000E+000	19.2701	2.86034	70.7299	-1.4054e-06	-3.91126e-05	-5.32315e-10	-3.9112e-05	3.96753	402473	5.47759	402468
63.0823	16.21	2.4073	16.3878	-8.44709	20.116	3.96761	-0.00527078	1048.05	22.6153	1	10	0.00475686	0.000290268	0	-0.000121187	0.000225819	9.29779e-06	-44.3704	0.0320317	0.0228974	0.0223996	-8.51269	16.4138	16.2329	2.4297	0.060359	0.00896374	0.061021	8.44709	22615.3	152284	153954	-81.5529	0.0000000E+000	0.0000000E+000	0.0000000E+000	81.5529	0.0000000E+000	0.0000000E+000	0.0000000E+000	-81.5529	0.0000000E+000	0.0000000E+000	0.0000000E+000	-8.44709	0.0000000E+000	0.0000000E+000	0.0000000E+000	8.44709	6.73369	81.5529	-5.15949e-07	-2.09124e-05	-1.19024e-09	-2.09112e-05	3.96738	752756	42.8436	752713
15.8576	17.2652	1.08925	17.2995	-3.60998	23.009	3.96762	-0.0120403	9214.14	36.5296	1	11	0.00474925	0.000274531	0	-0.000128407	7.30894e-05	5.46602e-06	-15.4503	0.0199104	0.0191909	0.00530418	-3.6235	17.319	17.2844	1.09456	0.0576904	0.00363966	0.0578051	3.60998	36529.5	579011	580162	-86.39	0.0000000E+000	0.0000000E+000	0.0000000E+000	86.39	0.0000000E+000	0.0000000E+000	0.0000000E+000	-86.39	0.0000000E+000	0.0000000E+000	0.0000000E+000	-3.60998	0.0000000E+000	0.0000000E+000	0.0000000E+000	3.60998	15.8505	86.39	-6.25714e-07	-4.77713e-05	-8.80018e-10	-4.77704e-05	3.96754	329528	6.0704	329522
3.97785	17.8003	0.79173	17.8179	-2.54676	25.9203	3.96764	-0.0114991	50535.2	99.7788	1	11	0.00475298	0.000266754	0	-0.000135787	0.000340366	3.79068e-06	-25.908	0.0142104	0.0127822	0.00620893	-2.56486	17.8309	17.813	0.797939	0.0560681	0.00249383	0.0561235	2.54676	99778.9	2.2433e+06	2.24552e+06	-87.4532	0.0000000E+000	0.0000000E+000	0.0000000E+000	87.4532	0.0000000E+000	0.0000000E+000	0.0000000E+000	-87.4532	0.0000000E+000	0.0000000E+000	0.0000000E+000	-2.54676	0.0000000E+000	0.0000000E+000	0.0000000E+000	2.54676	22.4827	87.4532	1.3207e-06	-4.56244e-05	-3.91392e-09	-4.56205e-05	3.9673	345038	29.5993	345009
1.00469	18.4031	0.913184	18.4257	-2.84076	240.734	3.96762	-0.010316	173471	426.084	1	11	0.00507471	0.000275414	0	-0.00182871	-0.000251461	5.48772e-07	-4.49179	0.00199253	0.00198641	0.000156048	-2.84094	18.4277	18.4051	0.91334	0.0542052	0.00268973	0.0542719	2.84076	426084	8.58673e+06	8.59729e+06	-87.1592	0.0000000E+000	0.0000000E+000	0.0000000E+000	87.1592	0.0000000E+000	0.0000000E+000	0.0000000E+000	-87.1592	0.0000000E+000	0.0000000E+000	0.0000000E+000	-2.84076	0.0000000E+000	0.0000000E+000	0.0000000E+000	2.84076	20.1527	87.1592	-0.0016719	-4.09299e-05	2.59407e-09	-4.09325e-05	3.96787	384609	24.3759	384633
0.251173	19.2616	1.54828	19.3238	-4.59565	240.738	3.96762	-0.010316	409257	2627.32	1	11	0.00510522	0.000264194	0	-0.00182871	-0.000251461	6.12021e-07	13.9778	0.00231656	0.00224797	-0.000559555	-4.59346	19.326	19.2639	1.54772	0.0515834	0.00414636	0.0517498	4.59565	2.62732e+06	3.26856e+07	3.2791e+07	-85.4043	0.0000000E+000	0.0000000E+000	0.0000000E+000	85.4043	0.0000000E+000	0.0000000E+000	0.0000000E+000	-85.4043	0.0000000E+000	0.0000000E+000	0.0000000E+000	-4.59565	0.0000000E+000	0.0000000E+000	0.0000000E+000	4.59565	12.4406	85.4043	0.000000000000000E+000	-4.09299e-05	2.59407e-09	-4.09325e-05	3.96787	384609	24.3759	384633
0.0602816	20.7492	2.68007	20.9216	-7.35987	240.741	3.96762	-0.010316	985118	16165.7	1	11	0.0050949	0.000243524	0	-0.00182871	-0.000251461	4.19693e-07	17.1711	0.00172341	0.0016466	-0.000508798	-7.35791	20.9231	20.7508	2.67956	0.0474038	0.00612291	0.0477976	7.35987	1.61657e+07	1.25155e+08	1.26195e+08	-82.6401	0.0000000E+000	0.0000000E+000	0.0000000E+000	82.6401	0.0000000E+000	0.0000000E+000	0.0000000E+000	-82.6401	0.0000000E+000	0.0000000E+000	0.0000000E+000	-7.35987	0.0000000E+000	0.0000000E+000	0.0000000E+000	7.35987	7.74203	82.6401	0.000000000000000E+000	-4.09299e-05	2.59407e-09	-4.09325e-05	3.96787	384609	24.3759	384633
0.00796479	27.5487	5.74193	28.1408	-11.7735	20329.6	3.96763	-0.000741986	3.48007e+06	144888	1	11	0.00508942	0.000180856	0	-0.0165041	-0.000175096	1.79775e-07	161.701	0.000994027	-0.000943763	-0.000312093	-11.7733	28.1398	27.5478	5.74162	0.034788	0.0072508	0.0355356	11.7735	1.44888e+08	6.95146e+08	7.10084e+08	-78.2265	0.0000000E+000	0.0000000E+000	0.0000000E+000	78.2265	0.0000000E+000	0.0000000E+000	0.0000000E+000	-78.2265	0.0000000E+000	0.0000000E+000	0.0000000E+000	-11.7735	0.0000000E+000	0.0000000E+000	0.0000000E+000	11.7735	4.79782	78.2265	-0.0146754	-2.94392e-06	1.29919e-10	-2.94405e-06	3.9678	5.34731e+06	235.984	5.34755e+06
0.0019912	32.5343	8.53738	33.6358	-14.7036	20329.6	3.96763	-0.000741986	9.36227e+06	603152	1	11	0.00510024	0.000151631	0	-0.0165041	-0.000175096	2.90705e-07	57.9264	0.00191718	0.00101804	-0.00162456	-14.7004	33.6364	32.5353	8.53576	0.0287566	0.00754606	0.0297302	14.7036	6.03152e+08	2.29849e+09	2.37631e+09	-75.2964	0.0000000E+000	0.0000000E+000	0.0000000E+000	75.2964	0.0000000E+000	0.0000000E+000	0.0000000E+000	-75.2964	0.0000000E+000	0.0000000E+000	0.0000000E+000	-14.7036	0.0000000E+000	0.0000000E+000	0.0000000E+000	14.7036	3.81081	75.2964	0.000000000000000E+000	-2.94392e-06	1.29919e-10	-2.94405e-06	3.9678	5.34731e+06	235.984	5.34755e+06
0.000497799	35.5555	16.6167	39.2467	-25.0488	20329.6	3.96763	-0.000741986	1.92407e+07	3.44908e+06	1	11	0.005101	0.000129973	0	-0.0165041	-0.000175096	1.07258e-06	-123.924	0.00825232	-0.0046056	0.00684756	-25.0607	39.2454	35.5509	16.6235	0.0230834	0.0107879	0.0254798	25.0488	3.44908e+09	7.38016e+09	8.14634e+09	-64.9512	0.0000000E+000	0.0000000E+000	0.0000000E+000	64.9512	0.0000000E+000	0.0000000E+000	0.0000000E+000	-64.9512	0.0000000E+000	0.0000000E+000	0.0000000E+000	-25.0488	0.0000000E+000	0.0000000E+000	0.0000000E+000	25.0488	2.13975	64.9512	0.000000000000000E+000	-2.94392e-06	1.29919e-10	-2.94405e-06	3.9678	5.34731e+06	235.984	5.34755e+06
9.95598e-05	40.2795	86.6604	95.5639	-65.0711	20329.6	3.96763	-0.000741986	1.84466e+07	1.51694e+07	1	11	0.00510038	5.33714e-05	0	-0.0165041	-0.000175096	2.12601e-06	103.327	0.0398341	-0.00918209	-0.0387614	-65.0663	95.5249	40.2703	86.6216	0.00441059	0.00948927	0.0104642	65.0711	1.51694e+10	7.0507e+09	1.67279e+10	-24.9289	0.0000000E+000	0.0000000E+000	0.0000000E+000	24.9289	0.0000000E+000	0.0000000E+000	0.0000000E+000	-24.9289	0.0000000E+000	0.0000000E+000	0.0000000E+000	-65.0711	0.0000000E+000	0.0000000E+000	0.0000000E+000	65.0711	0.464797	24.9289	0.000000000000000E+000	-2.94392e-06	1.29919e-10	-2.94405e-06	3.9678	5.34731e+06	235.984	5.34755e+06