File: txt/18709_R307_UA701_SOC00_C06.mpt
EC-Lab ASCII FILE
Nb header lines : 65

Potentio Electrochemical Impedance Spectroscopy

Run on channel : 6 (SN 65795)
User :
CE vs. WE compliance from -10 V to 10 V
Electrode connection : standard
Potential control : Ewe
Ewe ctrl range : min = -10.00 V, max = 10.00 V
Safety Limits :
	Do not start on E overload
Acquisition started on : 10/28/2025 15:30:49.284
Technique started on : 10/28/2025 15:30:51.011
Loaded Setting File :  C:\Users\Celltest\OneDrive - store-dot.com\Documents\EC-Lab\Data\@Biologic Test Protocols\anode half cell EIS SOC00.mps
Saved on :
	File : 18709_R307_UA701_SOC00_C06.mpr
	Directory : C:\Users\Celltest\OneDrive - store-dot.com\Documents\EC-Lab\Data\Anna\
	Host : 169.254.61.224
Device : VMP-3e (SN .003165)
Address : USB
EC-LAB for windows v11.62 (software)
Internet server v27.00 (firmware)
Command interpretor v12.03 (firmware)
Electrode material :
Initial state :
Electrolyte :
Comments :
Electrode surface area : 0.001 cm²
Characteristic mass : 0.001 g
Equivalent Weight : 0.000 g/eq.
Density : 0.000 g/cm3
Volume (V) : 0.001 cm³
Record Ece
Cycle Definition : Charge/Discharge alternance
Mode                Single sine
E (V)               0.0000
vs.                 Eoc
tE (h:m:s)          0:00:0.0000
record              0
dI                  0.000
unit dI             mA
dt (s)              0.000
fi                  100.000
unit fi             kHz
ff                  10.000
unit ff             mHz
Nd                  6
Points              per decade
spacing             Logarithmic
Va (mV)             5.0
pw                  0.10
Na                  2
corr                0
E range min (V)     -10.000
E range max (V)     10.000
I Range             Auto
Bandwidth           5
nc cycles           0
goto Ns'            0
nr cycles           0
inc. cycle          0

freq/Hz	Re(Z)/Ohm	-Im(Z)/Ohm	|Z|/Ohm	Phase(Z)/deg	time/s	<Ewe>/V	<I>/mA	Cs/µF	Cp/µF	cycle number	I Range	|Ewe|/V	|I|/A	Ns	(Q-Qo)/mA.h	<Ece>/V	|Ece|/V	Phase(Zce)/deg	|Zce|/Ohm	Re(Zce)/Ohm	-Im(Zce)/Ohm	Phase(Zwe-ce)/deg	|Zwe-ce|/Ohm	Re(Zwe-ce)/Ohm	-Im(Zwe-ce)/Ohm	Re(Y)/Ohm-1	Im(Y)/Ohm-1	|Y|/Ohm-1	Phase(Y)/deg	Re(C)/nF	Im(C)/nF	|C|/nF	Phase(C)/deg	Re(M)	Im(M)	|M|	Phase(M)/deg	Re(Permittivity)	Im(Permittivity)	|Permittivity|	Phase(Permittivity)/deg	Re(Resistivity)/Ohm.cm	Im(Resistivity)/Ohm.cm	|Resistivity|/Ohm.cm	Phase(Resistivity)/deg	Re(Conductivity)/mS/cm	Im(Conductivity)/mS/cm	|Conductivity|/mS/cm	Phase(Conductivity)/deg	Tan(Delta)	Loss Angle(Delta)/deg	dq/mA.h	Pwe/W	Pce/W	Pwe-ce/W	<Ewe-Ece>/V	Rwe/Ohm	Rce/Ohm	Rwe-ce/Ohm		Ewe-Ece/V
100004	1.25472	0.483581	1.34468	-21.0772	1.72655	0.244723	0.0202572	3.29105	0.425633	1	9	0.0047921	0.00356375	0	2.63776e-07	-0.000113801	4.36866e-05	80.2913	0.0122586	0.00206729	-0.0120831	-20.5642	1.34232	1.25678	0.471498	0.693917	0.267443	0.743671	21.0772	425.633	1104.36	1183.55	-68.9228	0.0000000E+000	0.0000000E+000	0.0000000E+000	68.9228	0.0000000E+000	0.0000000E+000	0.0000000E+000	-68.9228	0.0000000E+000	0.0000000E+000	0.0000000E+000	-21.0772	0.0000000E+000	0.0000000E+000	0.0000000E+000	21.0772	2.59464	68.9228	2.63776e-07	4.95739e-06	-2.30529e-09	4.95969e-06	0.244836	12080.8	5.61782	12086.4
31621.1	1.67601	0.626107	1.78914	-20.4841	3.25154	0.244695	0.0239822	8.03885	0.984467	1	9	0.00505795	0.00282703	0	8.69173e-06	0.000306356	7.22165e-06	47.7191	0.0025545	0.00171858	-0.00188996	-20.4082	1.79009	1.67773	0.624217	0.523585	0.195595	0.558927	20.4841	984.467	2635.3	2813.18	-69.5159	0.0000000E+000	0.0000000E+000	0.0000000E+000	69.5159	0.0000000E+000	0.0000000E+000	0.0000000E+000	-69.5159	0.0000000E+000	0.0000000E+000	0.0000000E+000	-20.4841	0.0000000E+000	0.0000000E+000	0.0000000E+000	20.4841	2.67688	69.5159	5.73599e-06	5.86831e-06	7.34707e-09	5.86096e-06	0.244388	10203.2	12.7743	10190.4
10002.2	2.15129	0.782111	2.28905	-19.9789	4.27856	0.244718	0.0212629	20.3449	2.37509	1	9	0.00491494	0.00214715	0	1.15744e-05	-9.4703e-05	2.61262e-05	11.0904	0.0121678	0.0119406	-0.00234057	-19.8225	2.29948	2.16323	0.77977	0.410571	0.149265	0.436862	19.9789	2375.09	6532.99	6951.33	-70.0211	0.0000000E+000	0.0000000E+000	0.0000000E+000	70.0211	0.0000000E+000	0.0000000E+000	0.0000000E+000	-70.0211	0.0000000E+000	0.0000000E+000	0.0000000E+000	-19.9789	0.0000000E+000	0.0000000E+000	0.0000000E+000	19.9789	2.75062	70.0211	4.26314e-06	5.2034e-06	-2.01366e-09	5.20542e-06	0.244812	11509.2	4.45391	11513.6
3163.08	2.74316	1.08636	2.95044	-21.6047	5.17868	0.24448	-0.0349473	46.3167	6.27926	1	9	0.00453506	0.00153708	0	8.40958e-06	0.000306356	1.49353e-06	45.3509	0.000971665	0.00068285	-0.000691266	-21.5874	2.95082	2.74384	1.08566	0.315121	0.124795	0.338932	21.6047	6279.26	15855.8	17053.9	-68.3953	0.0000000E+000	0.0000000E+000	0.0000000E+000	68.3953	0.0000000E+000	0.0000000E+000	0.0000000E+000	-68.3953	0.0000000E+000	0.0000000E+000	0.0000000E+000	-21.6047	0.0000000E+000	0.0000000E+000	0.0000000E+000	21.6047	2.5251	68.3953	-2.61856e-06	-8.54392e-06	-1.07063e-08	-8.53321e-06	0.244174	6995.67	8.76622	6986.91
1000.32	3.59543	1.59339	3.93269	-23.9016	6.99179	0.244629	-0.0225612	99.8524	16.3917	1	10	0.00503951	0.00128144	0	2.09495e-05	0.000115375	8.01116e-06	56.0057	0.00625167	0.00349538	-0.00518322	-23.8119	3.93379	3.59893	1.58821	0.232473	0.103025	0.254279	23.9016	16391.8	36987.4	40456.8	-66.0984	0.0000000E+000	0.0000000E+000	0.0000000E+000	66.0984	0.0000000E+000	0.0000000E+000	0.0000000E+000	-66.0984	0.0000000E+000	0.0000000E+000	0.0000000E+000	-23.9016	0.0000000E+000	0.0000000E+000	0.0000000E+000	23.9016	2.25646	66.0984	-2.17081e-06	-5.51914e-06	-2.60301e-09	-5.51654e-06	0.244514	10842.9	5.11388	10837.8
316.316	4.92118	2.45105	5.49779	-26.4762	8.34106	0.244615	-0.022237	205.28	40.8014	1	10	0.0049796	0.000905745	0	1.2168e-05	0.000287258	3.49056e-05	-44.3761	0.0385379	0.0275456	0.0269521	-26.5988	5.53448	4.94873	2.47801	0.162815	0.0810917	0.181891	26.4762	40801.4	81920.4	91518.9	-63.5238	0.0000000E+000	0.0000000E+000	0.0000000E+000	63.5238	0.0000000E+000	0.0000000E+000	0.0000000E+000	-63.5238	0.0000000E+000	0.0000000E+000	0.0000000E+000	-26.4762	0.0000000E+000	0.0000000E+000	0.0000000E+000	26.4762	2.00778	63.5238	-2.28267e-06	-5.43951e-06	-6.38776e-09	-5.43312e-06	0.244328	11000.3	12.918	10987.4
100.032	7.29342	3.41308	8.05252	-25.0781	9.68784	0.244618	-0.0207837	466.159	83.7461	1	10	0.00494192	0.000613711	0	5.44264e-06	0.000306356	9.37971e-06	-37.2008	0.0152836	0.0121737	0.00924062	-25.1009	8.06746	7.30559	3.42232	0.112478	0.052636	0.124185	25.0781	83746.1	178957	197583	-64.9219	0.0000000E+000	0.0000000E+000	0.0000000E+000	64.9219	0.0000000E+000	0.0000000E+000	0.0000000E+000	-64.9219	0.0000000E+000	0.0000000E+000	0.0000000E+000	-25.0781	0.0000000E+000	0.0000000E+000	0.0000000E+000	25.0781	2.1369	64.9219	-3.25876e-06	-5.08407e-06	-6.3672e-09	-5.07771e-06	0.244312	11769.7	14.7402	11755
31.6296	10.3214	3.29638	10.835	-17.7121	11.0166	0.244608	-0.0264108	1526.48	141.288	1	10	0.004931	0.000455098	0	-3.03375e-06	0.000229964	1.05063e-05	19.4337	0.0230858	0.0217705	-0.00768101	-17.6385	10.8534	10.3432	3.2887	0.0879185	0.0280788	0.0922934	17.7121	141288	442392	464406	-72.2879	0.0000000E+000	0.0000000E+000	0.0000000E+000	72.2879	0.0000000E+000	0.0000000E+000	0.0000000E+000	-72.2879	0.0000000E+000	0.0000000E+000	0.0000000E+000	-17.7121	0.0000000E+000	0.0000000E+000	0.0000000E+000	17.7121	3.13114	72.2879	-3.10207e-06	-6.46029e-06	-6.07352e-09	-6.45422e-06	0.244378	9261.67	8.70718	9252.96
10.0032	12.5949	2.47653	12.8361	-11.1241	12.5938	0.244665	-0.0137164	6424.48	239.144	1	11	0.00493447	0.000384422	0	-1.16576e-05	0.000153571	1.11133e-05	-21.4575	0.028909	0.0269053	0.0105752	-11.1472	12.8645	12.6218	2.4871	0.0764417	0.0150307	0.0779054	11.1241	239144	1.21622e+06	1.23951e+06	-78.8759	0.0000000E+000	0.0000000E+000	0.0000000E+000	78.8759	0.0000000E+000	0.0000000E+000	0.0000000E+000	-78.8759	0.0000000E+000	0.0000000E+000	0.0000000E+000	-11.1241	0.0000000E+000	0.0000000E+000	0.0000000E+000	11.1241	5.08572	78.8759	-1.16128e-06	-3.35592e-06	-2.10644e-09	-3.35381e-06	0.244511	17837.4	11.1962	17826.2
3.1604	14.0759	1.73422	14.1823	-7.02373	14.1104	0.244652	-0.0128895	29038.5	434.198	1	11	0.00493808	0.000348185	0	-2.09877e-05	7.71793e-05	7.14084e-06	-25.7528	0.0205087	0.0184717	0.00891084	-7.0503	14.2018	14.0944	1.74313	0.0699812	0.00862203	0.0705103	7.02373	434198	3.52419e+06	3.55084e+06	-82.9763	0.0000000E+000	0.0000000E+000	0.0000000E+000	82.9763	0.0000000E+000	0.0000000E+000	0.0000000E+000	-82.9763	0.0000000E+000	0.0000000E+000	0.0000000E+000	-7.02373	0.0000000E+000	0.0000000E+000	0.0000000E+000	7.02373	8.11656	82.9763	-5.70384e-06	-3.15344e-06	-9.94803e-10	-3.15245e-06	0.244575	18980.7	5.98777	18974.7
1.00006	14.9494	1.23797	15.0005	-4.73389	18.7046	0.244673	-0.010413	128553	875.562	1	11	0.00493692	0.000329116	0	-1.7443e-05	-1.83109e-05	2.68391e-06	80.0446	0.00815491	0.00140983	-0.00803212	-4.70288	15.0013	14.9508	1.22993	0.0664368	0.00550167	0.0666642	4.73389	875562	1.05731e+07	1.06093e+07	-85.2661	0.0000000E+000	0.0000000E+000	0.0000000E+000	85.2661	0.0000000E+000	0.0000000E+000	0.0000000E+000	-85.2661	0.0000000E+000	0.0000000E+000	0.0000000E+000	-4.73389	0.0000000E+000	0.0000000E+000	0.0000000E+000	4.73389	12.0758	85.2661	1.70983e-06	-2.5478e-06	1.90672e-10	-2.54799e-06	0.244692	23496.8	1.75845	23498.6
0.316193	15.474	1.33005	15.5311	-4.91273	33.049	0.244671	-0.00677006	378442	2775.46	1	11	0.00493806	0.000317948	0	-8.6505e-05	0.000210866	1.83424e-06	58.0717	0.00576899	0.00305097	-0.0048962	-4.89377	15.5337	15.4771	1.32516	0.0641506	0.005514	0.0643871	4.91273	2.77546e+06	3.229e+07	3.24091e+07	-85.0873	0.0000000E+000	0.0000000E+000	0.0000000E+000	85.0873	0.0000000E+000	0.0000000E+000	0.0000000E+000	-85.0873	0.0000000E+000	0.0000000E+000	0.0000000E+000	-4.91273	0.0000000E+000	0.0000000E+000	0.0000000E+000	4.91273	11.6341	85.0873	-4.16181e-05	-1.65644e-06	-1.42757e-09	-1.65501e-06	0.24446	36140.2	31.1468	36109
0.0999041	16.2236	2.50402	16.4157	-8.77406	85.119	0.244658	-0.0105346	636208	14803.3	1	12	0.00493328	0.000300523	0	-0.000251946	-1.83109e-05	2.09556e-06	10.9281	0.00697304	0.00684659	-0.00132192	-8.76586	16.4222	16.2304	2.5027	0.0602046	0.00929225	0.0609175	8.77406	1.48033e+07	9.59105e+07	9.70462e+07	-81.2259	0.0000000E+000	0.0000000E+000	0.0000000E+000	81.2259	0.0000000E+000	0.0000000E+000	0.0000000E+000	-81.2259	0.0000000E+000	0.0000000E+000	0.0000000E+000	-8.77406	0.0000000E+000	0.0000000E+000	0.0000000E+000	8.77406	6.47901	81.2259	-3.1161e-05	-2.57738e-06	1.92898e-10	-2.57758e-06	0.244677	23224.2	1.73816	23225.9
0.0315922	17.782	5.35562	18.571	-16.7613	228.002	0.244659	-0.00688858	940655	78230.9	1	12	0.00493449	0.000265709	0	-0.000129162	0.000306356	2.20755e-06	41.3319	0.00830816	0.00623857	-0.00548687	-16.7396	18.5754	17.7883	5.35013	0.0515596	0.0155288	0.0538473	16.7613	7.82309e+07	2.59746e+08	2.71272e+08	-73.2387	0.0000000E+000	0.0000000E+000	0.0000000E+000	73.2387	0.0000000E+000	0.0000000E+000	0.0000000E+000	-73.2387	0.0000000E+000	0.0000000E+000	0.0000000E+000	-16.7613	0.0000000E+000	0.0000000E+000	0.0000000E+000	16.7613	3.32025	73.2387	4.66563e-05	-1.68536e-06	-2.11036e-09	-1.68325e-06	0.244353	35516.7	44.473	35472.2
0.0100092	21.0804	12.4473	24.481	-30.5604	679.224	0.24465	-0.00857454	1.27746e+06	330247	1	12	0.00493467	0.000201571	0	-0.00196024	0.000153571	1.03557e-06	19.0579	0.0051375	0.00485591	-0.00167751	-30.5513	24.4843	21.0853	12.4456	0.035174	0.020769	0.040848	30.5604	3.30247e+08	5.59298e+08	6.49521e+08	-59.4396	0.0000000E+000	0.0000000E+000	0.0000000E+000	59.4396	0.0000000E+000	0.0000000E+000	0.0000000E+000	-59.4396	0.0000000E+000	0.0000000E+000	0.0000000E+000	-30.5604	0.0000000E+000	0.0000000E+000	0.0000000E+000	30.5604	1.69358	59.4396	-0.00109383	-2.09776e-06	-1.31681e-09	-2.09645e-06	0.244496	28532.1	17.9102	28514.2