File: txt/18708_R307_UA701_SOC00_C05.mpt
EC-Lab ASCII FILE
Nb header lines : 65

Potentio Electrochemical Impedance Spectroscopy

Run on channel : 5 (SN 65912)
User :
CE vs. WE compliance from -10 V to 10 V
Electrode connection : standard
Potential control : Ewe
Ewe ctrl range : min = -10.00 V, max = 10.00 V
Safety Limits :
	Do not start on E overload
Acquisition started on : 10/28/2025 15:30:40.851
Technique started on : 10/28/2025 15:30:42.721
Loaded Setting File :  C:\Users\Celltest\OneDrive - store-dot.com\Documents\EC-Lab\Data\@Biologic Test Protocols\anode half cell EIS SOC00.mps
Saved on :
	File : 18708_R307_UA701_SOC00_C05.mpr
	Directory : C:\Users\Celltest\OneDrive - store-dot.com\Documents\EC-Lab\Data\Anna\
	Host : 169.254.61.224
Device : VMP-3e (SN .003165)
Address : USB
EC-LAB for windows v11.62 (software)
Internet server v27.00 (firmware)
Command interpretor v12.03 (firmware)
Electrode material :
Initial state :
Electrolyte :
Comments :
Electrode surface area : 0.001 cm²
Characteristic mass : 0.001 g
Equivalent Weight : 0.000 g/eq.
Density : 0.000 g/cm3
Volume (V) : 0.001 cm³
Record Ece
Cycle Definition : Charge/Discharge alternance
Mode                Single sine
E (V)               0.0000
vs.                 Eoc
tE (h:m:s)          0:00:0.0000
record              0
dI                  0.000
unit dI             mA
dt (s)              0.000
fi                  100.000
unit fi             kHz
ff                  10.000
unit ff             mHz
Nd                  6
Points              per decade
spacing             Logarithmic
Va (mV)             5.0
pw                  0.10
Na                  2
corr                0
E range min (V)     -10.000
E range max (V)     10.000
I Range             Auto
Bandwidth           5
nc cycles           0
goto Ns'            0
nr cycles           0
inc. cycle          0

freq/Hz	Re(Z)/Ohm	-Im(Z)/Ohm	|Z|/Ohm	Phase(Z)/deg	time/s	<Ewe>/V	<I>/mA	Cs/µF	Cp/µF	cycle number	I Range	|Ewe|/V	|I|/A	Ns	(Q-Qo)/mA.h	<Ece>/V	|Ece|/V	Phase(Zce)/deg	|Zce|/Ohm	Re(Zce)/Ohm	-Im(Zce)/Ohm	Phase(Zwe-ce)/deg	|Zwe-ce|/Ohm	Re(Zwe-ce)/Ohm	-Im(Zwe-ce)/Ohm	Re(Y)/Ohm-1	Im(Y)/Ohm-1	|Y|/Ohm-1	Phase(Y)/deg	Re(C)/nF	Im(C)/nF	|C|/nF	Phase(C)/deg	Re(M)	Im(M)	|M|	Phase(M)/deg	Re(Permittivity)	Im(Permittivity)	|Permittivity|	Phase(Permittivity)/deg	Re(Resistivity)/Ohm.cm	Im(Resistivity)/Ohm.cm	|Resistivity|/Ohm.cm	Phase(Resistivity)/deg	Re(Conductivity)/mS/cm	Im(Conductivity)/mS/cm	|Conductivity|/mS/cm	Phase(Conductivity)/deg	Tan(Delta)	Loss Angle(Delta)/deg	dq/mA.h	Pwe/W	Pce/W	Pwe-ce/W	<Ewe-Ece>/V	Rwe/Ohm	Rce/Ohm	Rwe-ce/Ohm		Ewe-Ece/V
100004	1.21892	0.420945	1.28956	-19.0519	1.86953	0.247021	-0.00631503	3.78076	0.402851	1	9	0.00487794	0.00378263	0	-3.24308e-06	0.00024491	3.99107e-05	58.3221	0.010551	0.00554081	-0.00897908	-18.5953	1.29191	1.22446	0.411966	0.73298	0.253128	0.775457	19.0519	402.851	1166.53	1234.13	-70.9481	0.0000000E+000	0.0000000E+000	0.0000000E+000	70.9481	0.0000000E+000	0.0000000E+000	0.0000000E+000	-70.9481	0.0000000E+000	0.0000000E+000	0.0000000E+000	-19.0519	0.0000000E+000	0.0000000E+000	0.0000000E+000	19.0519	2.89569	70.9481	-3.24308e-06	-1.55995e-06	-1.54662e-09	-1.5584e-06	0.246776	39116.4	38.7821	39077.6
31621.1	1.59046	0.566073	1.68819	-19.5916	3.14255	0.246971	-0.0133906	8.89139	0.999705	1	9	0.00542784	0.00321518	0	-1.92646e-05	0.000130363	1.24416e-05	19.7288	0.00386965	0.0036425	-0.00130627	-19.5085	1.69119	1.5941	0.564767	0.558057	0.198623	0.59235	19.5916	999.705	2808.8	2981.4	-70.4084	0.0000000E+000	0.0000000E+000	0.0000000E+000	70.4084	0.0000000E+000	0.0000000E+000	0.0000000E+000	-70.4084	0.0000000E+000	0.0000000E+000	0.0000000E+000	-19.5916	0.0000000E+000	0.0000000E+000	0.0000000E+000	19.5916	2.80963	70.4084	-1.88082e-06	-3.3071e-06	-1.74564e-09	-3.30535e-06	0.246841	18443.6	9.73541	18433.9
10002.2	2.02938	0.729555	2.15654	-19.7733	4.29354	0.246956	-0.00925699	21.8105	2.49613	1	9	0.00542673	0.00251641	0	-2.56339e-05	3.4907e-05	1.00324e-05	-71.2732	0.00398678	0.00127998	0.00377572	-19.8561	2.15902	2.03066	0.73333	0.436366	0.156871	0.463706	19.7733	2496.13	6943.43	7378.48	-70.2267	0.0000000E+000	0.0000000E+000	0.0000000E+000	70.2267	0.0000000E+000	0.0000000E+000	0.0000000E+000	-70.2267	0.0000000E+000	0.0000000E+000	0.0000000E+000	-19.7733	0.0000000E+000	0.0000000E+000	0.0000000E+000	19.7733	2.78168	70.2267	-2.55787e-06	-2.28607e-06	-3.23134e-10	-2.28575e-06	0.246922	26677.8	3.77088	26674.1
3163.08	2.58003	1.01016	2.77073	-21.3818	5.62162	0.24693	-0.0380434	49.8106	6.62079	1	9	0.00499772	0.00180375	0	-2.54729e-05	5.39982e-05	1.25706e-05	-59.3943	0.00696913	0.00354817	0.00599827	-21.4704	2.77623	2.58358	1.01615	0.336074	0.131583	0.360915	21.3818	6620.78	16910.1	18160	-68.6182	0.0000000E+000	0.0000000E+000	0.0000000E+000	68.6182	0.0000000E+000	0.0000000E+000	0.0000000E+000	-68.6182	0.0000000E+000	0.0000000E+000	0.0000000E+000	-21.3818	0.0000000E+000	0.0000000E+000	0.0000000E+000	21.3818	2.55409	68.6182	-4.95209e-06	-9.39405e-06	-2.05428e-09	-9.392e-06	0.246876	6490.74	1.41938	6489.32
1000.32	3.35787	1.50652	3.68033	-24.1635	7.22079	0.246947	-0.0166458	105.611	17.6962	1	10	0.00500944	0.00136114	0	-3.1711e-05	0.000168545	7.60177e-06	-38.3342	0.00558486	0.0043808	0.003464	-24.1848	3.68575	3.36225	1.50998	0.247907	0.111224	0.271715	24.1635	17696.2	39443	43230.9	-65.8365	0.0000000E+000	0.0000000E+000	0.0000000E+000	65.8365	0.0000000E+000	0.0000000E+000	0.0000000E+000	-65.8365	0.0000000E+000	0.0000000E+000	0.0000000E+000	-24.1635	0.0000000E+000	0.0000000E+000	0.0000000E+000	24.1635	2.2289	65.8365	-9.0986e-07	-4.11063e-06	-2.80557e-09	-4.10783e-06	0.246779	14835.4	10.1254	14825.3
316.316	4.60136	2.39458	5.18715	-27.4928	8.57001	0.246955	-0.0172117	210.121	44.7787	1	10	0.00482718	0.000930603	0	-3.75557e-05	3.4907e-05	1.06408e-05	-84.0565	0.0114343	0.00118401	0.0113729	-27.5981	5.19346	4.60254	2.40596	0.171013	0.0889963	0.192784	27.4928	44778.7	86045.3	96999.6	-62.5072	0.0000000E+000	0.0000000E+000	0.0000000E+000	62.5072	0.0000000E+000	0.0000000E+000	0.0000000E+000	-62.5072	0.0000000E+000	0.0000000E+000	0.0000000E+000	-27.4928	0.0000000E+000	0.0000000E+000	0.0000000E+000	27.4928	1.92157	62.5072	-1.50841e-06	-4.25052e-06	-6.0081e-10	-4.24992e-06	0.24692	14348	2.02809	14346
100.032	6.9791	3.36958	7.74997	-25.7717	9.91679	0.246945	-0.0154915	472.178	89.2601	1	10	0.00477541	0.000616184	0	-4.38624e-05	0.000168545	6.12564e-06	-62.8495	0.00994124	0.00453649	0.00884582	-25.816	7.7579	6.98364	3.37843	0.116198	0.0561017	0.129033	25.7717	89260.1	184876	205296	-64.2283	0.0000000E+000	0.0000000E+000	0.0000000E+000	64.2283	0.0000000E+000	0.0000000E+000	0.0000000E+000	-64.2283	0.0000000E+000	0.0000000E+000	0.0000000E+000	-25.7717	0.0000000E+000	0.0000000E+000	0.0000000E+000	25.7717	2.07121	64.2283	-1.92261e-06	-3.82556e-06	-2.61103e-09	-3.82295e-06	0.246776	15940.6	10.8798	15929.8
31.6296	9.95727	3.268	10.4798	-18.17	11.2465	0.246946	-0.0173979	1539.73	149.727	1	10	0.00475625	0.000453847	0	-4.91317e-05	9.21806e-05	3.92618e-06	-58.7293	0.00865089	0.00449052	0.00739413	-18.2007	10.4864	9.96176	3.2754	0.0906632	0.0297559	0.0954213	18.17	149727	456203	480145	-71.83	0.0000000E+000	0.0000000E+000	0.0000000E+000	71.83	0.0000000E+000	0.0000000E+000	0.0000000E+000	-71.83	0.0000000E+000	0.0000000E+000	0.0000000E+000	-18.17	0.0000000E+000	0.0000000E+000	0.0000000E+000	18.17	3.0469	71.83	-1.05279e-06	-4.29634e-06	-1.60375e-09	-4.29474e-06	0.246853	14194	5.29837	14188.7
10.0032	12.1545	2.44627	12.3982	-11.3796	12.8238	0.246957	-0.0118653	6503.94	253.201	1	11	0.00475906	0.00038385	0	-5.48263e-05	9.21806e-05	7.9373e-06	-12.168	0.0206781	0.0202136	0.00435852	-11.3809	12.4189	12.1747	2.45063	0.079071	0.0159142	0.0806566	11.3796	253202	1.25805e+06	1.28328e+06	-78.6204	0.0000000E+000	0.0000000E+000	0.0000000E+000	78.6204	0.0000000E+000	0.0000000E+000	0.0000000E+000	-78.6204	0.0000000E+000	0.0000000E+000	0.0000000E+000	-11.3796	0.0000000E+000	0.0000000E+000	0.0000000E+000	11.3796	4.96858	78.6204	-3.49449e-06	-2.93022e-06	-1.09375e-09	-2.92912e-06	0.246864	20813.3	7.76892	20805.6
3.1604	13.5849	1.72073	13.6934	-7.21894	14.3404	0.24695	-0.0118917	29266.2	462.133	1	11	0.00475444	0.000347206	0	-5.88655e-05	-2.23667e-05	4.9545e-06	70.9596	0.0142696	0.00465526	-0.0134889	-7.16051	13.6964	13.5895	1.70724	0.0724489	0.00917675	0.0730277	7.21894	462133	3.64847e+06	3.67762e+06	-82.7811	0.0000000E+000	0.0000000E+000	0.0000000E+000	82.7811	0.0000000E+000	0.0000000E+000	0.0000000E+000	-82.7811	0.0000000E+000	0.0000000E+000	0.0000000E+000	-7.21894	0.0000000E+000	0.0000000E+000	0.0000000E+000	7.21894	7.89483	82.7811	2.34905e-06	-2.93666e-06	2.65978e-10	-2.93693e-06	0.246972	20766.5	1.88086	20768.4
1.00006	14.4862	1.23803	14.539	-4.8848	18.9347	0.246961	-0.00854358	128546	932.086	1	11	0.0047603	0.000327416	0	-7.83952e-05	0.000130363	2.28342e-06	-28.1303	0.00697406	0.00615026	0.00328812	-4.89564	14.5454	14.4923	1.24132	0.0685307	0.00585684	0.0687805	4.8848	932087	1.09063e+07	1.09461e+07	-85.1152	0.0000000E+000	0.0000000E+000	0.0000000E+000	85.1152	0.0000000E+000	0.0000000E+000	0.0000000E+000	-85.1152	0.0000000E+000	0.0000000E+000	0.0000000E+000	-4.8848	0.0000000E+000	0.0000000E+000	0.0000000E+000	4.8848	11.701	85.1152	-1.47629e-05	-2.10993e-06	-1.11377e-09	-2.10882e-06	0.246831	28906	15.2586	28890.8
0.316193	15.0469	1.33228	15.1057	-5.05989	33.2777	0.246961	-0.0102257	377809	2938.86	1	11	0.00476242	0.000315272	0	-0.00013453	5.39982e-05	1.87232e-06	-49.5065	0.00593876	0.00385641	0.00451631	-5.07566	15.11	15.0507	1.3368	0.065942	0.00583863	0.0662	5.05989	2.93886e+06	3.31917e+07	3.33216e+07	-84.9401	0.0000000E+000	0.0000000E+000	0.0000000E+000	84.9401	0.0000000E+000	0.0000000E+000	0.0000000E+000	-84.9401	0.0000000E+000	0.0000000E+000	0.0000000E+000	-5.05989	0.0000000E+000	0.0000000E+000	0.0000000E+000	5.05989	11.2941	84.9401	-1.2816e-05	-2.52535e-06	-5.5217e-10	-2.5248e-06	0.246907	24151	5.28064	24145.8
0.0999041	15.7357	2.37971	15.9147	-8.59967	78.4857	0.246965	-0.00634817	669441	14968.1	1	11	0.00475852	0.000299003	0	-8.26066e-05	-0.000175096	2.21447e-06	11.8645	0.00740619	0.00724797	-0.0015227	-8.59035	15.9216	15.743	2.37819	0.0621287	0.00939572	0.0628352	8.59967	1.49681e+07	9.89759e+07	1.00101e+08	-81.4003	0.0000000E+000	0.0000000E+000	0.0000000E+000	81.4003	0.0000000E+000	0.0000000E+000	0.0000000E+000	-81.4003	0.0000000E+000	0.0000000E+000	0.0000000E+000	-8.59967	0.0000000E+000	0.0000000E+000	0.0000000E+000	8.59967	6.61245	81.4003	2.56074e-05	-1.56778e-06	1.11154e-09	-1.56889e-06	0.24714	38903.4	27.5822	38930.9
0.0315922	17.112	5.33268	17.9237	-17.3088	236.136	0.246968	-0.00621212	944702	83624	1	12	0.00475867	0.000265496	0	-0.000598	7.30894e-05	1.52765e-06	-38.5594	0.00575393	0.00449936	0.00358657	-17.3155	17.929	17.1165	5.33627	0.0532656	0.0165993	0.0557921	17.3088	8.3624e+07	2.68341e+08	2.81069e+08	-72.6912	0.0000000E+000	0.0000000E+000	0.0000000E+000	72.6912	0.0000000E+000	0.0000000E+000	0.0000000E+000	-72.6912	0.0000000E+000	0.0000000E+000	0.0000000E+000	-17.3088	0.0000000E+000	0.0000000E+000	0.0000000E+000	17.3088	3.2089	72.6912	-0.00033604	-1.53419e-06	-4.5404e-10	-1.53374e-06	0.246895	39755.9	11.7656	39744.1
0.0100092	20.5804	12.4512	24.0538	-31.174	687.358	0.246964	-0.00954551	1.27706e+06	342188	1	12	0.00475844	0.000197825	0	-0.00209257	0.000149454	2.22076e-06	70.7228	0.0112259	0.0037061	-0.0105965	-31.1478	24.0515	20.5841	12.4406	0.0355702	0.02152	0.0415734	31.174	3.42188e+08	5.65599e+08	6.61056e+08	-58.826	0.0000000E+000	0.0000000E+000	0.0000000E+000	58.826	0.0000000E+000	0.0000000E+000	0.0000000E+000	-58.826	0.0000000E+000	0.0000000E+000	0.0000000E+000	-31.174	0.0000000E+000	0.0000000E+000	0.0000000E+000	31.174	1.65289	58.826	-0.000399372	-2.3574e-06	-1.42662e-09	-2.35597e-06	0.246815	25872.3	15.657	25856.6