File: txt/18707_R307_UA701_SOC00_C04.mpt
EC-Lab ASCII FILE
Nb header lines : 65

Potentio Electrochemical Impedance Spectroscopy

Run on channel : 4 (SN 66756)
User :
CE vs. WE compliance from -10 V to 10 V
Electrode connection : standard
Potential control : Ewe
Ewe ctrl range : min = -10.00 V, max = 10.00 V
Safety Limits :
	Do not start on E overload
Acquisition started on : 10/28/2025 15:30:28.753
Technique started on : 10/28/2025 15:30:30.347
Loaded Setting File :  C:\Users\Celltest\OneDrive - store-dot.com\Documents\EC-Lab\Data\@Biologic Test Protocols\anode half cell EIS SOC00.mps
Saved on :
	File : 18707_R307_UA701_SOC00_C04.mpr
	Directory : C:\Users\Celltest\OneDrive - store-dot.com\Documents\EC-Lab\Data\Anna\
	Host : 169.254.61.224
Device : VMP-3e (SN .003165)
Address : USB
EC-LAB for windows v11.62 (software)
Internet server v27.00 (firmware)
Command interpretor v12.03 (firmware)
Electrode material :
Initial state :
Electrolyte :
Comments :
Electrode surface area : 0.001 cm²
Characteristic mass : 0.001 g
Equivalent Weight : 0.000 g/eq.
Density : 0.000 g/cm3
Volume (V) : 0.001 cm³
Record Ece
Cycle Definition : Charge/Discharge alternance
Mode                Single sine
E (V)               0.0000
vs.                 Eoc
tE (h:m:s)          0:00:0.0000
record              0
dI                  0.000
unit dI             mA
dt (s)              0.000
fi                  100.000
unit fi             kHz
ff                  10.000
unit ff             mHz
Nd                  6
Points              per decade
spacing             Logarithmic
Va (mV)             5.0
pw                  0.10
Na                  2
corr                0
E range min (V)     -10.000
E range max (V)     10.000
I Range             Auto
Bandwidth           5
nc cycles           0
goto Ns'            0
nr cycles           0
inc. cycle          0

freq/Hz	Re(Z)/Ohm	-Im(Z)/Ohm	|Z|/Ohm	Phase(Z)/deg	time/s	<Ewe>/V	<I>/mA	Cs/µF	Cp/µF	cycle number	I Range	|Ewe|/V	|I|/A	Ns	(Q-Qo)/mA.h	<Ece>/V	|Ece|/V	Phase(Zce)/deg	|Zce|/Ohm	Re(Zce)/Ohm	-Im(Zce)/Ohm	Phase(Zwe-ce)/deg	|Zwe-ce|/Ohm	Re(Zwe-ce)/Ohm	-Im(Zwe-ce)/Ohm	Re(Y)/Ohm-1	Im(Y)/Ohm-1	|Y|/Ohm-1	Phase(Y)/deg	Re(C)/nF	Im(C)/nF	|C|/nF	Phase(C)/deg	Re(M)	Im(M)	|M|	Phase(M)/deg	Re(Permittivity)	Im(Permittivity)	|Permittivity|	Phase(Permittivity)/deg	Re(Resistivity)/Ohm.cm	Im(Resistivity)/Ohm.cm	|Resistivity|/Ohm.cm	Phase(Resistivity)/deg	Re(Conductivity)/mS/cm	Im(Conductivity)/mS/cm	|Conductivity|/mS/cm	Phase(Conductivity)/deg	Tan(Delta)	Loss Angle(Delta)/deg	dq/mA.h	Pwe/W	Pce/W	Pwe-ce/W	<Ewe-Ece>/V	Rwe/Ohm	Rce/Ohm	Rwe-ce/Ohm		Ewe-Ece/V
100004	1.28068	0.37237	1.33372	-16.2123	1.59356	0.244056	0.038692	4.27394	0.333157	1	9	0.0047757	0.00358074	0	1.08998e-05	2.27182e-05	2.45922e-05	48.0662	0.00686791	0.00458963	-0.00510916	-15.9471	1.33672	1.28527	0.367261	0.719966	0.209337	0.749782	16.2123	333.157	1145.82	1193.27	-73.7877	0.0000000E+000	0.0000000E+000	0.0000000E+000	73.7877	0.0000000E+000	0.0000000E+000	0.0000000E+000	-73.7877	0.0000000E+000	0.0000000E+000	0.0000000E+000	-16.2123	0.0000000E+000	0.0000000E+000	0.0000000E+000	16.2123	3.43927	73.7877	1.08998e-05	9.44301e-06	8.79014e-10	9.44213e-06	0.244033	6307.65	0.587155	6307.07
31621.1	1.60283	0.522091	1.68571	-18.0421	2.86652	0.244044	0.0262347	9.64043	0.924744	1	9	0.00548622	0.00325454	0	2.81624e-05	-0.000283041	1.09171e-05	61.4799	0.00335443	0.00160163	-0.00294737	-17.93	1.68633	1.60443	0.519144	0.564052	0.183729	0.593221	18.0421	924.744	2838.97	2985.79	-71.9579	0.0000000E+000	0.0000000E+000	0.0000000E+000	71.9579	0.0000000E+000	0.0000000E+000	0.0000000E+000	-71.9579	0.0000000E+000	0.0000000E+000	0.0000000E+000	-18.0421	0.0000000E+000	0.0000000E+000	0.0000000E+000	18.0421	3.07001	71.9579	1.11789e-05	6.40242e-06	-7.4255e-09	6.40985e-06	0.244327	9302.33	10.7888	9313.12
10002.2	2.00192	0.702626	2.12165	-19.3398	4.26552	0.244034	0.0188498	22.6464	2.48372	1	9	0.00506888	0.00238913	0	2.2938e-05	0.000271148	6.04219e-06	52.759	0.00252903	0.00153049	-0.00201336	-19.2748	2.12242	2.00345	0.700612	0.444736	0.156091	0.471332	19.3398	2483.72	7076.61	7499.82	-70.6602	0.0000000E+000	0.0000000E+000	0.0000000E+000	70.6602	0.0000000E+000	0.0000000E+000	0.0000000E+000	-70.6602	0.0000000E+000	0.0000000E+000	0.0000000E+000	-19.3398	0.0000000E+000	0.0000000E+000	0.0000000E+000	19.3398	2.8492	70.6602	-1.66025e-06	4.60001e-06	5.11109e-09	4.5949e-06	0.243763	12946.2	14.3846	12931.9
3163.08	2.54296	0.997573	2.73163	-21.4195	5.59663	0.244035	0.013106	50.4389	6.72683	1	9	0.00519986	0.00190357	0	3.44116e-05	0.000156488	1.14207e-05	-65.4071	0.00599963	0.00249685	0.00545539	-21.5067	2.73595	2.54546	1.00303	0.340797	0.13369	0.366082	21.4195	6726.83	17147.7	18419.9	-68.5805	0.0000000E+000	0.0000000E+000	0.0000000E+000	68.5805	0.0000000E+000	0.0000000E+000	0.0000000E+000	-68.5805	0.0000000E+000	0.0000000E+000	0.0000000E+000	-21.4195	0.0000000E+000	0.0000000E+000	0.0000000E+000	21.4195	2.54915	68.5805	-1.63024e-06	3.19832e-06	2.05093e-09	3.19627e-06	0.243878	18620	11.9401	18608.1
1000.32	3.32511	1.50417	3.64951	-24.3404	7.40878	0.244044	0.0297012	105.775	17.9684	1	10	0.00524306	0.00143665	0	4.48288e-05	0.000271148	7.00013e-06	35.9719	0.00487254	0.00394337	-0.00286208	-24.274	3.65192	3.32906	1.50131	0.249654	0.112935	0.27401	24.3404	17968.4	39720.9	43596	-65.6596	0.0000000E+000	0.0000000E+000	0.0000000E+000	65.6596	0.0000000E+000	0.0000000E+000	0.0000000E+000	-65.6596	0.0000000E+000	0.0000000E+000	0.0000000E+000	-24.3404	0.0000000E+000	0.0000000E+000	0.0000000E+000	24.3404	2.21059	65.6596	6.34405e-06	7.2484e-06	8.0534e-09	7.24035e-06	0.243773	8216.66	9.12919	8207.53
316.316	4.56924	2.41685	5.16905	-27.8762	8.75801	0.244033	0.0276085	208.185	45.5121	1	10	0.00499458	0.000966247	0	5.50292e-05	-0.000149271	4.01341e-05	-106.618	0.0415361	-0.0118792	0.0398011	-28.327	5.17732	4.55736	2.45665	0.17101	0.0904541	0.193459	27.8762	45512.1	86044.1	97339.3	-62.1238	0.0000000E+000	0.0000000E+000	0.0000000E+000	62.1238	0.0000000E+000	0.0000000E+000	0.0000000E+000	-62.1238	0.0000000E+000	0.0000000E+000	0.0000000E+000	-27.8762	0.0000000E+000	0.0000000E+000	0.0000000E+000	27.8762	1.89057	62.1238	4.1066e-06	6.7374e-06	-4.12116e-09	6.74152e-06	0.244183	8839.05	5.40671	8844.46
100.032	6.94927	3.39449	7.73401	-26.034	10.1038	0.244043	0.025169	468.712	90.2914	1	10	0.00490518	0.000634235	0	6.43177e-05	-0.000149271	1.07972e-05	59.5075	0.017024	0.0086384	-0.0146695	-25.9083	7.73535	6.95791	3.37982	0.11618	0.0567499	0.129299	26.034	90291.4	184846	205720	-63.966	0.0000000E+000	0.0000000E+000	0.0000000E+000	63.966	0.0000000E+000	0.0000000E+000	0.0000000E+000	-63.966	0.0000000E+000	0.0000000E+000	0.0000000E+000	-26.034	0.0000000E+000	0.0000000E+000	0.0000000E+000	26.034	2.04722	63.966	3.8569e-06	6.14231e-06	-3.75701e-09	6.14607e-06	0.244192	9696.18	5.93077	9702.11
31.6296	9.96915	3.26921	10.4915	-18.156	11.4316	0.244031	0.022584	1539.16	149.45	1	10	0.00487763	0.000464912	0	7.376e-05	3.60827e-06	7.49991e-06	-44.0886	0.0161319	0.011587	0.0112241	-18.1945	10.506	9.98074	3.28044	0.0905696	0.0297008	0.0953152	18.156	149450	455732	479611	-71.844	0.0000000E+000	0.0000000E+000	0.0000000E+000	71.844	0.0000000E+000	0.0000000E+000	0.0000000E+000	-71.844	0.0000000E+000	0.0000000E+000	0.0000000E+000	-18.156	0.0000000E+000	0.0000000E+000	0.0000000E+000	18.156	3.0494	71.844	3.29475e-06	5.51119e-06	8.14891e-11	5.51111e-06	0.244028	10805.5	0.159771	10805.4
10.0032	12.1849	2.44367	12.4275	-11.3402	13.0088	0.244049	0.0255691	6510.88	251.742	1	11	0.00487293	0.000392109	0	8.4225e-05	-0.000168381	1.25717e-05	-8.08002	0.0320617	0.0317434	0.00450646	-11.3318	12.4595	12.2166	2.44817	0.0788958	0.0158225	0.0804668	11.3402	251742	1.25526e+06	1.28026e+06	-78.6598	0.0000000E+000	0.0000000E+000	0.0000000E+000	78.6598	0.0000000E+000	0.0000000E+000	0.0000000E+000	-78.6598	0.0000000E+000	0.0000000E+000	0.0000000E+000	-11.3402	0.0000000E+000	0.0000000E+000	0.0000000E+000	11.3402	4.98631	78.6598	2.63829e-06	6.24011e-06	-4.30535e-09	6.24442e-06	0.244218	9544.71	6.58535	9551.29
3.1604	13.6333	1.66111	13.7341	-6.94679	14.5255	0.244053	0.0244884	30316.6	443.48	1	11	0.0048743	0.000354904	0	9.78473e-05	-0.000397701	4.74991e-06	57.3144	0.0133836	0.00722755	-0.0112643	-6.89652	13.74	13.6405	1.64985	0.0722768	0.00880634	0.0728113	6.94679	443480	3.6398e+06	3.66672e+06	-83.0532	0.0000000E+000	0.0000000E+000	0.0000000E+000	83.0532	0.0000000E+000	0.0000000E+000	0.0000000E+000	-83.0532	0.0000000E+000	0.0000000E+000	0.0000000E+000	-6.94679	0.0000000E+000	0.0000000E+000	0.0000000E+000	6.94679	8.20735	83.0532	9.30778e-06	5.97648e-06	-9.73908e-09	5.98622e-06	0.244451	9966.05	16.2403	9982.29
1.00006	14.4752	1.16739	14.5222	-4.6108	19.12	0.244049	0.0218751	136325	880.936	1	11	0.0048777	0.000335879	0	0.000110395	3.60827e-06	2.14107e-06	-81.7304	0.00637452	0.000916858	0.00630823	-4.63531	14.5236	14.4761	1.1737	0.0686373	0.00553544	0.0688601	4.6108	880936	1.09233e+07	1.09587e+07	-85.3892	0.0000000E+000	0.0000000E+000	0.0000000E+000	85.3892	0.0000000E+000	0.0000000E+000	0.0000000E+000	-85.3892	0.0000000E+000	0.0000000E+000	0.0000000E+000	-4.6108	0.0000000E+000	0.0000000E+000	0.0000000E+000	4.6108	12.3996	85.3892	2.51319e-06	5.3386e-06	7.89313e-11	5.33852e-06	0.244045	11156.5	0.164949	11156.3
0.316193	14.9543	1.23719	15.0054	-4.72938	33.4629	0.244048	0.0111255	406847	2765.73	1	11	0.0048767	0.000324996	0	0.000187707	2.27182e-05	3.57428e-06	-20.2801	0.0109979	0.0103161	0.00381198	-4.74063	15.016	14.9646	1.241	0.0664158	0.00549467	0.0666427	4.72938	2.76573e+06	3.34302e+07	3.35444e+07	-85.2706	0.0000000E+000	0.0000000E+000	0.0000000E+000	85.2706	0.0000000E+000	0.0000000E+000	0.0000000E+000	-85.2706	0.0000000E+000	0.0000000E+000	0.0000000E+000	-4.72938	0.0000000E+000	0.0000000E+000	0.0000000E+000	4.72938	12.0873	85.2706	4.55025e-05	2.71516e-06	2.52751e-10	2.7149e-06	0.244026	21936	2.042	21933.9
0.0999041	15.6638	2.37219	15.8424	-8.61168	78.6717	0.244051	0.00666234	671565	15057.3	1	11	0.00487431	0.000307676	0	0.000395362	-7.28316e-05	1.97135e-06	2.78896	0.00640725	0.00639966	-0.000311759	-8.6071	15.8486	15.6702	2.37188	0.0624102	0.00945168	0.0631219	8.61168	1.50573e+07	9.94243e+07	1.00558e+08	-81.3883	0.0000000E+000	0.0000000E+000	0.0000000E+000	81.3883	0.0000000E+000	0.0000000E+000	0.0000000E+000	-81.3883	0.0000000E+000	0.0000000E+000	0.0000000E+000	-8.61168	0.0000000E+000	0.0000000E+000	0.0000000E+000	8.61168	6.60308	81.3883	5.83791e-05	1.62595e-06	-4.85229e-10	1.62643e-06	0.244124	36631.4	10.9318	36642.3
0.0315922	17.0387	5.16693	17.8049	-16.8698	236.322	0.24417	-0.00217846	975006	82109.6	1	12	0.00487505	0.000273804	0	3.55642e-05	3.60827e-06	3.68511e-06	38.738	0.0134589	0.0104982	-0.00842206	-16.834	17.8125	17.0492	5.15851	0.0537474	0.0162987	0.0561643	16.8698	8.21096e+07	2.70768e+08	2.82944e+08	-73.1302	0.0000000E+000	0.0000000E+000	0.0000000E+000	73.1302	0.0000000E+000	0.0000000E+000	0.0000000E+000	-73.1302	0.0000000E+000	0.0000000E+000	0.0000000E+000	-16.8698	0.0000000E+000	0.0000000E+000	0.0000000E+000	16.8698	3.29764	73.1302	-0.000268913	-5.31913e-07	-7.86046e-12	-5.31905e-07	0.244166	112084	1.65634	112082
0.0100092	20.2561	12.2382	23.6661	-31.1392	687.543	0.244035	-0.00728005	1.29929e+06	347444	1	12	0.00487928	0.000206172	0	-0.000401722	0.000137378	4.35548e-06	-18.2557	0.0211255	0.0200622	0.00661775	-31.1278	23.6867	20.2762	12.2448	0.0361662	0.0218506	0.0422545	31.1392	3.47444e+08	5.75076e+08	6.71885e+08	-58.8608	0.0000000E+000	0.0000000E+000	0.0000000E+000	58.8608	0.0000000E+000	0.0000000E+000	0.0000000E+000	-58.8608	0.0000000E+000	0.0000000E+000	0.0000000E+000	-31.1392	0.0000000E+000	0.0000000E+000	0.0000000E+000	31.1392	1.65516	58.8608	9.46649e-05	-1.77659e-06	-1.00012e-09	-1.77559e-06	0.243897	33521	18.8705	33502.2