File: txt/18702_R307_UC91_26p5_SOC50_C03.mpt
EC-Lab ASCII FILE
Nb header lines : 65

Potentio Electrochemical Impedance Spectroscopy

Run on channel : 3 (SN 65921)
User :
CE vs. WE compliance from -10 V to 10 V
Electrode connection : standard
Potential control : Ewe
Ewe ctrl range : min = -10.00 V, max = 10.00 V
Safety Limits :
	Do not start on E overload
Acquisition started on : 10/30/2025 15:43:11.205
Technique started on : 10/30/2025 15:43:13.439
Loaded Setting File :  C:\Users\Celltest\OneDrive - store-dot.com\Documents\EC-Lab\Data\@Biologic Test Protocols\cathode half cell EIS SOC50.mps
Saved on :
	File : 18702_R307_UC91_26p5_SOC50_C03.mpr
	Directory : C:\Users\Celltest\OneDrive - store-dot.com\Documents\EC-Lab\Data\Anna\
	Host : 169.254.61.224
Device : VMP-3e (SN .003165)
Address : USB
EC-LAB for windows v11.62 (software)
Internet server v27.00 (firmware)
Command interpretor v12.03 (firmware)
Electrode material :
Initial state :
Electrolyte :
Comments :
Electrode surface area : 0.001 cm²
Characteristic mass : 0.001 g
Equivalent Weight : 0.000 g/eq.
Density : 0.000 g/cm3
Volume (V) : 0.001 cm³
Record Ece
Cycle Definition : Charge/Discharge alternance
Mode                Multi sine
E (V)               0.0000
vs.                 Eoc
tE (h:m:s)          0:00:0.0000
record              0
dI                  0.000
unit dI             mA
dt (s)              0.000
fi                  1.000
unit fi             MHz
ff                  0.100
unit ff             mHz
Nd                  10
Points              per decade
spacing             Logarithmic
Va (mV)             5.0
pw                  0.10
Na                  2
corr                0
E range min (V)     -10.000
E range max (V)     10.000
I Range             Auto
Bandwidth           5
nc cycles           0
goto Ns'            0
nr cycles           0
inc. cycle          0

freq/Hz	Re(Z)/Ohm	-Im(Z)/Ohm	|Z|/Ohm	Phase(Z)/deg	time/s	<Ewe>/V	<I>/mA	Cs/µF	Cp/µF	cycle number	I Range	|Ewe|/V	|I|/A	Ns	(Q-Qo)/mA.h	<Ece>/V	|Ece|/V	Phase(Zce)/deg	|Zce|/Ohm	Re(Zce)/Ohm	-Im(Zce)/Ohm	Phase(Zwe-ce)/deg	|Zwe-ce|/Ohm	Re(Zwe-ce)/Ohm	-Im(Zwe-ce)/Ohm	Re(Y)/Ohm-1	Im(Y)/Ohm-1	|Y|/Ohm-1	Phase(Y)/deg	Re(C)/nF	Im(C)/nF	|C|/nF	Phase(C)/deg	Re(M)	Im(M)	|M|	Phase(M)/deg	Re(Permittivity)	Im(Permittivity)	|Permittivity|	Phase(Permittivity)/deg	Re(Resistivity)/Ohm.cm	Im(Resistivity)/Ohm.cm	|Resistivity|/Ohm.cm	Phase(Resistivity)/deg	Re(Conductivity)/mS/cm	Im(Conductivity)/mS/cm	|Conductivity|/mS/cm	Phase(Conductivity)/deg	Tan(Delta)	Loss Angle(Delta)/deg	dq/mA.h	Pwe/W	Pce/W	Pwe-ce/W	<Ewe-Ece>/V	Rwe/Ohm	Rce/Ohm	Rwe-ce/Ohm		Ewe-Ece/V
1.00002e+06	2.97111	2.73046	4.03521	-42.5831	2.23354	3.96925	-0.0275645	0.0582875	0.026688	1	10	0.000222822	5.52194e-05	0	-2.03513e-05	7.22374e-05	0.000188819	-66.2065	3.41943	1.37954	3.1288	-53.4052	7.29788	4.35065	5.85926	0.182468	0.167689	0.247818	42.5831	26.688	29.0401	39.4408	-47.4169	0.0000000E+000	0.0000000E+000	0.0000000E+000	47.4169	0.0000000E+000	0.0000000E+000	0.0000000E+000	-47.4169	0.0000000E+000	0.0000000E+000	0.0000000E+000	-42.5831	0.0000000E+000	0.0000000E+000	0.0000000E+000	42.5831	1.08813	47.4169	-2.03513e-05	-0.00010941	-1.99119e-09	-0.000109408	3.96917	143998	2.62067	143996
251206	1.34959	0.33905	1.39153	-14.1023	4.93555	3.96881	0.00308893	1.86864	0.110936	1	9	0.00215894	0.00155149	0	-2.1484e-05	-8.05151e-05	6.00261e-05	90.6513	0.0386893	-0.000439777	-0.0386868	-12.5512	1.38218	1.34915	0.300363	0.696978	0.175098	0.718636	14.1023	110.936	441.579	455.301	-75.8977	0.0000000E+000	0.0000000E+000	0.0000000E+000	75.8977	0.0000000E+000	0.0000000E+000	0.0000000E+000	-75.8977	0.0000000E+000	0.0000000E+000	0.0000000E+000	-14.1023	0.0000000E+000	0.0000000E+000	0.0000000E+000	14.1023	3.9805	75.8977	-3.73536e-07	1.22594e-05	-2.48705e-10	1.22596e-05	3.96889	1.28485e+06	26.0657	1.28488e+06
63093.8	1.80292	1.25336	2.19578	-34.8063	7.60556	3.96876	0.00290251	2.01261	0.655741	1	9	0.00571355	0.00260206	0	-1.04025e-05	-0.000118703	1.95979e-05	41.6658	0.00753167	0.00562642	-0.00500693	-34.6154	2.19755	1.80855	1.24835	0.373939	0.259955	0.45542	34.8063	655.741	943.266	1148.8	-55.1937	0.0000000E+000	0.0000000E+000	0.0000000E+000	55.1937	0.0000000E+000	0.0000000E+000	0.0000000E+000	-55.1937	0.0000000E+000	0.0000000E+000	0.0000000E+000	-34.8063	0.0000000E+000	0.0000000E+000	0.0000000E+000	34.8063	1.43847	55.1937	3.56416e-06	1.15194e-05	-3.44537e-10	1.15197e-05	3.96888	1.36736e+06	40.8967	1.3674e+06
15847.7	3.41041	2.51503	4.23749	-36.4072	10.2775	3.96877	-0.00381039	3.9931	1.40663	1	9	0.00542354	0.00127989	0	-1.51206e-05	-4.23269e-05	3.68568e-06	-94.709	0.00287968	-0.000236406	0.00286996	-36.4403	4.239	3.41018	2.5179	0.189928	0.140064	0.235989	36.4072	1406.63	1907.41	2369.99	-53.5928	0.0000000E+000	0.0000000E+000	0.0000000E+000	53.5928	0.0000000E+000	0.0000000E+000	0.0000000E+000	-53.5928	0.0000000E+000	0.0000000E+000	0.0000000E+000	-36.4072	0.0000000E+000	0.0000000E+000	0.0000000E+000	36.4072	1.35601	53.5928	2.34921e-07	-1.51226e-05	1.61282e-10	-1.51227e-05	3.96881	1.04156e+06	11.1083	1.04158e+06
3983.6	6.06873	3.47564	6.99353	-29.8003	12.5271	3.96872	-0.0410183	11.495	2.83913	1	10	0.00489364	0.000699739	0	-3.67494e-05	-0.000347832	8.0495e-06	-32.5368	0.0115036	0.00969805	0.0061871	-29.8048	7.00502	6.07842	3.48182	0.124081	0.0710626	0.142989	29.8003	2839.13	4957.34	5712.78	-60.1997	0.0000000E+000	0.0000000E+000	0.0000000E+000	60.1997	0.0000000E+000	0.0000000E+000	0.0000000E+000	-60.1997	0.0000000E+000	0.0000000E+000	0.0000000E+000	-29.8003	0.0000000E+000	0.0000000E+000	0.0000000E+000	29.8003	1.74608	60.1997	-2.7043e-06	-0.00016279	1.42675e-08	-0.000162805	3.96907	96754.8	8.47991	96763.3
1000.32	9.43778	4.77172	10.5755	-26.8211	15.1558	3.96868	-0.0345786	33.3431	6.78821	1	10	0.00454662	0.000429921	0	-6.20324e-05	-9.96091e-05	9.09867e-06	80.1062	0.0211636	0.00363637	-0.0208488	-26.7113	10.5693	9.44141	4.75087	0.0843857	0.0426652	0.0945583	26.8211	6788.21	13426.1	15044.6	-63.1789	0.0000000E+000	0.0000000E+000	0.0000000E+000	63.1789	0.0000000E+000	0.0000000E+000	0.0000000E+000	-63.1789	0.0000000E+000	0.0000000E+000	0.0000000E+000	-26.8211	0.0000000E+000	0.0000000E+000	0.0000000E+000	26.8211	1.97786	63.1789	-4.40564e-06	-0.000137231	3.44434e-09	-0.000137235	3.96878	114773	2.88066	114776
251.044	14.9675	5.86761	16.0766	-21.4063	18.071	3.96867	-0.0345748	108.046	14.3928	1	10	0.00499699	0.000310824	0	-9.01626e-05	-0.000252362	3.47166e-05	18.1308	0.111692	0.106146	-0.0347571	-21.1542	16.1629	15.0737	5.83285	0.0579114	0.0227025	0.0622023	21.4063	14392.8	36714.1	39434.5	-68.5937	0.0000000E+000	0.0000000E+000	0.0000000E+000	68.5937	0.0000000E+000	0.0000000E+000	0.0000000E+000	-68.5937	0.0000000E+000	0.0000000E+000	0.0000000E+000	-21.4063	0.0000000E+000	0.0000000E+000	0.0000000E+000	21.4063	2.55088	68.5937	-4.38279e-06	-0.000137216	8.72536e-09	-0.000137225	3.96892	114785	7.299	114792
63.0823	20.3869	3.76284	20.7313	-10.4575	21.0429	3.96872	-0.0336589	670.497	22.0891	1	11	0.00496928	0.0002397	0	-0.000117535	-4.13882e-06	1.04907e-05	168.069	0.0437661	-0.0428207	-0.00904776	-10.4544	20.6875	20.3441	3.75379	0.0474351	0.00875517	0.0482363	10.4575	22089.1	119678	121699	-79.5425	0.0000000E+000	0.0000000E+000	0.0000000E+000	79.5425	0.0000000E+000	0.0000000E+000	0.0000000E+000	-79.5425	0.0000000E+000	0.0000000E+000	0.0000000E+000	-10.4575	0.0000000E+000	0.0000000E+000	0.0000000E+000	10.4575	5.41796	79.5425	-6.03667e-06	-0.000133583	1.39308e-10	-0.000133583	3.96873	117910	0.122963	117910
15.8576	22.1495	1.52919	22.2022	-3.94941	23.701	3.96872	-0.0329598	6563.3	31.1353	1	11	0.00497351	0.00022401	0	-0.000143341	0.000167708	1.22377e-05	-106.073	0.0546304	-0.0151254	0.0524948	-4.08732	22.1908	22.1343	1.58168	0.0449336	0.0031022	0.0450406	3.94941	31135.3	450977	452051	-86.0506	0.0000000E+000	0.0000000E+000	0.0000000E+000	86.0506	0.0000000E+000	0.0000000E+000	0.0000000E+000	-86.0506	0.0000000E+000	0.0000000E+000	0.0000000E+000	-3.94941	0.0000000E+000	0.0000000E+000	0.0000000E+000	3.94941	14.4844	86.0506	-4.71952e-06	-0.000130808	-5.52761e-09	-0.000130802	3.96855	120411	5.08826	120406
3.97785	22.7495	0.926088	22.7683	-2.33111	26.6124	3.96873	-0.0310456	43203.5	71.4762	1	11	0.00497061	0.000218313	0	-0.000168881	0.000244084	2.69102e-06	-45.3808	0.0123265	0.00865801	0.00877387	-2.35228	22.7773	22.7582	0.934862	0.0438843	0.00178645	0.0439206	2.33111	71476.2	1.75582e+06	1.75728e+06	-87.6689	0.0000000E+000	0.0000000E+000	0.0000000E+000	87.6689	0.0000000E+000	0.0000000E+000	0.0000000E+000	-87.6689	0.0000000E+000	0.0000000E+000	0.0000000E+000	-2.33111	0.0000000E+000	0.0000000E+000	0.0000000E+000	2.33111	24.5652	87.6689	-6.57158e-06	-0.000123212	-7.57774e-09	-0.000123204	3.96849	127835	7.8621	127828
1.00469	23.579	1.00886	23.6006	-2.44999	241.425	3.9687	-0.0237615	157020	286.928	1	11	0.00503869	0.000213499	0	-0.00254507	0.000110426	4.21103e-07	-5.20291	0.00197239	0.00196426	0.000178862	-2.45022	23.6025	23.581	1.00904	0.0423331	0.00181128	0.0423719	2.44999	286928	6.70605e+06	6.71219e+06	-87.55	0.0000000E+000	0.0000000E+000	0.0000000E+000	87.55	0.0000000E+000	0.0000000E+000	0.0000000E+000	-87.55	0.0000000E+000	0.0000000E+000	0.0000000E+000	-2.44999	0.0000000E+000	0.0000000E+000	0.0000000E+000	2.44999	23.3719	87.55	-0.00233453	-9.43023e-05	-2.62388e-09	-9.42997e-05	3.96859	167022	4.64724	167018
0.251173	24.4546	1.76112	24.518	-4.11909	241.431	3.9687	-0.0237615	359797	1856.38	1	11	0.00506531	0.000206596	0	-0.00254507	0.000110426	1.63051e-07	92.9714	0.000789229	-4.09115e-05	-0.000788168	-4.11726	24.5179	24.4546	1.76033	0.0406811	0.00292968	0.0407864	4.11909	1.85638e+06	2.57774e+07	2.58441e+07	-85.8809	0.0000000E+000	0.0000000E+000	0.0000000E+000	85.8809	0.0000000E+000	0.0000000E+000	0.0000000E+000	-85.8809	0.0000000E+000	0.0000000E+000	0.0000000E+000	-4.11909	0.0000000E+000	0.0000000E+000	0.0000000E+000	4.11909	13.8858	85.8809	0.000000000000000E+000	-9.43023e-05	-2.62388e-09	-9.42997e-05	3.96859	167022	4.64724	167018
0.0602816	26.182	3.38281	26.3997	-7.36202	241.436	3.9687	-0.0237615	780473	12814.9	1	11	0.00505567	0.000191505	0	-0.00254507	0.000110426	2.88513e-07	-42.988	0.00150655	0.00110204	0.00102724	-7.36393	26.4009	26.1831	3.38384	0.037567	0.00485378	0.0378793	7.36202	1.28149e+07	9.9184e+07	1.00008e+08	-82.638	0.0000000E+000	0.0000000E+000	0.0000000E+000	82.638	0.0000000E+000	0.0000000E+000	0.0000000E+000	-82.638	0.0000000E+000	0.0000000E+000	0.0000000E+000	-7.36202	0.0000000E+000	0.0000000E+000	0.0000000E+000	7.36202	7.73974	82.638	0.000000000000000E+000	-9.43023e-05	-2.62388e-09	-9.42997e-05	3.96859	167022	4.64724	167018
0.00796479	34.6696	7.69167	35.5126	-12.5088	20330.3	3.9687	-0.00038706	2.59792e+06	121871	1	11	0.00505314	0.000142291	0	-0.0152021	7.22374e-05	8.52436e-07	-0.422133	0.00599077	0.00599061	4.41373e-05	-12.5068	35.5185	34.6756	7.69171	0.0274906	0.00609896	0.028159	12.5088	1.21871e+08	5.49326e+08	5.62683e+08	-77.4912	0.0000000E+000	0.0000000E+000	0.0000000E+000	77.4912	0.0000000E+000	0.0000000E+000	0.0000000E+000	-77.4912	0.0000000E+000	0.0000000E+000	0.0000000E+000	-12.5088	0.0000000E+000	0.0000000E+000	0.0000000E+000	12.5088	4.50743	77.4912	-0.012657	-1.53612e-06	-2.79602e-11	-1.5361e-06	3.96862	1.02534e+07	186.631	1.02532e+07
0.0019912	42.3528	10.9764	43.7521	-14.5294	20330.3	3.9687	-0.00038706	7.28193e+06	458320	1	11	0.005067	0.000115812	0	-0.0152021	7.22374e-05	6.62945e-07	-153.988	0.00572434	-0.00514447	0.00251047	-14.5343	43.7477	42.3477	10.9789	0.0221251	0.00573406	0.0228561	14.5294	4.5832e+08	1.76844e+09	1.82687e+09	-75.4706	0.0000000E+000	0.0000000E+000	0.0000000E+000	75.4706	0.0000000E+000	0.0000000E+000	0.0000000E+000	-75.4706	0.0000000E+000	0.0000000E+000	0.0000000E+000	-14.5294	0.0000000E+000	0.0000000E+000	0.0000000E+000	14.5294	3.85854	75.4706	0.000000000000000E+000	-1.53612e-06	-2.79602e-11	-1.5361e-06	3.96862	1.02534e+07	186.631	1.02532e+07
0.000497799	47.1482	17.2994	50.2217	-20.1489	20330.3	3.9687	-0.00038706	1.84814e+07	2.19287e+06	1	11	0.00506653	0.000100883	0	-0.0152021	7.22374e-05	1.06157e-06	52.8185	0.0105228	0.00635935	-0.00838374	-20.1374	50.2248	47.1546	17.291	0.0186931	0.00685879	0.0199117	20.1489	2.19287e+09	5.97651e+09	6.36611e+09	-69.8512	0.0000000E+000	0.0000000E+000	0.0000000E+000	69.8512	0.0000000E+000	0.0000000E+000	0.0000000E+000	-69.8512	0.0000000E+000	0.0000000E+000	0.0000000E+000	-20.1489	0.0000000E+000	0.0000000E+000	0.0000000E+000	20.1489	2.72543	69.8512	0.000000000000000E+000	-1.53612e-06	-2.79602e-11	-1.5361e-06	3.96862	1.02534e+07	186.631	1.02532e+07
9.95598e-05	55.4006	85.871	102.191	-57.1715	20330.3	3.9687	-0.00038706	1.86161e+07	1.31448e+07	1	11	0.0050711	4.96236e-05	0	-0.0152021	7.22374e-05	3.76031e-06	99.4118	0.0757765	-0.0123917	-0.0747565	-57.1546	102.122	55.3882	85.7962	0.00530502	0.00822279	0.00978557	57.1715	1.31448e+10	8.48053e+09	1.56431e+10	-32.8285	0.0000000E+000	0.0000000E+000	0.0000000E+000	32.8285	0.0000000E+000	0.0000000E+000	0.0000000E+000	-32.8285	0.0000000E+000	0.0000000E+000	0.0000000E+000	-57.1715	0.0000000E+000	0.0000000E+000	0.0000000E+000	57.1715	0.645161	32.8285	0.000000000000000E+000	-1.53612e-06	-2.79602e-11	-1.5361e-06	3.96862	1.02534e+07	186.631	1.02532e+07