File: txt/18704_R307_UA701_SOC00_C01.mpt
EC-Lab ASCII FILE
Nb header lines : 65

Potentio Electrochemical Impedance Spectroscopy

Run on channel : 1 (SN 66354)
User :
CE vs. WE compliance from -10 V to 10 V
Electrode connection : standard
Potential control : Ewe
Ewe ctrl range : min = -10.00 V, max = 10.00 V
Safety Limits :
	Do not start on E overload
Acquisition started on : 10/28/2025 15:29:54.782
Technique started on : 10/28/2025 15:29:56.508
Loaded Setting File :  C:\Users\Celltest\OneDrive - store-dot.com\Documents\EC-Lab\Data\@Biologic Test Protocols\anode half cell EIS SOC00.mps
Saved on :
	File : 18704_R307_UA701_SOC00_C01.mpr
	Directory : C:\Users\Celltest\OneDrive - store-dot.com\Documents\EC-Lab\Data\Anna\
	Host : 169.254.61.224
Device : VMP-3e (SN .003165)
Address : USB
EC-LAB for windows v11.62 (software)
Internet server v27.00 (firmware)
Command interpretor v12.03 (firmware)
Electrode material :
Initial state :
Electrolyte :
Comments :
Electrode surface area : 0.001 cm²
Characteristic mass : 0.001 g
Equivalent Weight : 0.000 g/eq.
Density : 0.000 g/cm3
Volume (V) : 0.001 cm³
Record Ece
Cycle Definition : Charge/Discharge alternance
Mode                Single sine
E (V)               0.0000
vs.                 Eoc
tE (h:m:s)          0:00:0.0000
record              0
dI                  0.000
unit dI             mA
dt (s)              0.000
fi                  100.000
unit fi             kHz
ff                  10.000
unit ff             mHz
Nd                  6
Points              per decade
spacing             Logarithmic
Va (mV)             5.0
pw                  0.10
Na                  2
corr                0
E range min (V)     -10.000
E range max (V)     10.000
I Range             Auto
Bandwidth           5
nc cycles           0
goto Ns'            0
nr cycles           0
inc. cycle          0

freq/Hz	Re(Z)/Ohm	-Im(Z)/Ohm	|Z|/Ohm	Phase(Z)/deg	time/s	<Ewe>/V	<I>/mA	Cs/µF	Cp/µF	cycle number	I Range	|Ewe|/V	|I|/A	Ns	(Q-Qo)/mA.h	<Ece>/V	|Ece|/V	Phase(Zce)/deg	|Zce|/Ohm	Re(Zce)/Ohm	-Im(Zce)/Ohm	Phase(Zwe-ce)/deg	|Zwe-ce|/Ohm	Re(Zwe-ce)/Ohm	-Im(Zwe-ce)/Ohm	Re(Y)/Ohm-1	Im(Y)/Ohm-1	|Y|/Ohm-1	Phase(Y)/deg	Re(C)/nF	Im(C)/nF	|C|/nF	Phase(C)/deg	Re(M)	Im(M)	|M|	Phase(M)/deg	Re(Permittivity)	Im(Permittivity)	|Permittivity|	Phase(Permittivity)/deg	Re(Resistivity)/Ohm.cm	Im(Resistivity)/Ohm.cm	|Resistivity|/Ohm.cm	Phase(Resistivity)/deg	Re(Conductivity)/mS/cm	Im(Conductivity)/mS/cm	|Conductivity|/mS/cm	Phase(Conductivity)/deg	Tan(Delta)	Loss Angle(Delta)/deg	dq/mA.h	Pwe/W	Pce/W	Pwe-ce/W	<Ewe-Ece>/V	Rwe/Ohm	Rce/Ohm	Rwe-ce/Ohm		Ewe-Ece/V
100004	1.35615	0.44133	1.42615	-18.0263	1.72556	0.244971	0.0524495	3.60612	0.34533	1	9	0.0045424	0.00318507	0	2.38747e-06	0.000135881	4.33285e-05	93.4212	0.0136036	-0.000811816	-0.0135794	-17.5159	1.42124	1.35534	0.42775	0.666768	0.216985	0.701186	18.0263	345.33	1061.15	1115.93	-71.9736	0.0000000E+000	0.0000000E+000	0.0000000E+000	71.9736	0.0000000E+000	0.0000000E+000	0.0000000E+000	-71.9736	0.0000000E+000	0.0000000E+000	0.0000000E+000	-18.0263	0.0000000E+000	0.0000000E+000	0.0000000E+000	18.0263	3.07287	71.9736	2.38747e-06	1.28486e-05	7.12689e-09	1.28415e-05	0.244835	4670.6	2.5907	4668.01
31621.1	1.72382	0.571939	1.81622	-18.3551	3.24653	0.244966	0.0567338	8.80022	0.872678	1	9	0.00519465	0.00286014	0	1.5424e-05	0.00021219	1.37966e-05	14.527	0.00482375	0.00466953	-0.00120997	-18.2727	1.82028	1.72849	0.570729	0.522581	0.173385	0.550593	18.3551	872.678	2630.24	2771.24	-71.6449	0.0000000E+000	0.0000000E+000	0.0000000E+000	71.6449	0.0000000E+000	0.0000000E+000	0.0000000E+000	-71.6449	0.0000000E+000	0.0000000E+000	0.0000000E+000	-18.3551	0.0000000E+000	0.0000000E+000	0.0000000E+000	18.3551	3.01399	71.6449	5.73393e-06	1.38979e-05	1.20383e-08	1.38858e-05	0.244754	4317.82	3.7401	4314.08
10002.2	2.16035	0.734195	2.2817	-18.7703	4.39752	0.244953	0.0569573	21.6727	2.24397	1	9	0.00490619	0.00215023	0	4.27169e-05	7.86489e-05	1.33787e-05	-66.0492	0.00622199	0.00252583	0.00568625	-18.8849	2.28593	2.16288	0.739881	0.41496	0.141024	0.438269	18.7703	2243.97	6602.83	6973.72	-71.2297	0.0000000E+000	0.0000000E+000	0.0000000E+000	71.2297	0.0000000E+000	0.0000000E+000	0.0000000E+000	-71.2297	0.0000000E+000	0.0000000E+000	0.0000000E+000	-18.7703	0.0000000E+000	0.0000000E+000	0.0000000E+000	18.7703	2.94248	71.2297	9.66193e-06	1.39519e-05	4.47963e-09	1.39474e-05	0.244874	4300.64	1.38084	4299.26
3163.08	2.71718	1.05512	2.91485	-21.222	5.29564	0.244752	0.00726	47.6877	6.24858	1	9	0.00451816	0.00155005	0	5.12992e-05	7.86489e-05	3.39823e-06	51.4965	0.00219233	0.00136486	-0.00171566	-21.1809	2.9155	2.71854	1.05341	0.319806	0.124186	0.343071	21.222	6248.58	16091.5	17262.1	-68.778	0.0000000E+000	0.0000000E+000	0.0000000E+000	68.778	0.0000000E+000	0.0000000E+000	0.0000000E+000	-68.778	0.0000000E+000	0.0000000E+000	0.0000000E+000	-21.222	0.0000000E+000	0.0000000E+000	0.0000000E+000	21.222	2.57522	68.778	2.58128e-06	1.7769e-06	5.70991e-10	1.77633e-06	0.244674	33712.4	10.8332	33701.6
1000.32	3.55456	1.59817	3.89731	-24.2092	7.10882	0.244894	-0.0228764	99.5539	16.7407	1	10	0.00503855	0.00129283	0	7.06103e-05	0.000307577	9.31182e-06	-139.981	0.00720267	-0.00551603	0.00463161	-24.3047	3.89418	3.54904	1.6028	0.234021	0.105219	0.256587	24.2092	16740.7	37233.8	40824.1	-65.7908	0.0000000E+000	0.0000000E+000	0.0000000E+000	65.7908	0.0000000E+000	0.0000000E+000	0.0000000E+000	-65.7908	0.0000000E+000	0.0000000E+000	0.0000000E+000	-24.2092	0.0000000E+000	0.0000000E+000	0.0000000E+000	24.2092	2.22414	65.7908	-2.28807e-06	-5.60229e-06	-7.03624e-09	-5.59526e-06	0.244587	10705.1	13.4452	10691.7
316.316	4.8527	2.52385	5.46978	-27.4786	8.45809	0.244889	-0.0236292	199.359	42.4447	1	10	0.00494614	0.000904267	0	6.14576e-05	2.1417e-05	3.06274e-05	-7.83378	0.0338699	0.0335538	0.00461645	-27.36	5.50169	4.88625	2.52847	0.162197	0.0843576	0.182823	27.4786	42444.7	81609.8	91987.6	-62.5214	0.0000000E+000	0.0000000E+000	0.0000000E+000	62.5214	0.0000000E+000	0.0000000E+000	0.0000000E+000	-62.5214	0.0000000E+000	0.0000000E+000	0.0000000E+000	-27.4786	0.0000000E+000	0.0000000E+000	0.0000000E+000	27.4786	1.92273	62.5214	-2.32333e-06	-5.78654e-06	-5.06066e-10	-5.78604e-06	0.244868	10363.8	0.906375	10362.9
100.032	7.32934	3.62407	8.17637	-26.3106	9.80578	0.244879	-0.0229621	439.021	86.2494	1	10	0.00495033	0.000605443	0	5.36313e-05	0.000135881	1.52044e-05	-38.6352	0.0251128	0.0196165	0.0156794	-26.348	8.20091	7.34896	3.63975	0.109634	0.0542094	0.122304	26.3106	86249.4	174431	194590	-63.6894	0.0000000E+000	0.0000000E+000	0.0000000E+000	63.6894	0.0000000E+000	0.0000000E+000	0.0000000E+000	-63.6894	0.0000000E+000	0.0000000E+000	0.0000000E+000	-26.3106	0.0000000E+000	0.0000000E+000	0.0000000E+000	26.3106	2.02241	63.6894	-2.82538e-06	-5.62294e-06	-3.12011e-09	-5.61982e-06	0.244743	10664.5	5.91761	10658.6
31.6296	10.5983	3.63992	11.2059	-18.9547	11.1346	0.244883	-0.0265959	1382.41	145.856	1	10	0.00493337	0.000440247	0	4.60697e-05	9.77262e-05	2.93619e-06	23.7311	0.00666942	0.00610548	-0.00268407	-18.9316	11.2108	10.6044	3.63723	0.0843996	0.0289865	0.0892385	18.9547	145856	424685	449034	-71.0453	0.0000000E+000	0.0000000E+000	0.0000000E+000	71.0453	0.0000000E+000	0.0000000E+000	0.0000000E+000	-71.0453	0.0000000E+000	0.0000000E+000	0.0000000E+000	-18.9547	0.0000000E+000	0.0000000E+000	0.0000000E+000	18.9547	2.91169	71.0453	-2.02035e-06	-6.51288e-06	-2.59912e-09	-6.51028e-06	0.244785	9207.54	3.67448	9203.87
10.0032	13.19	2.78648	13.4811	-11.9288	12.7118	0.244931	-0.0128814	5709.85	243.942	1	11	0.00494292	0.000366656	0	3.82875e-05	9.77262e-05	1.76086e-05	-13.2305	0.0480249	0.0467502	0.0109914	-11.9334	13.5291	13.2367	2.79747	0.0725761	0.0153323	0.074178	11.9288	243942	1.15472e+06	1.1802e+06	-78.0712	0.0000000E+000	0.0000000E+000	0.0000000E+000	78.0712	0.0000000E+000	0.0000000E+000	0.0000000E+000	-78.0712	0.0000000E+000	0.0000000E+000	0.0000000E+000	-11.9288	0.0000000E+000	0.0000000E+000	0.0000000E+000	11.9288	4.73356	78.0712	-3.37173e-06	-3.15506e-06	-1.25885e-09	-3.1538e-06	0.244834	19014.3	7.5866	19006.7
3.1604	14.8642	1.99383	14.9973	-7.63983	14.2295	0.244937	-0.0117399	25257.5	446.414	1	11	0.00493777	0.000329243	0	3.2707e-05	0.000250345	8.55077e-06	25.7376	0.025971	0.0233945	-0.0112779	-7.58533	15.019	14.8876	1.98255	0.0660866	0.00886461	0.0666785	7.63983	446414	3.32807e+06	3.35788e+06	-82.3602	0.0000000E+000	0.0000000E+000	0.0000000E+000	82.3602	0.0000000E+000	0.0000000E+000	0.0000000E+000	-82.3602	0.0000000E+000	0.0000000E+000	0.0000000E+000	-7.63983	0.0000000E+000	0.0000000E+000	0.0000000E+000	7.63983	7.45511	82.3602	1.25441e-06	-2.87552e-06	-2.93901e-09	-2.87258e-06	0.244686	20863.7	21.3243	20842.4
1.00006	15.8961	1.38406	15.9562	-4.97615	18.8246	0.244945	-0.00825979	114984	865.142	1	11	0.00493821	0.000309485	0	2.04322e-05	5.95716e-05	1.92159e-06	-42.5743	0.00620899	0.0045723	0.00420067	-4.98975	15.9611	15.9007	1.38826	0.0624353	0.00543619	0.0626715	4.97615	865142	9.93625e+06	9.97384e+06	-85.0238	0.0000000E+000	0.0000000E+000	0.0000000E+000	85.0238	0.0000000E+000	0.0000000E+000	0.0000000E+000	-85.0238	0.0000000E+000	0.0000000E+000	0.0000000E+000	-4.97615	0.0000000E+000	0.0000000E+000	0.0000000E+000	4.97615	11.4851	85.0238	-1.16102e-05	-2.02319e-06	-4.92049e-10	-2.0227e-06	0.244885	29655.1	7.21223	29647.9
0.316193	16.5216	1.41985	16.5825	-4.91186	34.6791	0.244941	-0.0105758	354508	2599.02	1	12	0.00493833	0.000297804	0	-4.90777e-05	0.00021219	2.90842e-06	-23.8799	0.00976623	0.0089302	0.00395358	-4.92282	16.5917	16.5305	1.4238	0.060083	0.00516347	0.0603045	4.91186	2.59902e+06	3.02426e+07	3.03541e+07	-85.0881	0.0000000E+000	0.0000000E+000	0.0000000E+000	85.0881	0.0000000E+000	0.0000000E+000	0.0000000E+000	-85.0881	0.0000000E+000	0.0000000E+000	0.0000000E+000	-4.91186	0.0000000E+000	0.0000000E+000	0.0000000E+000	4.91186	11.6362	85.0881	-1.98624e-05	-2.59044e-06	-2.24408e-09	-2.5882e-06	0.244728	23160.5	20.0637	23140.4
0.0999041	17.2559	2.5332	17.4408	-8.35148	79.888	0.244936	-0.00774511	628880	13267	1	12	0.00493685	0.000283063	0	-1.41924e-05	-1.67377e-05	2.11348e-06	-8.42932	0.00746647	0.00738582	0.0010945	-8.35151	17.4483	17.2633	2.53429	0.0567287	0.00832788	0.0573367	8.35148	1.3267e+07	9.03732e+07	9.13418e+07	-81.6485	0.0000000E+000	0.0000000E+000	0.0000000E+000	81.6485	0.0000000E+000	0.0000000E+000	0.0000000E+000	-81.6485	0.0000000E+000	0.0000000E+000	0.0000000E+000	-8.35148	0.0000000E+000	0.0000000E+000	0.0000000E+000	8.35148	6.8119	81.6485	2.40021e-05	-1.89706e-06	1.29635e-10	-1.89719e-06	0.244953	31624.6	2.16106	31626.8
0.0315922	18.817	5.63732	19.6433	-16.6776	222.772	0.244936	-0.00618059	893650	73601.4	1	12	0.00493816	0.000251392	0	-0.000417003	-1.67377e-05	2.525e-06	-7.79094	0.0100441	0.00995136	0.00136156	-16.673	19.6532	18.8269	5.63868	0.0487666	0.0146099	0.0509081	16.6776	7.36014e+07	2.45676e+08	2.56464e+08	-73.3224	0.0000000E+000	0.0000000E+000	0.0000000E+000	73.3224	0.0000000E+000	0.0000000E+000	0.0000000E+000	-73.3224	0.0000000E+000	0.0000000E+000	0.0000000E+000	-16.6776	0.0000000E+000	0.0000000E+000	0.0000000E+000	16.6776	3.33792	73.3224	-0.000295899	-1.51385e-06	1.03449e-10	-1.51396e-06	0.244953	39629.9	2.7081	39632.7
0.0100092	22.6064	12.9931	26.0743	-29.8882	673.993	0.244935	-0.00969595	1.2238e+06	303884	1	12	0.00493733	0.000189356	0	-0.00215096	4.04943e-05	2.55296e-06	-24.221	0.0134823	0.0122955	0.00553123	-29.8853	26.0877	22.6187	12.9986	0.0332511	0.0191111	0.0383519	29.8882	3.03884e+08	5.28723e+08	6.09831e+08	-60.1118	0.0000000E+000	0.0000000E+000	0.0000000E+000	60.1118	0.0000000E+000	0.0000000E+000	0.0000000E+000	-60.1118	0.0000000E+000	0.0000000E+000	0.0000000E+000	-29.8882	0.0000000E+000	0.0000000E+000	0.0000000E+000	29.8882	1.73988	60.1118	-0.000564107	-2.37487e-06	-3.9263e-10	-2.37448e-06	0.244894	25261.5	4.17641	25257.4