File: txt/18703_R307_UC91_26p5_SOC50_C04.mpt
EC-Lab ASCII FILE
Nb header lines : 65

Potentio Electrochemical Impedance Spectroscopy

Run on channel : 4 (SN 66756)
User :
CE vs. WE compliance from -10 V to 10 V
Electrode connection : standard
Potential control : Ewe
Ewe ctrl range : min = -10.00 V, max = 10.00 V
Safety Limits :
	Do not start on E overload
Acquisition started on : 10/30/2025 15:43:20.131
Technique started on : 10/30/2025 15:43:22.366
Loaded Setting File :  C:\Users\Celltest\OneDrive - store-dot.com\Documents\EC-Lab\Data\@Biologic Test Protocols\cathode half cell EIS SOC50.mps
Saved on :
	File : 18703_R307_UC91_26p5_SOC50_C04.mpr
	Directory : C:\Users\Celltest\OneDrive - store-dot.com\Documents\EC-Lab\Data\Anna\
	Host : 169.254.61.224
Device : VMP-3e (SN .003165)
Address : USB
EC-LAB for windows v11.62 (software)
Internet server v27.00 (firmware)
Command interpretor v12.03 (firmware)
Electrode material :
Initial state :
Electrolyte :
Comments :
Electrode surface area : 0.001 cm²
Characteristic mass : 0.001 g
Equivalent Weight : 0.000 g/eq.
Density : 0.000 g/cm3
Volume (V) : 0.001 cm³
Record Ece
Cycle Definition : Charge/Discharge alternance
Mode                Multi sine
E (V)               0.0000
vs.                 Eoc
tE (h:m:s)          0:00:0.0000
record              0
dI                  0.000
unit dI             mA
dt (s)              0.000
fi                  1.000
unit fi             MHz
ff                  0.100
unit ff             mHz
Nd                  10
Points              per decade
spacing             Logarithmic
Va (mV)             5.0
pw                  0.10
Na                  2
corr                0
E range min (V)     -10.000
E range max (V)     10.000
I Range             Auto
Bandwidth           5
nc cycles           0
goto Ns'            0
nr cycles           0
inc. cycle          0

freq/Hz	Re(Z)/Ohm	-Im(Z)/Ohm	|Z|/Ohm	Phase(Z)/deg	time/s	<Ewe>/V	<I>/mA	Cs/µF	Cp/µF	cycle number	I Range	|Ewe|/V	|I|/A	Ns	(Q-Qo)/mA.h	<Ece>/V	|Ece|/V	Phase(Zce)/deg	|Zce|/Ohm	Re(Zce)/Ohm	-Im(Zce)/Ohm	Phase(Zwe-ce)/deg	|Zwe-ce|/Ohm	Re(Zwe-ce)/Ohm	-Im(Zwe-ce)/Ohm	Re(Y)/Ohm-1	Im(Y)/Ohm-1	|Y|/Ohm-1	Phase(Y)/deg	Re(C)/nF	Im(C)/nF	|C|/nF	Phase(C)/deg	Re(M)	Im(M)	|M|	Phase(M)/deg	Re(Permittivity)	Im(Permittivity)	|Permittivity|	Phase(Permittivity)/deg	Re(Resistivity)/Ohm.cm	Im(Resistivity)/Ohm.cm	|Resistivity|/Ohm.cm	Phase(Resistivity)/deg	Re(Conductivity)/mS/cm	Im(Conductivity)/mS/cm	|Conductivity|/mS/cm	Phase(Conductivity)/deg	Tan(Delta)	Loss Angle(Delta)/deg	dq/mA.h	Pwe/W	Pce/W	Pwe-ce/W	<Ewe-Ece>/V	Rwe/Ohm	Rce/Ohm	Rwe-ce/Ohm		Ewe-Ece/V
1.00002e+06	2.59701	2.6188	3.68816	-45.2394	2.23457	3.97915	0.015948	0.060773	0.0306404	1	10	0.00022233	6.02822e-05	0	-2.50627e-06	-3.46116e-05	0.000184766	-67.4445	3.06501	1.17567	2.83057	-55.3046	6.62787	3.77268	5.44936	0.190921	0.192523	0.271138	45.2394	30.6404	30.3854	43.1521	-44.7606	0.0000000E+000	0.0000000E+000	0.0000000E+000	44.7606	0.0000000E+000	0.0000000E+000	0.0000000E+000	-44.7606	0.0000000E+000	0.0000000E+000	0.0000000E+000	-45.2394	0.0000000E+000	0.0000000E+000	0.0000000E+000	45.2394	0.99168	44.7607	-2.50627e-06	6.34593e-05	-5.51985e-10	6.34598e-05	3.97918	249508	2.17029	249510
251206	1.75248	0.565252	1.84139	-17.8768	4.93752	3.97773	-0.0612275	1.12085	0.105619	1	9	0.00443785	0.00241006	0	-4.27524e-05	-0.000149271	5.8002e-05	77.0567	0.0240666	0.00539062	-0.0234551	-17.1299	1.83947	1.75787	0.541797	0.516849	0.166706	0.543069	17.8768	105.619	327.456	344.068	-72.1232	0.0000000E+000	0.0000000E+000	0.0000000E+000	72.1232	0.0000000E+000	0.0000000E+000	0.0000000E+000	-72.1232	0.0000000E+000	0.0000000E+000	0.0000000E+000	-17.8768	0.0000000E+000	0.0000000E+000	0.0000000E+000	17.8768	3.10036	72.1232	-9.04611e-06	-0.000243547	9.13951e-09	-0.000243556	3.97788	64966.5	2.43798	64968.9
63093.8	2.57023	1.32344	2.89095	-27.2444	7.23755	3.97763	-0.0495161	1.90603	0.399444	1	9	0.00529965	0.00183318	0	-8.90997e-05	6.09381e-05	1.28189e-05	55.5554	0.0069927	0.00395514	-0.00576669	-27.1069	2.89183	2.57419	1.31767	0.307533	0.158352	0.345907	27.2444	399.444	775.755	872.555	-62.7556	0.0000000E+000	0.0000000E+000	0.0000000E+000	62.7556	0.0000000E+000	0.0000000E+000	0.0000000E+000	-62.7556	0.0000000E+000	0.0000000E+000	0.0000000E+000	-27.2444	0.0000000E+000	0.0000000E+000	0.0000000E+000	27.2444	1.94209	62.7556	-7.86675e-06	-0.000196957	-3.01742e-09	-0.000196954	3.97757	80330.1	1.23067	80328.8
15847.7	4.03284	2.04029	4.51958	-26.8357	9.81453	3.97766	-0.0301943	4.92222	1.00311	1	10	0.00479374	0.00106066	0	-0.000125839	-5.37216e-05	1.32596e-05	-64.5622	0.0125013	0.00536968	0.0112893	-26.9325	4.52948	4.03821	2.05158	0.197431	0.099884	0.221259	26.8357	1003.11	1982.75	2222.06	-63.1643	0.0000000E+000	0.0000000E+000	0.0000000E+000	63.1643	0.0000000E+000	0.0000000E+000	0.0000000E+000	-63.1643	0.0000000E+000	0.0000000E+000	0.0000000E+000	-26.8357	0.0000000E+000	0.0000000E+000	0.0000000E+000	26.8357	1.9766	63.1643	-4.23219e-06	-0.000120102	1.62208e-09	-0.000120104	3.97771	131735	1.7792	131737
3983.6	5.94628	3.10786	6.70948	-27.5941	11.7851	3.9776	-0.0362036	12.8553	2.75822	1	10	0.00495876	0.000739068	0	-0.000143002	3.60827e-06	1.13227e-05	-22.9196	0.0153202	0.0141107	0.00596629	-27.5834	6.72475	5.96039	3.11383	0.13209	0.0690373	0.149043	27.5941	2758.22	5277.31	5954.64	-62.4059	0.0000000E+000	0.0000000E+000	0.0000000E+000	62.4059	0.0000000E+000	0.0000000E+000	0.0000000E+000	-62.4059	0.0000000E+000	0.0000000E+000	0.0000000E+000	-27.5941	0.0000000E+000	0.0000000E+000	0.0000000E+000	27.5941	1.91331	62.4059	-3.14777e-06	-0.000144004	-1.30632e-10	-0.000144004	3.9776	109868	0.099666	109867
1000.32	9.23676	5.23349	10.6164	-29.5356	14.4138	3.97758	-0.0246065	30.4011	7.3879	1	10	0.0046882	0.000441601	0	-0.000162905	-0.000340371	1.00701e-05	-47.5295	0.0228037	0.0153973	0.0168205	-29.5736	10.638	9.25215	5.25031	0.0819537	0.0464344	0.0941943	29.5356	7387.9	13039.2	14986.7	-60.4644	0.0000000E+000	0.0000000E+000	0.0000000E+000	60.4644	0.0000000E+000	0.0000000E+000	0.0000000E+000	-60.4644	0.0000000E+000	0.0000000E+000	0.0000000E+000	-29.5356	0.0000000E+000	0.0000000E+000	0.0000000E+000	29.5356	1.76493	60.4644	-2.65704e-06	-9.78742e-05	8.37534e-09	-9.78826e-05	3.97792	161647	13.8326	161661
251.044	15.7983	7.29668	17.402	-24.7905	17.1141	3.97757	-0.0246475	86.8849	15.2756	1	10	0.00461611	0.000265264	0	-0.000182111	-0.000531471	2.9506e-05	-114.901	0.111233	-0.0468341	0.100892	-25.1568	17.4021	15.7515	7.39758	0.0521692	0.0240951	0.0574648	24.7905	15275.6	33073.8	36431	-65.2095	0.0000000E+000	0.0000000E+000	0.0000000E+000	65.2095	0.0000000E+000	0.0000000E+000	0.0000000E+000	-65.2095	0.0000000E+000	0.0000000E+000	0.0000000E+000	-24.7905	0.0000000E+000	0.0000000E+000	0.0000000E+000	24.7905	2.16514	65.2095	-3.18449e-06	-9.80373e-05	1.30994e-08	-9.80503e-05	3.9781	161378	21.5628	161399
63.0823	22.4403	4.92547	22.9745	-12.3797	20.081	3.97761	-0.0181952	512.23	23.5433	1	11	0.0046062	0.000200492	0	-0.000200701	-3.46116e-05	8.8926e-06	-24.916	0.0443539	0.0402257	0.0186858	-12.4036	23.0178	22.4805	4.94416	0.0425144	0.00933158	0.0435265	12.3797	23543.3	107263	109816	-77.6203	0.0000000E+000	0.0000000E+000	0.0000000E+000	77.6203	0.0000000E+000	0.0000000E+000	0.0000000E+000	-77.6203	0.0000000E+000	0.0000000E+000	0.0000000E+000	-12.3797	0.0000000E+000	0.0000000E+000	0.0000000E+000	12.3797	4.55597	77.6203	-2.53479e-06	-7.23737e-05	6.29767e-10	-7.23743e-05	3.97765	218607	1.90224	218609
15.8576	25.0952	2.17763	25.1895	-4.95941	22.7381	3.97762	-0.0192249	4608.92	34.4453	1	11	0.00462071	0.000183438	0	-0.000213523	-5.37216e-05	7.60542e-06	-3.14321	0.0414604	0.0413981	0.00227335	-4.95643	25.2309	25.1366	2.1799	0.0395505	0.00343199	0.0396991	4.95941	34445.2	396950	398441	-85.0406	0.0000000E+000	0.0000000E+000	0.0000000E+000	85.0406	0.0000000E+000	0.0000000E+000	0.0000000E+000	-85.0406	0.0000000E+000	0.0000000E+000	0.0000000E+000	-4.95941	0.0000000E+000	0.0000000E+000	0.0000000E+000	4.95941	11.5241	85.0406	-1.61526e-06	-7.64694e-05	1.03279e-09	-7.64705e-05	3.97767	206899	2.79437	206902
3.97785	26.0112	1.18911	26.0383	-2.61748	25.6503	3.97763	-0.0159139	33647.2	70.1726	1	11	0.00461805	0.000177356	0	-0.000226884	-0.000340371	5.43096e-06	-10.6946	0.0306218	0.0300899	0.00568261	-2.62693	26.0687	26.0413	1.19479	0.0383648	0.00175386	0.0384049	2.61748	70172.6	1.53499e+06	1.53659e+06	-87.3825	0.0000000E+000	0.0000000E+000	0.0000000E+000	87.3825	0.0000000E+000	0.0000000E+000	0.0000000E+000	-87.3825	0.0000000E+000	0.0000000E+000	0.0000000E+000	-2.61748	0.0000000E+000	0.0000000E+000	0.0000000E+000	2.61748	21.8745	87.3825	-6.56824e-07	-6.32995e-05	5.41662e-09	-6.3305e-05	3.97797	249947	21.3883	249969
1.00469	27.0061	1.19133	27.0323	-2.52587	241.374	3.97759	-0.0144393	132971	258.256	1	11	0.0050644	0.000187346	0	-0.00188933	-7.28316e-05	4.54029e-07	4.19917	0.00242348	0.00241698	-0.000177457	-2.52526	27.0347	27.0085	1.19115	0.0369568	0.00163028	0.0369927	2.52587	258255	5.85438e+06	5.86007e+06	-87.4741	0.0000000E+000	0.0000000E+000	0.0000000E+000	87.4741	0.0000000E+000	0.0000000E+000	0.0000000E+000	-87.4741	0.0000000E+000	0.0000000E+000	0.0000000E+000	-2.52587	0.0000000E+000	0.0000000E+000	0.0000000E+000	2.52587	22.6689	87.4741	-0.00162917	-5.74335e-05	1.05163e-09	-5.74345e-05	3.97766	275470	5.04399	275475
0.251173	28.0888	1.97277	28.158	-4.01747	241.379	3.97759	-0.0144393	321197	1576.59	1	11	0.00509107	0.000180804	0	-0.00188933	-7.28316e-05	4.20082e-07	8.27823	0.00232342	0.00229921	-0.000334526	-4.01646	28.1603	28.0911	1.97243	0.0354266	0.00248812	0.0355139	4.01747	1.57659e+06	2.24479e+07	2.25032e+07	-85.9825	0.0000000E+000	0.0000000E+000	0.0000000E+000	85.9825	0.0000000E+000	0.0000000E+000	0.0000000E+000	-85.9825	0.0000000E+000	0.0000000E+000	0.0000000E+000	-4.01747	0.0000000E+000	0.0000000E+000	0.0000000E+000	4.01747	14.2383	85.9825	0.000000000000000E+000	-5.74335e-05	1.05163e-09	-5.74345e-05	3.97766	275470	5.04399	275475
0.0602816	30.0032	3.84945	30.2492	-7.31117	241.383	3.97759	-0.0144393	685862	11107.3	1	11	0.00508473	0.000168095	0	-0.00188933	-7.28316e-05	1.03503e-06	-9.41974	0.00615743	0.0060744	0.00100776	-7.3116	30.2553	30.0093	3.85046	0.03279	0.00420699	0.0330588	7.31117	1.11073e+07	8.65718e+07	8.72814e+07	-82.6888	0.0000000E+000	0.0000000E+000	0.0000000E+000	82.6888	0.0000000E+000	0.0000000E+000	0.0000000E+000	-82.6888	0.0000000E+000	0.0000000E+000	0.0000000E+000	-7.31117	0.0000000E+000	0.0000000E+000	0.0000000E+000	7.31117	7.79416	82.6888	0.000000000000000E+000	-5.74335e-05	1.05163e-09	-5.74345e-05	3.97766	275470	5.04399	275475
0.00796479	39.833	8.23149	40.6747	-11.6758	20330.3	3.97759	-0.000559324	2.42755e+06	99420.6	1	11	0.00507582	0.000124791	0	-0.0122245	0.000252038	3.99757e-07	-13.3902	0.00320342	0.00311633	0.000741852	-11.6759	40.6779	39.8362	8.23223	0.0240766	0.00497543	0.0245853	11.6758	9.94206e+07	4.81107e+08	4.91272e+08	-78.3242	0.0000000E+000	0.0000000E+000	0.0000000E+000	78.3242	0.0000000E+000	0.0000000E+000	0.0000000E+000	-78.3242	0.0000000E+000	0.0000000E+000	0.0000000E+000	-11.6758	0.0000000E+000	0.0000000E+000	0.0000000E+000	11.6758	4.83911	78.3242	-0.0103352	-2.22476e-06	-1.40971e-10	-2.22462e-06	3.97734	7.11142e+06	450.611	7.11097e+06
0.0019912	48.0312	11.9462	49.4945	-13.967	20330.3	3.97759	-0.000559324	6.69079e+06	389782	1	11	0.00509044	0.000102849	0	-0.0122245	0.000252038	5.3667e-07	43.4721	0.00521806	0.00378679	-0.00359003	-13.962	49.4973	48.035	11.9426	0.0196069	0.00487658	0.0202043	13.967	3.89781e+08	1.56717e+09	1.61491e+09	-76.033	0.0000000E+000	0.0000000E+000	0.0000000E+000	76.033	0.0000000E+000	0.0000000E+000	0.0000000E+000	-76.033	0.0000000E+000	0.0000000E+000	0.0000000E+000	-13.967	0.0000000E+000	0.0000000E+000	0.0000000E+000	13.967	4.02063	76.033	0.000000000000000E+000	-2.22476e-06	-1.40971e-10	-2.22462e-06	3.97734	7.11142e+06	450.611	7.11097e+06
0.000497799	53.5724	18.1737	56.571	-18.7388	20330.3	3.97759	-0.000559324	1.75923e+07	1.8156e+06	1	11	0.00509358	9.00387e-05	0	-0.0122245	0.000252038	1.96197e-06	19.6674	0.0217903	0.0205191	-0.00733374	-18.7251	56.5881	53.5929	18.1663	0.0167399	0.00567878	0.0176769	18.7388	1.8156e+09	5.35203e+09	5.65161e+09	-71.2612	0.0000000E+000	0.0000000E+000	0.0000000E+000	71.2612	0.0000000E+000	0.0000000E+000	0.0000000E+000	-71.2612	0.0000000E+000	0.0000000E+000	0.0000000E+000	-18.7388	0.0000000E+000	0.0000000E+000	0.0000000E+000	18.7388	2.9478	71.2612	0.000000000000000E+000	-2.22476e-06	-1.40971e-10	-2.22462e-06	3.97734	7.11142e+06	450.611	7.11097e+06
9.95598e-05	62.8666	86.5801	106.997	-54.0163	20330.3	3.97759	-0.000559324	1.84637e+07	1.20896e+07	1	11	0.00508869	4.75593e-05	0	-0.0122245	0.000252038	4.66252e-06	49.4909	0.0980358	0.0636811	-0.0745368	-53.9652	106.974	62.9303	86.5055	0.00549134	0.00756269	0.00934607	54.0163	1.20896e+10	8.77838e+09	1.49405e+10	-35.9837	0.0000000E+000	0.0000000E+000	0.0000000E+000	35.9837	0.0000000E+000	0.0000000E+000	0.0000000E+000	-35.9837	0.0000000E+000	0.0000000E+000	0.0000000E+000	-54.0163	0.0000000E+000	0.0000000E+000	0.0000000E+000	54.0163	0.726109	35.9837	0.000000000000000E+000	-2.22476e-06	-1.40971e-10	-2.22462e-06	3.97734	7.11142e+06	450.611	7.11097e+06