File: txt/18705_R307_UA701_SOC00_C02.mpt
EC-Lab ASCII FILE
Nb header lines : 65

Potentio Electrochemical Impedance Spectroscopy

Run on channel : 2 (SN 66139)
User :
CE vs. WE compliance from -10 V to 10 V
Electrode connection : standard
Potential control : Ewe
Ewe ctrl range : min = -10.00 V, max = 10.00 V
Safety Limits :
	Do not start on E overload
Acquisition started on : 10/28/2025 15:30:07.932
Technique started on : 10/28/2025 15:30:09.516
Loaded Setting File :  C:\Users\Celltest\OneDrive - store-dot.com\Documents\EC-Lab\Data\@Biologic Test Protocols\anode half cell EIS SOC00.mps
Saved on :
	File : 18705_R307_UA701_SOC00_C02.mpr
	Directory : C:\Users\Celltest\OneDrive - store-dot.com\Documents\EC-Lab\Data\Anna\
	Host : 169.254.61.224
Device : VMP-3e (SN .003165)
Address : USB
EC-LAB for windows v11.62 (software)
Internet server v27.00 (firmware)
Command interpretor v12.03 (firmware)
Electrode material :
Initial state :
Electrolyte :
Comments :
Electrode surface area : 0.001 cm²
Characteristic mass : 0.001 g
Equivalent Weight : 0.000 g/eq.
Density : 0.000 g/cm3
Volume (V) : 0.001 cm³
Record Ece
Cycle Definition : Charge/Discharge alternance
Mode                Single sine
E (V)               0.0000
vs.                 Eoc
tE (h:m:s)          0:00:0.0000
record              0
dI                  0.000
unit dI             mA
dt (s)              0.000
fi                  100.000
unit fi             kHz
ff                  10.000
unit ff             mHz
Nd                  6
Points              per decade
spacing             Logarithmic
Va (mV)             5.0
pw                  0.10
Na                  2
corr                0
E range min (V)     -10.000
E range max (V)     10.000
I Range             Auto
Bandwidth           5
nc cycles           0
goto Ns'            0
nr cycles           0
inc. cycle          0

freq/Hz	Re(Z)/Ohm	-Im(Z)/Ohm	|Z|/Ohm	Phase(Z)/deg	time/s	<Ewe>/V	<I>/mA	Cs/µF	Cp/µF	cycle number	I Range	|Ewe|/V	|I|/A	Ns	(Q-Qo)/mA.h	<Ece>/V	|Ece|/V	Phase(Zce)/deg	|Zce|/Ohm	Re(Zce)/Ohm	-Im(Zce)/Ohm	Phase(Zwe-ce)/deg	|Zwe-ce|/Ohm	Re(Zwe-ce)/Ohm	-Im(Zwe-ce)/Ohm	Re(Y)/Ohm-1	Im(Y)/Ohm-1	|Y|/Ohm-1	Phase(Y)/deg	Re(C)/nF	Im(C)/nF	|C|/nF	Phase(C)/deg	Re(M)	Im(M)	|M|	Phase(M)/deg	Re(Permittivity)	Im(Permittivity)	|Permittivity|	Phase(Permittivity)/deg	Re(Resistivity)/Ohm.cm	Im(Resistivity)/Ohm.cm	|Resistivity|/Ohm.cm	Phase(Resistivity)/deg	Re(Conductivity)/mS/cm	Im(Conductivity)/mS/cm	|Conductivity|/mS/cm	Phase(Conductivity)/deg	Tan(Delta)	Loss Angle(Delta)/deg	dq/mA.h	Pwe/W	Pce/W	Pwe-ce/W	<Ewe-Ece>/V	Rwe/Ohm	Rce/Ohm	Rwe-ce/Ohm		Ewe-Ece/V
100004	1.29115	0.494607	1.38264	-20.9606	1.58354	0.244339	-0.0126986	3.21769	0.41176	1	9	0.00461935	0.00334095	0	-9.33292e-06	0.000191251	2.25064e-05	64.7523	0.00673651	0.00287334	-0.00609298	-20.6823	1.38316	1.29402	0.488514	0.675393	0.258726	0.723253	20.9606	411.76	1074.88	1151.05	-69.0394	0.0000000E+000	0.0000000E+000	0.0000000E+000	69.0394	0.0000000E+000	0.0000000E+000	0.0000000E+000	-69.0394	0.0000000E+000	0.0000000E+000	0.0000000E+000	-20.9606	0.0000000E+000	0.0000000E+000	0.0000000E+000	20.9606	2.61045	69.0394	-9.33292e-06	-3.10275e-06	-2.42861e-09	-3.10032e-06	0.244147	19241.5	15.0608	19226.4
31621.1	1.7219	0.640511	1.83717	-20.4041	2.98055	0.244325	-0.00942091	7.85808	0.955143	1	9	0.00546991	0.00297735	0	-1.10325e-05	5.7615e-05	1.37949e-05	10.2518	0.00463329	0.00455932	-0.000824608	-20.3306	1.84116	1.72646	0.639686	0.510162	0.189769	0.544314	20.4041	955.143	2567.74	2739.63	-69.5959	0.0000000E+000	0.0000000E+000	0.0000000E+000	69.5959	0.0000000E+000	0.0000000E+000	0.0000000E+000	-69.5959	0.0000000E+000	0.0000000E+000	0.0000000E+000	-20.4041	0.0000000E+000	0.0000000E+000	0.0000000E+000	20.4041	2.68833	69.5959	-1.00951e-05	-2.30176e-06	-5.42786e-10	-2.30122e-06	0.244267	25934.3	6.11565	25928.2
10002.2	2.20388	0.820134	2.35153	-20.4118	4.00555	0.244325	-0.00889949	19.4017	2.35997	1	9	0.00542943	0.00230889	0	-1.55745e-05	0.000286705	6.21151e-06	-105.131	0.00269026	-0.000702222	0.00259699	-20.4771	2.35178	2.20318	0.822731	0.398553	0.148314	0.425254	20.4118	2359.97	6341.75	6766.63	-69.5882	0.0000000E+000	0.0000000E+000	0.0000000E+000	69.5882	0.0000000E+000	0.0000000E+000	0.0000000E+000	-69.5882	0.0000000E+000	0.0000000E+000	0.0000000E+000	-20.4118	0.0000000E+000	0.0000000E+000	0.0000000E+000	20.4118	2.68722	69.5882	-8.59706e-07	-2.17436e-06	-2.55153e-09	-2.17181e-06	0.244038	27453.8	32.2159	27421.6
3163.08	2.83953	1.14962	3.06343	-22.0412	4.90365	0.244189	-0.0440596	43.7679	6.16381	1	9	0.00521336	0.00170181	0	-2.37334e-05	0.000191251	9.31278e-06	-73.5186	0.00547229	0.00155251	0.00524744	-22.1211	3.06684	2.84109	1.15487	0.302575	0.122501	0.326432	22.0412	6163.81	15224.5	16424.9	-67.9588	0.0000000E+000	0.0000000E+000	0.0000000E+000	67.9588	0.0000000E+000	0.0000000E+000	0.0000000E+000	-67.9588	0.0000000E+000	0.0000000E+000	0.0000000E+000	-22.0412	0.0000000E+000	0.0000000E+000	0.0000000E+000	22.0412	2.46998	67.9588	-3.76312e-06	-1.07589e-05	-8.42645e-09	-1.07505e-05	0.243998	5542.25	4.34073	5537.91
1000.32	3.7403	1.65721	4.09099	-23.8966	6.50179	0.244251	-0.0348976	96.0074	15.7544	1	10	0.00516255	0.00126193	0	-3.66149e-05	0.00017216	7.4401e-06	0.276691	0.0058958	0.00589573	-2.84717e-05	-23.8628	4.09637	3.7462	1.65718	0.223486	0.0990194	0.24444	23.8966	15754.4	35557.5	38891.3	-66.1034	0.0000000E+000	0.0000000E+000	0.0000000E+000	66.1034	0.0000000E+000	0.0000000E+000	0.0000000E+000	-66.1034	0.0000000E+000	0.0000000E+000	0.0000000E+000	-23.8966	0.0000000E+000	0.0000000E+000	0.0000000E+000	23.8966	2.25699	66.1034	-4.83252e-06	-8.52377e-06	-6.00797e-09	-8.51776e-06	0.244079	6999.08	4.93329	6994.15
316.316	5.12073	2.48052	5.68989	-25.8459	7.852	0.244244	-0.0328599	202.841	38.5508	1	10	0.00506619	0.000890385	0	-4.76296e-05	0.000458523	3.66891e-05	-17.5734	0.0412059	0.0392828	0.0124412	-25.7866	5.73067	5.16002	2.49296	0.15817	0.0766187	0.17575	25.8459	38550.8	79583.5	88429	-64.1541	0.0000000E+000	0.0000000E+000	0.0000000E+000	64.1541	0.0000000E+000	0.0000000E+000	0.0000000E+000	-64.1541	0.0000000E+000	0.0000000E+000	0.0000000E+000	-25.8459	0.0000000E+000	0.0000000E+000	0.0000000E+000	25.8459	2.06438	64.1541	-3.21393e-06	-8.02582e-06	-1.5067e-08	-8.01075e-06	0.243785	7432.88	13.9539	7418.92
100.032	7.49328	3.411	8.23311	-24.4754	9.19877	0.244262	-0.0311612	466.444	80.0634	1	10	0.00504219	0.000612428	0	-5.93946e-05	0.000153069	6.71634e-06	-39.2314	0.0109667	0.00849482	0.00693596	-24.4948	8.24372	7.50178	3.41793	0.110546	0.0503214	0.121461	24.4754	80063.4	175883	193249	-65.5246	0.0000000E+000	0.0000000E+000	0.0000000E+000	65.5246	0.0000000E+000	0.0000000E+000	0.0000000E+000	-65.5246	0.0000000E+000	0.0000000E+000	0.0000000E+000	-24.4754	0.0000000E+000	0.0000000E+000	0.0000000E+000	24.4754	2.1968	65.5246	-3.44532e-06	-7.61151e-06	-4.76982e-09	-7.60674e-06	0.244109	7838.67	4.91217	7833.75
31.6296	10.542	3.32216	11.0531	-17.4915	10.5276	0.244248	-0.0338881	1514.63	136.83	1	10	0.0050369	0.000455701	0	-6.99215e-05	0.000305796	5.32883e-06	-131.492	0.0116937	-0.00774725	0.00875916	-17.5469	11.0483	10.5343	3.33092	0.0862892	0.0271928	0.0904725	17.4915	136830	434194	455243	-72.5085	0.0000000E+000	0.0000000E+000	0.0000000E+000	72.5085	0.0000000E+000	0.0000000E+000	0.0000000E+000	-72.5085	0.0000000E+000	0.0000000E+000	0.0000000E+000	-17.4915	0.0000000E+000	0.0000000E+000	0.0000000E+000	17.4915	3.17324	72.5085	-3.00055e-06	-8.2771e-06	-1.03628e-08	-8.26674e-06	0.243942	7207.5	9.0237	7198.47
10.0032	12.7891	2.45774	13.0231	-10.8782	12.1038	0.244279	-0.019955	6473.58	230.564	1	11	0.00504055	0.000387048	0	-8.09106e-05	-3.78392e-05	8.91397e-06	-56.8404	0.0230307	0.0125972	0.0192801	-10.951	13.0391	12.8017	2.47702	0.075407	0.0144914	0.0767868	10.8782	230564	1.19976e+06	1.22171e+06	-79.1218	0.0000000E+000	0.0000000E+000	0.0000000E+000	79.1218	0.0000000E+000	0.0000000E+000	0.0000000E+000	-79.1218	0.0000000E+000	0.0000000E+000	0.0000000E+000	-10.8782	0.0000000E+000	0.0000000E+000	0.0000000E+000	10.8782	5.20357	79.1218	-5.63607e-06	-4.87459e-06	7.55081e-10	-4.87534e-06	0.244317	12241.5	1.89623	12243.4
3.1604	14.2323	1.71106	14.3348	-6.8554	13.6204	0.244283	-0.0190814	29431.6	419.334	1	11	0.0050401	0.000351599	0	-8.73268e-05	0.000210342	6.12407e-06	60.0927	0.0174178	0.00868446	-0.0150983	-6.79137	14.3416	14.241	1.69596	0.0692615	0.00832686	0.0697603	6.8554	419334	3.48795e+06	3.51307e+06	-83.1446	0.0000000E+000	0.0000000E+000	0.0000000E+000	83.1446	0.0000000E+000	0.0000000E+000	0.0000000E+000	-83.1446	0.0000000E+000	0.0000000E+000	0.0000000E+000	-6.8554	0.0000000E+000	0.0000000E+000	0.0000000E+000	6.8554	8.31784	83.1446	1.21883e-06	-4.66127e-06	-4.01362e-09	-4.65726e-06	0.244073	12802.2	11.0234	12791.2
1.00006	15.0873	1.22543	15.137	-4.64352	18.214	0.244291	-0.0147069	129869	851.143	1	11	0.00503598	0.000332694	0	-0.000118156	0.000305796	3.02313e-06	-31.8342	0.00908681	0.00771996	0.00479295	-4.65923	15.1451	15.095	1.23022	0.0658466	0.00534823	0.0660634	4.64352	851144	1.04791e+07	1.05136e+07	-85.3565	0.0000000E+000	0.0000000E+000	0.0000000E+000	85.3565	0.0000000E+000	0.0000000E+000	0.0000000E+000	-85.3565	0.0000000E+000	0.0000000E+000	0.0000000E+000	-4.64352	0.0000000E+000	0.0000000E+000	0.0000000E+000	4.64352	12.3118	85.3565	-1.92148e-05	-3.59278e-06	-4.49732e-09	-3.58828e-06	0.243986	16610.6	20.7926	16589.8
0.316193	15.6424	1.35	15.7006	-4.93262	32.5578	0.244289	-0.0149398	372850	2756.58	1	11	0.00503917	0.000320955	0	-0.000186233	0.000191251	2.44374e-06	-1.69571	0.00761398	0.00761065	0.000225309	-4.93105	15.7082	15.65	1.35022	0.0634561	0.0054765	0.063692	4.93262	2.75658e+06	3.19405e+07	3.20592e+07	-85.0674	0.0000000E+000	0.0000000E+000	0.0000000E+000	85.0674	0.0000000E+000	0.0000000E+000	0.0000000E+000	-85.0674	0.0000000E+000	0.0000000E+000	0.0000000E+000	-4.93262	0.0000000E+000	0.0000000E+000	0.0000000E+000	4.93262	11.587	85.0674	-1.68474e-05	-3.64963e-06	-2.85725e-09	-3.64677e-06	0.244098	16351.6	12.8015	16338.8
0.0999041	16.3759	2.47122	16.5613	-8.5815	84.6278	0.244285	-0.00818333	644653	14353.5	1	12	0.00503719	0.000304154	0	-0.00019424	0.000114888	1.58365e-06	87.5158	0.00520674	0.00022568	-0.00520185	-8.56359	16.5608	16.3761	2.46601	0.0597057	0.00900992	0.0603817	8.5815	1.43535e+07	9.51158e+07	9.61927e+07	-81.4185	0.0000000E+000	0.0000000E+000	0.0000000E+000	81.4185	0.0000000E+000	0.0000000E+000	0.0000000E+000	-81.4185	0.0000000E+000	0.0000000E+000	0.0000000E+000	-8.5815	0.0000000E+000	0.0000000E+000	0.0000000E+000	8.5815	6.62666	81.4185	1.07162e-06	-1.99906e-06	-9.40163e-10	-1.99812e-06	0.24417	29851.5	14.0392	29837.4
0.0315922	17.8405	5.45749	18.6565	-17.0092	227.511	0.24428	-0.00758287	923097	78989.9	1	12	0.00503942	0.000270116	0	-0.000822304	0.000153069	3.48761e-06	20.2294	0.0129115	0.0121151	-0.00446454	-16.9852	18.6668	17.8526	5.45302	0.051256	0.0156795	0.0536006	17.0092	7.89899e+07	2.58217e+08	2.70028e+08	-72.9909	0.0000000E+000	0.0000000E+000	0.0000000E+000	72.9909	0.0000000E+000	0.0000000E+000	0.0000000E+000	-72.9909	0.0000000E+000	0.0000000E+000	0.0000000E+000	-17.0092	0.0000000E+000	0.0000000E+000	0.0000000E+000	17.0092	3.26899	72.9909	-0.000382501	-1.85235e-06	-1.1607e-09	-1.85119e-06	0.244127	32214.8	20.1862	32194.6
0.0100092	21.4305	12.8188	24.9717	-30.886	678.734	0.244266	-0.010196	1.24044e+06	326867	1	12	0.00503782	0.000201741	0	-0.00220067	0.000210342	1.49922e-06	10.5079	0.00743141	0.00730678	-0.00135528	-30.8747	24.9773	21.4378	12.8174	0.0343665	0.0205565	0.0400453	30.886	3.26867e+08	5.46459e+08	6.36757e+08	-59.114	0.0000000E+000	0.0000000E+000	0.0000000E+000	59.114	0.0000000E+000	0.0000000E+000	0.0000000E+000	-59.114	0.0000000E+000	0.0000000E+000	0.0000000E+000	-30.886	0.0000000E+000	0.0000000E+000	0.0000000E+000	30.886	1.67181	59.114	-0.000318806	-2.49054e-06	-2.14465e-09	-2.4884e-06	0.244056	23957	20.6298	23936.4