File: txt/18706_R307_UA701_SOC00_C03.mpt
EC-Lab ASCII FILE
Nb header lines : 65

Potentio Electrochemical Impedance Spectroscopy

Run on channel : 3 (SN 65921)
User :
CE vs. WE compliance from -10 V to 10 V
Electrode connection : standard
Potential control : Ewe
Ewe ctrl range : min = -10.00 V, max = 10.00 V
Safety Limits :
	Do not start on E overload
Acquisition started on : 10/28/2025 15:30:18.375
Technique started on : 10/28/2025 15:30:20.244
Loaded Setting File :  C:\Users\Celltest\OneDrive - store-dot.com\Documents\EC-Lab\Data\@Biologic Test Protocols\anode half cell EIS SOC00.mps
Saved on :
	File : 18706_R307_UA701_SOC00_C03.mpr
	Directory : C:\Users\Celltest\OneDrive - store-dot.com\Documents\EC-Lab\Data\Anna\
	Host : 169.254.61.224
Device : VMP-3e (SN .003165)
Address : USB
EC-LAB for windows v11.62 (software)
Internet server v27.00 (firmware)
Command interpretor v12.03 (firmware)
Electrode material :
Initial state :
Electrolyte :
Comments :
Electrode surface area : 0.001 cm²
Characteristic mass : 0.001 g
Equivalent Weight : 0.000 g/eq.
Density : 0.000 g/cm3
Volume (V) : 0.001 cm³
Record Ece
Cycle Definition : Charge/Discharge alternance
Mode                Single sine
E (V)               0.0000
vs.                 Eoc
tE (h:m:s)          0:00:0.0000
record              0
dI                  0.000
unit dI             mA
dt (s)              0.000
fi                  100.000
unit fi             kHz
ff                  10.000
unit ff             mHz
Nd                  6
Points              per decade
spacing             Logarithmic
Va (mV)             5.0
pw                  0.10
Na                  2
corr                0
E range min (V)     -10.000
E range max (V)     10.000
I Range             Auto
Bandwidth           5
nc cycles           0
goto Ns'            0
nr cycles           0
inc. cycle          0

freq/Hz	Re(Z)/Ohm	-Im(Z)/Ohm	|Z|/Ohm	Phase(Z)/deg	time/s	<Ewe>/V	<I>/mA	Cs/µF	Cp/µF	cycle number	I Range	|Ewe|/V	|I|/A	Ns	(Q-Qo)/mA.h	<Ece>/V	|Ece|/V	Phase(Zce)/deg	|Zce|/Ohm	Re(Zce)/Ohm	-Im(Zce)/Ohm	Phase(Zwe-ce)/deg	|Zwe-ce|/Ohm	Re(Zwe-ce)/Ohm	-Im(Zwe-ce)/Ohm	Re(Y)/Ohm-1	Im(Y)/Ohm-1	|Y|/Ohm-1	Phase(Y)/deg	Re(C)/nF	Im(C)/nF	|C|/nF	Phase(C)/deg	Re(M)	Im(M)	|M|	Phase(M)/deg	Re(Permittivity)	Im(Permittivity)	|Permittivity|	Phase(Permittivity)/deg	Re(Resistivity)/Ohm.cm	Im(Resistivity)/Ohm.cm	|Resistivity|/Ohm.cm	Phase(Resistivity)/deg	Re(Conductivity)/mS/cm	Im(Conductivity)/mS/cm	|Conductivity|/mS/cm	Phase(Conductivity)/deg	Tan(Delta)	Loss Angle(Delta)/deg	dq/mA.h	Pwe/W	Pce/W	Pwe-ce/W	<Ewe-Ece>/V	Rwe/Ohm	Rce/Ohm	Rwe-ce/Ohm		Ewe-Ece/V
100004	1.25211	0.491858	1.34525	-21.4461	1.86854	0.243877	0.00372296	3.23567	0.432551	1	9	0.00493341	0.00366728	0	-1.9022e-05	0.000110426	3.59868e-05	75.0383	0.00981294	0.00253345	-0.00948026	-21.0305	1.34418	1.25464	0.482378	0.691887	0.27179	0.743356	21.4461	432.551	1101.13	1183.04	-68.5539	0.0000000E+000	0.0000000E+000	0.0000000E+000	68.5539	0.0000000E+000	0.0000000E+000	0.0000000E+000	-68.5539	0.0000000E+000	0.0000000E+000	0.0000000E+000	-21.4461	0.0000000E+000	0.0000000E+000	0.0000000E+000	21.4461	2.54567	68.5539	-1.9022e-05	9.07946e-07	4.1111e-10	9.07534e-07	0.243767	65506.3	29.6607	65476.7
31621.1	1.65635	0.592804	1.75923	-19.6922	3.26754	0.243866	-0.000976015	8.49047	0.964067	1	9	0.00537159	0.00305337	0	-8.05677e-06	-0.000156891	1.88847e-05	54.189	0.00618487	0.00361885	-0.00501563	-19.4989	1.76096	1.65996	0.587788	0.535186	0.191542	0.56843	19.6922	964.067	2693.69	2861.01	-70.3078	0.0000000E+000	0.0000000E+000	0.0000000E+000	70.3078	0.0000000E+000	0.0000000E+000	0.0000000E+000	-70.3078	0.0000000E+000	0.0000000E+000	0.0000000E+000	-19.6922	0.0000000E+000	0.0000000E+000	0.0000000E+000	19.6922	2.79409	70.3078	-7.25093e-06	-2.38017e-07	1.53128e-10	-2.3817e-07	0.244023	249859	160.747	250020
10002.2	2.08771	0.744242	2.2164	-19.6205	4.42056	0.243865	0.0122632	21.3801	2.4107	1	9	0.00508299	0.00229336	0	-1.68167e-05	-0.000175985	2.56244e-05	38.0168	0.0111733	0.00880267	-0.00688155	-19.3772	2.2224	2.09651	0.73736	0.424986	0.151502	0.451183	19.6205	2410.7	6762.36	7179.2	-70.3795	0.0000000E+000	0.0000000E+000	0.0000000E+000	70.3795	0.0000000E+000	0.0000000E+000	0.0000000E+000	-70.3795	0.0000000E+000	0.0000000E+000	0.0000000E+000	-19.6205	0.0000000E+000	0.0000000E+000	0.0000000E+000	19.6205	2.80514	70.3795	-3.00778e-07	2.99055e-06	-2.15814e-09	2.99271e-06	0.244041	19885.9	14.3507	19900.3
3163.08	2.67097	1.04909	2.86961	-21.4436	5.31967	0.243718	-0.0436026	47.962	6.41026	1	9	0.00504933	0.00175958	0	-1.90388e-05	-0.000309644	5.53629e-06	45.9259	0.00314637	0.00218857	-0.00226048	-21.3857	2.87083	2.67316	1.04683	0.324356	0.127399	0.348479	21.4436	6410.26	16320.5	17534.2	-68.5564	0.0000000E+000	0.0000000E+000	0.0000000E+000	68.5564	0.0000000E+000	0.0000000E+000	0.0000000E+000	-68.5564	0.0000000E+000	0.0000000E+000	0.0000000E+000	-21.4436	0.0000000E+000	0.0000000E+000	0.0000000E+000	21.4436	2.54599	68.5564	-3.97021e-06	-1.06267e-05	1.35013e-08	-1.06402e-05	0.244027	5589.52	7.1015	5596.62
1000.32	3.4591	1.54557	3.78869	-24.0757	6.91881	0.243797	-0.0368345	102.942	17.1314	1	10	0.00498354	0.00131537	0	-2.34142e-05	0.000282272	9.39874e-06	1.84356	0.0071453	0.0071416	-0.000229869	-24.0285	3.79512	3.46624	1.54534	0.240982	0.107674	0.263943	24.0757	17131.4	38341.3	41994.5	-65.9243	0.0000000E+000	0.0000000E+000	0.0000000E+000	65.9243	0.0000000E+000	0.0000000E+000	0.0000000E+000	-65.9243	0.0000000E+000	0.0000000E+000	0.0000000E+000	-24.0757	0.0000000E+000	0.0000000E+000	0.0000000E+000	24.0757	2.23807	65.9243	-3.53959e-06	-8.98014e-06	-1.03974e-08	-8.96975e-06	0.243515	6618.71	7.66325	6611.05
316.316	4.73687	2.40561	5.31272	-26.9237	8.26804	0.243807	-0.0341199	209.157	42.8837	1	10	0.00487066	0.000916793	0	-3.672e-05	9.13315e-05	1.2041e-05	79.3395	0.0131339	0.00242963	-0.0129072	-26.7876	5.30905	4.7393	2.39271	0.167826	0.08523	0.188228	26.9237	42883.7	84441.9	94707.1	-63.0763	0.0000000E+000	0.0000000E+000	0.0000000E+000	63.0763	0.0000000E+000	0.0000000E+000	0.0000000E+000	-63.0763	0.0000000E+000	0.0000000E+000	0.0000000E+000	-26.9237	0.0000000E+000	0.0000000E+000	0.0000000E+000	26.9237	1.96909	63.0763	-3.43734e-06	-8.31868e-06	-3.11622e-09	-8.31557e-06	0.243716	7145.61	2.67678	7142.93
100.032	7.09948	3.36552	7.8568	-25.3634	9.6158	0.243801	-0.0327216	472.747	86.7445	1	10	0.00484519	0.000616687	0	-4.8383e-05	-6.1421e-05	8.6503e-06	-69.1388	0.0140271	0.00499512	0.0131075	-25.4341	7.86694	7.10448	3.37863	0.11501	0.0545206	0.127278	25.3634	86744.5	182985	202505	-64.6366	0.0000000E+000	0.0000000E+000	0.0000000E+000	64.6366	0.0000000E+000	0.0000000E+000	0.0000000E+000	-64.6366	0.0000000E+000	0.0000000E+000	0.0000000E+000	-25.3634	0.0000000E+000	0.0000000E+000	0.0000000E+000	25.3634	2.10947	64.6366	-3.92086e-06	-7.97755e-06	2.00979e-09	-7.97956e-06	0.243862	7450.77	1.87708	7452.65
31.6296	10.0953	3.27207	10.6124	-17.9584	10.9456	0.243789	-0.0346718	1537.81	146.193	1	10	0.00483931	0.000456007	0	-5.95298e-05	7.22374e-05	6.21188e-06	-60.3762	0.0136224	0.00673357	0.0118418	-18.008	10.6224	10.1021	3.28392	0.0896389	0.0290535	0.0942297	17.9584	146193	451049	474149	-72.0416	0.0000000E+000	0.0000000E+000	0.0000000E+000	72.0416	0.0000000E+000	0.0000000E+000	0.0000000E+000	-72.0416	0.0000000E+000	0.0000000E+000	0.0000000E+000	-17.9584	0.0000000E+000	0.0000000E+000	0.0000000E+000	17.9584	3.0853	72.0416	-3.04222e-06	-8.4526e-06	-2.5046e-09	-8.4501e-06	0.243717	7031.34	2.08346	7029.26
10.0032	12.2913	2.43397	12.53	-11.201	12.5218	0.243837	-0.024311	6536.82	246.656	1	11	0.00483994	0.000386268	0	-7.14414e-05	-9.96091e-05	5.95843e-06	56.7687	0.0154256	0.00845356	-0.012903	-11.1356	12.5358	12.2998	2.42106	0.0782882	0.0155028	0.0798084	11.201	246656	1.2456e+06	1.26978e+06	-78.799	0.0000000E+000	0.0000000E+000	0.0000000E+000	78.799	0.0000000E+000	0.0000000E+000	0.0000000E+000	-78.799	0.0000000E+000	0.0000000E+000	0.0000000E+000	-11.201	0.0000000E+000	0.0000000E+000	0.0000000E+000	11.201	5.04992	78.799	-5.89571e-06	-5.92792e-06	2.4216e-09	-5.93034e-06	0.243936	10029.9	4.09728	10034
3.1604	13.7346	1.71556	13.8413	-7.11981	14.0385	0.243831	-0.023557	29354.4	450.951	1	11	0.00484302	0.000349896	0	-8.05128e-05	5.31434e-05	5.26795e-06	60.1916	0.0150558	0.00748424	-0.0130638	-7.06234	13.8471	13.7421	1.70249	0.0716904	0.0089547	0.0722475	7.11981	450951	3.61027e+06	3.63833e+06	-82.8802	0.0000000E+000	0.0000000E+000	0.0000000E+000	82.8802	0.0000000E+000	0.0000000E+000	0.0000000E+000	-82.8802	0.0000000E+000	0.0000000E+000	0.0000000E+000	-7.11981	0.0000000E+000	0.0000000E+000	0.0000000E+000	7.11981	8.00591	82.8802	1.2598e-07	-5.74393e-06	-1.2519e-09	-5.74268e-06	0.243778	10350.7	2.25595	10348.4
1.00006	14.5968	1.20575	14.6465	-4.72213	18.6298	0.24383	-0.0185668	131988	894.505	1	11	0.00484327	0.000330678	0	-0.00011333	9.13315e-05	3.71235e-06	-29.8989	0.0112265	0.00973232	0.00559607	-4.7408	14.6566	14.6065	1.21134	0.0680441	0.0056207	0.0682758	4.72213	894505	1.08289e+07	1.08657e+07	-85.2779	0.0000000E+000	0.0000000E+000	0.0000000E+000	85.2779	0.0000000E+000	0.0000000E+000	0.0000000E+000	-85.2779	0.0000000E+000	0.0000000E+000	0.0000000E+000	-4.72213	0.0000000E+000	0.0000000E+000	0.0000000E+000	4.72213	12.106	85.2779	-2.0662e-05	-4.52715e-06	-1.69573e-09	-4.52545e-06	0.243739	13132.6	4.91908	13127.7
0.316193	15.1479	1.31522	15.2049	-4.96229	32.973	0.243831	-0.0173791	382708	2863.52	1	11	0.00484533	0.000318669	0	-0.000203612	-0.000137797	2.42078e-06	19.1965	0.00759654	0.00717415	-0.00249781	-4.95058	15.2118	15.1551	1.31273	0.0655218	0.00568896	0.0657683	4.96229	2.86352e+06	3.29802e+07	3.31043e+07	-85.0377	0.0000000E+000	0.0000000E+000	0.0000000E+000	85.0377	0.0000000E+000	0.0000000E+000	0.0000000E+000	-85.0377	0.0000000E+000	0.0000000E+000	0.0000000E+000	-4.96229	0.0000000E+000	0.0000000E+000	0.0000000E+000	4.96229	11.5174	85.0377	-2.77977e-05	-4.23757e-06	2.3948e-09	-4.23996e-06	0.243969	14030.1	7.92889	14038
0.0999041	15.8025	2.39926	15.9836	-8.6332	78.1807	0.243831	-0.0102134	663986	14961.3	1	11	0.00484468	0.000303104	0	-0.000208031	-0.000271456	2.16205e-06	26.8737	0.00713304	0.0063627	-0.00322432	-8.61836	15.9894	15.8088	2.39604	0.0618554	0.00939142	0.0625643	8.6332	1.49613e+07	9.85405e+07	9.96698e+07	-81.3668	0.0000000E+000	0.0000000E+000	0.0000000E+000	81.3668	0.0000000E+000	0.0000000E+000	0.0000000E+000	-81.3668	0.0000000E+000	0.0000000E+000	0.0000000E+000	-8.6332	0.0000000E+000	0.0000000E+000	0.0000000E+000	8.6332	6.58637	81.3668	4.92657e-06	-2.49035e-06	2.77249e-09	-2.49312e-06	0.244103	23873.7	26.5784	23900.3
0.0315922	17.2161	5.38533	18.0387	-17.3701	235.829	0.24383	-0.0078358	935465	83376.3	1	12	0.00484411	0.00026854	0	-0.00080915	0.000110426	2.02368e-06	28.4148	0.00753585	0.00662797	-0.00358595	-17.353	18.0439	17.2227	5.38175	0.0529083	0.0165502	0.0554364	17.3701	8.33763e+07	2.66541e+08	2.79277e+08	-72.6299	0.0000000E+000	0.0000000E+000	0.0000000E+000	72.6299	0.0000000E+000	0.0000000E+000	0.0000000E+000	-72.6299	0.0000000E+000	0.0000000E+000	0.0000000E+000	-17.3701	0.0000000E+000	0.0000000E+000	0.0000000E+000	17.3701	3.19684	72.6299	-0.000367343	-1.91061e-06	-8.65273e-10	-1.90974e-06	0.24372	31117.5	14.0924	31103.4
0.0100092	20.7639	12.6201	24.2983	-31.2908	687.05	0.243828	-0.0105788	1.25997e+06	339886	1	12	0.00484786	0.000199515	0	-0.00247586	-4.13882e-06	3.40338e-06	-3.88668	0.0170583	0.0170191	0.00115627	-31.2723	24.3134	20.7809	12.6212	0.0351689	0.0213753	0.0411552	31.2908	3.39886e+08	5.59217e+08	6.54406e+08	-58.7092	0.0000000E+000	0.0000000E+000	0.0000000E+000	58.7092	0.0000000E+000	0.0000000E+000	0.0000000E+000	-58.7092	0.0000000E+000	0.0000000E+000	0.0000000E+000	-31.2908	0.0000000E+000	0.0000000E+000	0.0000000E+000	31.2908	1.64531	58.7092	-0.000474115	-2.57942e-06	4.37839e-11	-2.57946e-06	0.243832	23048.7	0.391235	23049.1