File: txt/18700_R307_UC91_26p5_SOC50_C02.mpt
EC-Lab ASCII FILE
Nb header lines : 65

Potentio Electrochemical Impedance Spectroscopy

Run on channel : 2 (SN 66139)
User :
CE vs. WE compliance from -10 V to 10 V
Electrode connection : standard
Potential control : Ewe
Ewe ctrl range : min = -10.00 V, max = 10.00 V
Safety Limits :
	Do not start on E overload
Acquisition started on : 10/30/2025 15:43:03.841
Technique started on : 10/30/2025 15:43:06.076
Loaded Setting File :  C:\Users\Celltest\OneDrive - store-dot.com\Documents\EC-Lab\Data\@Biologic Test Protocols\cathode half cell EIS SOC50.mps
Saved on :
	File : 18700_R307_UC91_26p5_SOC50_C02.mpr
	Directory : C:\Users\Celltest\OneDrive - store-dot.com\Documents\EC-Lab\Data\Anna\
	Host : 169.254.61.224
Device : VMP-3e (SN .003165)
Address : USB
EC-LAB for windows v11.62 (software)
Internet server v27.00 (firmware)
Command interpretor v12.03 (firmware)
Electrode material :
Initial state :
Electrolyte :
Comments :
Electrode surface area : 0.001 cm²
Characteristic mass : 0.001 g
Equivalent Weight : 0.000 g/eq.
Density : 0.000 g/cm3
Volume (V) : 0.001 cm³
Record Ece
Cycle Definition : Charge/Discharge alternance
Mode                Multi sine
E (V)               0.0000
vs.                 Eoc
tE (h:m:s)          0:00:0.0000
record              0
dI                  0.000
unit dI             mA
dt (s)              0.000
fi                  1.000
unit fi             MHz
ff                  0.100
unit ff             mHz
Nd                  10
Points              per decade
spacing             Logarithmic
Va (mV)             5.0
pw                  0.10
Na                  2
corr                0
E range min (V)     -10.000
E range max (V)     10.000
I Range             Auto
Bandwidth           5
nc cycles           0
goto Ns'            0
nr cycles           0
inc. cycle          0

freq/Hz	Re(Z)/Ohm	-Im(Z)/Ohm	|Z|/Ohm	Phase(Z)/deg	time/s	<Ewe>/V	<I>/mA	Cs/µF	Cp/µF	cycle number	I Range	|Ewe|/V	|I|/A	Ns	(Q-Qo)/mA.h	<Ece>/V	|Ece|/V	Phase(Zce)/deg	|Zce|/Ohm	Re(Zce)/Ohm	-Im(Zce)/Ohm	Phase(Zwe-ce)/deg	|Zwe-ce|/Ohm	Re(Zwe-ce)/Ohm	-Im(Zwe-ce)/Ohm	Re(Y)/Ohm-1	Im(Y)/Ohm-1	|Y|/Ohm-1	Phase(Y)/deg	Re(C)/nF	Im(C)/nF	|C|/nF	Phase(C)/deg	Re(M)	Im(M)	|M|	Phase(M)/deg	Re(Permittivity)	Im(Permittivity)	|Permittivity|	Phase(Permittivity)/deg	Re(Resistivity)/Ohm.cm	Im(Resistivity)/Ohm.cm	|Resistivity|/Ohm.cm	Phase(Resistivity)/deg	Re(Conductivity)/mS/cm	Im(Conductivity)/mS/cm	|Conductivity|/mS/cm	Phase(Conductivity)/deg	Tan(Delta)	Loss Angle(Delta)/deg	dq/mA.h	Pwe/W	Pce/W	Pwe-ce/W	<Ewe-Ece>/V	Rwe/Ohm	Rce/Ohm	Rwe-ce/Ohm		Ewe-Ece/V
1.00002e+06	2.37349	2.87032	3.72454	-50.4123	2.23455	3.97197	-0.030893	0.0554475	0.0329304	1	10	0.000227336	6.10375e-05	0	-1.33162e-05	-0.000152384	0.000180363	-68.1508	2.95495	1.09973	2.74269	-58.2515	6.60069	3.47322	5.613	0.171097	0.206912	0.26849	50.4123	32.9304	27.2305	42.7306	-39.5877	0.0000000E+000	0.0000000E+000	0.0000000E+000	39.5877	0.0000000E+000	0.0000000E+000	0.0000000E+000	-39.5877	0.0000000E+000	0.0000000E+000	0.0000000E+000	-50.4123	0.0000000E+000	0.0000000E+000	0.0000000E+000	50.4123	0.82691	39.5877	-1.33162e-05	-0.000122706	4.70761e-09	-0.000122711	3.97212	128572	4.93265	128577
251206	1.53825	0.524339	1.62516	-18.8225	4.93756	3.97197	-0.013518	1.20831	0.125779	1	9	0.00380507	0.00234134	0	-2.33997e-05	3.42479e-07	3.01948e-05	79.8691	0.0128964	0.00226843	-0.0126953	-18.3725	1.62327	1.54052	0.511644	0.582416	0.198526	0.615322	18.8225	125.779	368.997	389.845	-71.1775	0.0000000E+000	0.0000000E+000	0.0000000E+000	71.1775	0.0000000E+000	0.0000000E+000	0.0000000E+000	-71.1775	0.0000000E+000	0.0000000E+000	0.0000000E+000	-18.8225	0.0000000E+000	0.0000000E+000	0.0000000E+000	18.8225	2.9337	71.1775	-1.07757e-06	-5.3693e-05	-4.62963e-12	-5.3693e-05	3.97197	293829	0.0253351	293829
63093.8	2.28878	1.33408	2.64921	-30.2369	7.23753	3.97183	-0.0125869	1.89083	0.479494	1	9	0.00531805	0.00200741	0	-3.04589e-05	-0.000114203	1.67516e-05	36.4345	0.00834484	0.00671373	-0.00495603	-30.0714	2.65252	2.2955	1.32912	0.326117	0.190086	0.377472	30.2369	479.494	822.633	952.176	-59.7631	0.0000000E+000	0.0000000E+000	0.0000000E+000	59.7631	0.0000000E+000	0.0000000E+000	0.0000000E+000	-59.7631	0.0000000E+000	0.0000000E+000	0.0000000E+000	-30.2369	0.0000000E+000	0.0000000E+000	0.0000000E+000	30.2369	1.71563	59.7631	-1.44705e-06	-4.99929e-05	1.43745e-09	-4.99943e-05	3.97195	315554	9.07316	315563
15847.7	3.84694	2.12966	4.39709	-28.9689	9.53552	3.97185	-0.0122889	4.71567	1.1062	1	9	0.00511416	0.00116308	0	-3.5628e-05	0.000305796	1.02918e-05	-95.9946	0.00884873	-0.00092412	0.00880034	-29.0749	4.40055	3.84602	2.13846	0.198969	0.110149	0.227423	28.9689	1106.2	1998.2	2283.96	-61.0311	0.0000000E+000	0.0000000E+000	0.0000000E+000	61.0311	0.0000000E+000	0.0000000E+000	0.0000000E+000	-61.0311	0.0000000E+000	0.0000000E+000	0.0000000E+000	-28.9689	0.0000000E+000	0.0000000E+000	0.0000000E+000	28.9689	1.80636	61.0311	-1.989e-06	-4.88097e-05	-3.7579e-09	-4.88059e-05	3.97154	323206	24.8839	323181
3983.6	5.85754	3.04314	6.60087	-27.4531	11.7851	3.97181	-0.0266388	13.1287	2.79039	1	10	0.00502878	0.000761837	0	-5.13726e-05	-3.78392e-05	5.80108e-06	-54.8862	0.0076146	0.00437994	0.00622882	-27.4835	6.60763	5.86192	3.04937	0.134435	0.0698426	0.151495	27.4531	2790.39	5371.02	6052.62	-62.547	0.0000000E+000	0.0000000E+000	0.0000000E+000	62.547	0.0000000E+000	0.0000000E+000	0.0000000E+000	-62.547	0.0000000E+000	0.0000000E+000	0.0000000E+000	-27.4531	0.0000000E+000	0.0000000E+000	0.0000000E+000	27.4531	1.92483	62.547	-2.14775e-06	-0.000105804	1.00799e-09	-0.000105805	3.97184	149099	1.42046	149100
1000.32	8.98508	4.85646	10.2136	-28.3913	14.4138	3.97177	-0.0227199	32.7613	7.40707	1	10	0.0047441	0.00046449	0	-6.799e-05	0.000153069	1.19061e-05	56.42	0.0256325	0.0141774	-0.0213548	-28.2482	10.2159	8.99926	4.8351	0.0861326	0.0465549	0.097909	28.3913	7407.07	13704	15577.7	-61.6087	0.0000000E+000	0.0000000E+000	0.0000000E+000	61.6087	0.0000000E+000	0.0000000E+000	0.0000000E+000	-61.6087	0.0000000E+000	0.0000000E+000	0.0000000E+000	-28.3913	0.0000000E+000	0.0000000E+000	0.0000000E+000	28.3913	1.85013	61.6087	-3.05755e-06	-9.02382e-05	-3.47771e-09	-9.02347e-05	3.97162	174815	6.73724	174808
251.044	14.9245	6.55806	16.3018	-23.7215	17.1141	3.97176	-0.0230998	96.6705	15.645	1	10	0.00468144	0.000287173	0	-8.5131e-05	-0.000209657	6.24118e-06	21.109	0.0217332	0.0202748	-0.00782706	-23.6677	16.3172	14.9448	6.55024	0.0561602	0.0246777	0.0613429	23.7215	15645	35604	38889.7	-66.2785	0.0000000E+000	0.0000000E+000	0.0000000E+000	66.2785	0.0000000E+000	0.0000000E+000	0.0000000E+000	-66.2785	0.0000000E+000	0.0000000E+000	0.0000000E+000	-23.7215	0.0000000E+000	0.0000000E+000	0.0000000E+000	23.7215	2.27575	66.2785	-2.60298e-06	-9.17471e-05	4.84304e-09	-9.1752e-05	3.97197	171939	9.07611	171948
63.0823	21.156	4.42629	21.6141	-11.817	20.086	3.97182	-0.0193551	569.998	23.9044	1	11	0.00467778	0.000216423	0	-0.000101845	0.000210342	1.21439e-05	-74.0578	0.0561119	0.0154121	0.0539538	-11.9485	21.6403	21.1714	4.48024	0.0452856	0.0094747	0.0462661	11.817	23904.4	114254	116728	-78.183	0.0000000E+000	0.0000000E+000	0.0000000E+000	78.183	0.0000000E+000	0.0000000E+000	0.0000000E+000	-78.183	0.0000000E+000	0.0000000E+000	0.0000000E+000	-11.817	0.0000000E+000	0.0000000E+000	0.0000000E+000	11.817	4.77963	78.183	-3.70029e-06	-7.68748e-05	-4.07118e-09	-7.68708e-05	3.97161	205208	10.8675	205197
15.8576	23.2812	2.00486	23.3673	-4.92188	22.744	3.97181	-0.0194028	5006.11	36.8509	1	11	0.00466891	0.000199805	0	-0.000114054	3.42479e-07	1.5378e-05	62.6484	0.0769651	0.0353616	-0.0683607	-4.74766	23.3968	23.3165	1.93649	0.042637	0.00367168	0.0427948	4.92188	36851	427927	429511	-85.0781	0.0000000E+000	0.0000000E+000	0.0000000E+000	85.0781	0.0000000E+000	0.0000000E+000	0.0000000E+000	-85.0781	0.0000000E+000	0.0000000E+000	0.0000000E+000	-4.92188	0.0000000E+000	0.0000000E+000	0.0000000E+000	4.92188	11.6124	85.0781	-1.37318e-06	-7.70642e-05	-6.64506e-12	-7.70642e-05	3.97181	204703	0.017651	204703
3.97785	24.064	1.11685	24.0899	-2.65728	25.6564	3.97183	-0.0172947	35824.3	77.0009	1	11	0.00466852	0.000193796	0	-0.000129797	0.000458523	6.4908e-06	113.162	0.033493	-0.013174	-0.0307933	-2.58553	24.0753	24.0508	1.08606	0.0414665	0.00192453	0.0415112	2.65728	77000.8	1.65909e+06	1.66087e+06	-87.3427	0.0000000E+000	0.0000000E+000	0.0000000E+000	87.3427	0.0000000E+000	0.0000000E+000	0.0000000E+000	-87.3427	0.0000000E+000	0.0000000E+000	0.0000000E+000	-2.65728	0.0000000E+000	0.0000000E+000	0.0000000E+000	2.65728	21.5463	87.3427	-2.3167e-06	-6.86917e-05	-7.93001e-09	-6.86838e-05	3.97138	229656	26.5123	229630
1.00469	25.0617	1.16948	25.089	-2.67172	240.469	3.97177	-0.0150207	135454	294.317	1	11	0.0049782	0.000198422	0	-0.00186612	7.67059e-05	2.45868e-07	28.8911	0.00123912	0.0010849	-0.000598676	-2.67024	25.09	25.0628	1.16889	0.0398148	0.00185793	0.0398581	2.67172	294317	6.30712e+06	6.31398e+06	-87.3283	0.0000000E+000	0.0000000E+000	0.0000000E+000	87.3283	0.0000000E+000	0.0000000E+000	0.0000000E+000	-87.3283	0.0000000E+000	0.0000000E+000	0.0000000E+000	-2.67172	0.0000000E+000	0.0000000E+000	0.0000000E+000	2.67172	21.4297	87.3283	-0.00170518	-5.9659e-05	-1.15218e-09	-5.96579e-05	3.9717	264419	5.10666	264414
0.251173	26.0578	1.90226	26.1271	-4.17529	240.475	3.97177	-0.0150207	333101	1765.77	1	11	0.00500352	0.000191507	0	-0.00186612	7.67059e-05	4.0652e-07	169.484	0.00212274	-0.00208709	-0.000387437	-4.17478	26.125	26.0557	1.90188	0.0381729	0.00278669	0.0382744	4.17529	1.76577e+06	2.41881e+07	2.42524e+07	-85.8247	0.0000000E+000	0.0000000E+000	0.0000000E+000	85.8247	0.0000000E+000	0.0000000E+000	0.0000000E+000	-85.8247	0.0000000E+000	0.0000000E+000	0.0000000E+000	-4.17529	0.0000000E+000	0.0000000E+000	0.0000000E+000	4.17529	13.6983	85.8247	0.000000000000000E+000	-5.9659e-05	-1.15218e-09	-5.96579e-05	3.9717	264419	5.10666	264414
0.0602816	27.8567	3.67913	28.0986	-7.52371	240.48	3.97177	-0.0150207	717612	12303	1	11	0.00499763	0.00017786	0	-0.00186612	7.67059e-05	7.45608e-07	27.4094	0.0041921	0.0037215	-0.00192982	-7.51881	28.1021	27.8604	3.6772	0.0352825	0.00465989	0.0355889	7.52371	1.2303e+07	9.31526e+07	9.39615e+07	-82.4763	0.0000000E+000	0.0000000E+000	0.0000000E+000	82.4763	0.0000000E+000	0.0000000E+000	0.0000000E+000	-82.4763	0.0000000E+000	0.0000000E+000	0.0000000E+000	-7.52371	0.0000000E+000	0.0000000E+000	0.0000000E+000	7.52371	7.57155	82.4763	0.000000000000000E+000	-5.9659e-05	-1.15218e-09	-5.96579e-05	3.9717	264419	5.10666	264414
0.00796479	37.19	8.53289	38.1563	-12.9223	20329.4	3.97181	-0.000542934	2.3418e+06	117114	1	11	0.00499413	0.000130886	0	-0.0138965	7.67059e-05	3.3355e-07	-115.986	0.0025484	-0.0011166	0.00229076	-12.926	38.1557	37.1889	8.53518	0.0255442	0.00586088	0.026208	12.9223	1.17114e+08	5.10433e+08	5.23696e+08	-77.0777	0.0000000E+000	0.0000000E+000	0.0000000E+000	77.0777	0.0000000E+000	0.0000000E+000	0.0000000E+000	-77.0777	0.0000000E+000	0.0000000E+000	0.0000000E+000	-12.9223	0.0000000E+000	0.0000000E+000	0.0000000E+000	12.9223	4.35843	77.0777	-0.0120304	-2.15643e-06	-4.16462e-11	-2.15639e-06	3.97173	7.31545e+06	141.28	7.31531e+06
0.0019912	46.0835	12.5677	47.7665	-15.2544	20329.4	3.97181	-0.000542934	6.35992e+06	440264	1	11	0.0050066	0.000104814	0	-0.0138965	7.67059e-05	6.53662e-07	48.3976	0.00623639	0.0041407	-0.00466339	-15.2477	47.7693	46.0877	12.563	0.0201976	0.00550817	0.0209352	15.2544	4.40264e+08	1.61438e+09	1.67333e+09	-74.7456	0.0000000E+000	0.0000000E+000	0.0000000E+000	74.7456	0.0000000E+000	0.0000000E+000	0.0000000E+000	-74.7456	0.0000000E+000	0.0000000E+000	0.0000000E+000	-15.2544	0.0000000E+000	0.0000000E+000	0.0000000E+000	15.2544	3.66684	74.7456	0.000000000000000E+000	-2.15643e-06	-4.16462e-11	-2.15639e-06	3.97173	7.31545e+06	141.28	7.31531e+06
0.000497799	52.3548	18.0408	55.3759	-19.0133	20329.4	3.97181	-0.000542934	1.77219e+07	1.88096e+06	1	11	0.00501168	9.05029e-05	0	-0.0138965	7.67059e-05	1.23914e-06	67.3899	0.0136917	0.00526389	-0.0126394	-18.9992	55.3768	52.36	18.0281	0.0170732	0.0058832	0.0180584	19.0133	1.88096e+09	5.45859e+09	5.77358e+09	-70.9867	0.0000000E+000	0.0000000E+000	0.0000000E+000	70.9867	0.0000000E+000	0.0000000E+000	0.0000000E+000	-70.9867	0.0000000E+000	0.0000000E+000	0.0000000E+000	-19.0133	0.0000000E+000	0.0000000E+000	0.0000000E+000	19.0133	2.90202	70.9867	0.000000000000000E+000	-2.15643e-06	-4.16462e-11	-2.15639e-06	3.97173	7.31545e+06	141.28	7.31531e+06
9.95598e-05	61.8037	83.2705	103.7	-53.417	20329.4	3.97181	-0.000542934	1.91975e+07	1.23786e+07	1	11	0.00500487	4.8263e-05	0	-0.0138965	7.67059e-05	2.62845e-06	55.2397	0.0544609	0.0310506	-0.044742	-53.3885	103.683	61.8348	83.2257	0.00574722	0.00774344	0.00964321	53.417	1.23786e+10	9.18743e+09	1.54155e+10	-36.583	0.0000000E+000	0.0000000E+000	0.0000000E+000	36.583	0.0000000E+000	0.0000000E+000	0.0000000E+000	-36.583	0.0000000E+000	0.0000000E+000	0.0000000E+000	-53.417	0.0000000E+000	0.0000000E+000	0.0000000E+000	53.417	0.742205	36.583	0.000000000000000E+000	-2.15643e-06	-4.16462e-11	-2.15639e-06	3.97173	7.31545e+06	141.28	7.31531e+06