File: txt/18710_R307_UA701_4p95_SOC00_C08.mpt
EC-Lab ASCII FILE
Nb header lines : 65

Potentio Electrochemical Impedance Spectroscopy

Run on channel : 8 (SN 65398)
User :
CE vs. WE compliance from -10 V to 10 V
Electrode connection : standard
Potential control : Ewe
Ewe ctrl range : min = -10.00 V, max = 10.00 V
Safety Limits :
	Do not start on E overload
Acquisition started on : 10/29/2025 17:32:58.541
Technique started on : 10/29/2025 17:33:00.267
Loaded Setting File :  C:\Users\Celltest\OneDrive - store-dot.com\Documents\EC-Lab\Data\@Biologic Test Protocols\anode half cell EIS SOC00.mps
Saved on :
	File : 18710_R307_UA701_4p95_SOC00_C08.mpr
	Directory : C:\Users\Celltest\OneDrive - store-dot.com\Documents\EC-Lab\Data\Anna\
	Host : 169.254.61.224
Device : VMP-3e (SN .003165)
Address : USB
EC-LAB for windows v11.62 (software)
Internet server v27.00 (firmware)
Command interpretor v12.03 (firmware)
Electrode material :
Initial state :
Electrolyte :
Comments :
Electrode surface area : 0.001 cm²
Characteristic mass : 0.001 g
Equivalent Weight : 0.000 g/eq.
Density : 0.000 g/cm3
Volume (V) : 0.001 cm³
Record Ece
Cycle Definition : Charge/Discharge alternance
Mode                Single sine
E (V)               0.0000
vs.                 Eoc
tE (h:m:s)          0:00:0.0000
record              0
dI                  0.000
unit dI             mA
dt (s)              0.000
fi                  100.000
unit fi             kHz
ff                  10.000
unit ff             mHz
Nd                  6
Points              per decade
spacing             Logarithmic
Va (mV)             5.0
pw                  0.10
Na                  2
corr                0
E range min (V)     -10.000
E range max (V)     10.000
I Range             Auto
Bandwidth           5
nc cycles           0
goto Ns'            0
nr cycles           0
inc. cycle          0

freq/Hz	Re(Z)/Ohm	-Im(Z)/Ohm	|Z|/Ohm	Phase(Z)/deg	time/s	<Ewe>/V	<I>/mA	Cs/µF	Cp/µF	cycle number	I Range	|Ewe|/V	|I|/A	Ns	(Q-Qo)/mA.h	<Ece>/V	|Ece|/V	Phase(Zce)/deg	|Zce|/Ohm	Re(Zce)/Ohm	-Im(Zce)/Ohm	Phase(Zwe-ce)/deg	|Zwe-ce|/Ohm	Re(Zwe-ce)/Ohm	-Im(Zwe-ce)/Ohm	Re(Y)/Ohm-1	Im(Y)/Ohm-1	|Y|/Ohm-1	Phase(Y)/deg	Re(C)/nF	Im(C)/nF	|C|/nF	Phase(C)/deg	Re(M)	Im(M)	|M|	Phase(M)/deg	Re(Permittivity)	Im(Permittivity)	|Permittivity|	Phase(Permittivity)/deg	Re(Resistivity)/Ohm.cm	Im(Resistivity)/Ohm.cm	|Resistivity|/Ohm.cm	Phase(Resistivity)/deg	Re(Conductivity)/mS/cm	Im(Conductivity)/mS/cm	|Conductivity|/mS/cm	Phase(Conductivity)/deg	Tan(Delta)	Loss Angle(Delta)/deg	dq/mA.h	Pwe/W	Pce/W	Pwe-ce/W	<Ewe-Ece>/V	Rwe/Ohm	Rce/Ohm	Rwe-ce/Ohm		Ewe-Ece/V
100004	1.22137	0.446743	1.30051	-20.0911	1.72553	0.249017	-3.47834e-05	3.56243	0.420372	1	9	0.00496395	0.00381692	0	-4.40631e-06	-3.1867e-05	5.29633e-05	89.7827	0.0138759	5.26257e-05	-0.0138758	-19.5141	1.29586	1.22142	0.432867	0.722138	0.264137	0.768928	20.0911	420.372	1149.27	1223.74	-69.9089	0.0000000E+000	0.0000000E+000	0.0000000E+000	69.9089	0.0000000E+000	0.0000000E+000	0.0000000E+000	-69.9089	0.0000000E+000	0.0000000E+000	0.0000000E+000	-20.0911	0.0000000E+000	0.0000000E+000	0.0000000E+000	20.0911	2.73395	69.9089	-4.40631e-06	-8.66166e-09	1.10844e-12	-8.66277e-09	0.249049	7.15909e+06	916.157	7.16001e+06
31621.1	1.60197	0.599275	1.71039	-20.5101	3.24552	0.248999	-0.00237853	8.39878	1.03104	1	9	0.00507454	0.00296689	0	-1.92147e-05	6.35733e-05	1.43531e-05	43.6018	0.00483778	0.00350328	-0.00333633	-20.3645	1.71251	1.60548	0.595939	0.547599	0.204849	0.584661	20.5101	1031.04	2756.17	2942.7	-69.4899	0.0000000E+000	0.0000000E+000	0.0000000E+000	69.4899	0.0000000E+000	0.0000000E+000	0.0000000E+000	-69.4899	0.0000000E+000	0.0000000E+000	0.0000000E+000	-20.5101	0.0000000E+000	0.0000000E+000	0.0000000E+000	20.5101	2.67318	69.4899	-8.55964e-06	-5.92251e-07	-1.51211e-10	-5.92099e-07	0.248935	104686	26.728	104659
10002.2	2.05961	0.767325	2.19791	-20.4333	4.27256	0.249001	-0.000258014	20.7369	2.52746	1	9	0.00504079	0.00229345	0	-1.1417e-05	6.3091e-06	6.51344e-06	-54.5314	0.00284002	0.00164794	0.00231301	-20.4747	2.20026	2.06126	0.769638	0.426351	0.15884	0.454979	20.4333	2527.46	6784.08	7239.6	-69.5667	0.0000000E+000	0.0000000E+000	0.0000000E+000	69.5667	0.0000000E+000	0.0000000E+000	0.0000000E+000	-69.5667	0.0000000E+000	0.0000000E+000	0.0000000E+000	-20.4333	0.0000000E+000	0.0000000E+000	0.0000000E+000	20.4333	2.68415	69.5667	-1.3854e-06	-6.42459e-08	-1.62784e-12	-6.42443e-08	0.248995	965067	24.4525	965043
3163.08	2.65404	1.08833	2.86852	-22.2969	5.17263	0.248754	-0.0660316	46.2326	6.65512	1	9	0.00460771	0.0016063	0	-2.03088e-05	0.000101749	4.70341e-06	26.6447	0.0029281	0.00261715	-0.00131313	-22.2528	2.87045	2.65666	1.08702	0.322546	0.132265	0.348612	22.2969	6655.12	16229.4	17540.9	-67.7031	0.0000000E+000	0.0000000E+000	0.0000000E+000	67.7031	0.0000000E+000	0.0000000E+000	0.0000000E+000	-67.7031	0.0000000E+000	0.0000000E+000	0.0000000E+000	-22.2969	0.0000000E+000	0.0000000E+000	0.0000000E+000	22.2969	2.43863	67.7031	-6.62863e-06	-1.64256e-05	-6.71867e-09	-1.64189e-05	0.248652	3767.19	1.54092	3765.65
1000.32	3.50313	1.58358	3.84443	-24.3252	6.77179	0.248929	-0.0210399	100.471	17.0474	1	10	0.0045907	0.00119412	0	-1.96937e-05	0.000120837	8.80518e-06	-83.2047	0.0073738	0.000872493	0.007322	-24.4192	3.84825	3.504	1.5909	0.237024	0.107146	0.260117	24.3252	17047.4	37711.5	41385.6	-65.6748	0.0000000E+000	0.0000000E+000	0.0000000E+000	65.6748	0.0000000E+000	0.0000000E+000	0.0000000E+000	-65.6748	0.0000000E+000	0.0000000E+000	0.0000000E+000	-24.3252	0.0000000E+000	0.0000000E+000	0.0000000E+000	24.3252	2.21216	65.6748	-2.99082e-06	-5.23743e-06	-2.5424e-09	-5.23489e-06	0.248808	11831.3	5.74326	11825.6
316.316	4.81936	2.44292	5.40316	-26.8803	8.12205	0.248914	-0.0233648	205.964	42.103	1	10	0.00451586	0.000835781	0	-2.67237e-05	0.000521687	3.6813e-06	-89.4356	0.00440463	4.33906e-05	0.00440441	-26.9217	5.40519	4.81941	2.44732	0.16508	0.0836784	0.185077	26.8803	42103	83060.3	93121.8	-63.1197	0.0000000E+000	0.0000000E+000	0.0000000E+000	63.1197	0.0000000E+000	0.0000000E+000	0.0000000E+000	-63.1197	0.0000000E+000	0.0000000E+000	0.0000000E+000	-26.8803	0.0000000E+000	0.0000000E+000	0.0000000E+000	26.8803	1.97279	63.1197	-2.09126e-06	-5.81584e-06	-1.21891e-08	-5.80365e-06	0.248392	10653.4	22.3278	10631
100.032	7.21987	3.38112	7.97236	-25.0941	9.68277	0.248918	-0.0218731	470.566	84.6385	1	10	0.00487915	0.000612008	0	-3.53864e-05	-0.000146395	1.21301e-05	-25.0782	0.0198201	0.0179517	0.00840084	-25.094	7.99218	7.23782	3.38952	0.113594	0.053197	0.125433	25.0941	84638.5	180733	199570	-64.9059	0.0000000E+000	0.0000000E+000	0.0000000E+000	64.9059	0.0000000E+000	0.0000000E+000	0.0000000E+000	-64.9059	0.0000000E+000	0.0000000E+000	0.0000000E+000	-25.0941	0.0000000E+000	0.0000000E+000	0.0000000E+000	25.0941	2.13535	64.9059	-2.56466e-06	-5.44462e-06	3.20213e-09	-5.44782e-06	0.249064	11380.1	6.69293	11386.8
31.6296	10.1958	3.18913	10.6829	-17.3691	11.0125	0.24892	-0.0264636	1577.81	140.611	1	10	0.00486566	0.000455461	0	-4.27882e-05	0.000216278	8.47907e-06	31.2719	0.0186164	0.0159117	-0.0096638	-17.2942	10.6952	10.2117	3.17946	0.0893389	0.0279442	0.0936073	17.3691	140611	449540	471017	-72.6309	0.0000000E+000	0.0000000E+000	0.0000000E+000	72.6309	0.0000000E+000	0.0000000E+000	0.0000000E+000	-72.6309	0.0000000E+000	0.0000000E+000	0.0000000E+000	-17.3691	0.0000000E+000	0.0000000E+000	0.0000000E+000	17.3691	3.19705	72.6309	-2.01959e-06	-6.58731e-06	-5.72348e-09	-6.58159e-06	0.248703	9406.12	8.17265	9397.95
10.0032	12.3026	2.28622	12.5132	-10.5273	12.5888	0.248955	-0.00835816	6959.25	232.306	1	11	0.00486516	0.000388801	0	-4.98291e-05	4.44852e-05	6.95104e-06	-100.267	0.0178781	-0.00318659	0.0175919	-10.6092	12.5133	12.2994	2.30381	0.0785703	0.0146009	0.0799154	10.5273	232306	1.25008e+06	1.27149e+06	-79.4727	0.0000000E+000	0.0000000E+000	0.0000000E+000	79.4727	0.0000000E+000	0.0000000E+000	0.0000000E+000	-79.4727	0.0000000E+000	0.0000000E+000	0.0000000E+000	-10.5273	0.0000000E+000	0.0000000E+000	0.0000000E+000	10.5273	5.38119	79.4727	-3.40939e-06	-2.08081e-06	-3.71815e-10	-2.08043e-06	0.24891	29785.8	5.32237	29780.5
3.1604	13.6311	1.56139	13.7202	-6.53453	14.1044	0.248963	-0.00751188	32252.8	417.703	1	11	0.00487174	0.000355077	0	-5.22418e-05	-0.000146395	4.14778e-06	74.7842	0.0116813	0.00306582	-0.0112718	-6.48632	13.722	13.6341	1.55012	0.0724116	0.00829448	0.0728851	6.53453	417703	3.64659e+06	3.67044e+06	-83.4655	0.0000000E+000	0.0000000E+000	0.0000000E+000	83.4655	0.0000000E+000	0.0000000E+000	0.0000000E+000	-83.4655	0.0000000E+000	0.0000000E+000	0.0000000E+000	-6.53453	0.0000000E+000	0.0000000E+000	0.0000000E+000	6.53453	8.7301	83.4655	3.26386e-06	-1.87018e-06	1.0997e-09	-1.87128e-06	0.249109	33142.5	19.4885	33162
1.00006	14.4179	1.12575	14.4618	-4.4646	18.698	0.248964	-0.00452644	141368	856.625	1	11	0.00486967	0.000336726	0	-6.6463e-05	8.26613e-05	3.10825e-06	-27.4428	0.00923079	0.00819206	0.00425413	-4.47887	14.4703	14.4261	1.13001	0.0689379	0.00538268	0.0691477	4.4646	856624	1.09711e+07	1.10045e+07	-85.5354	0.0000000E+000	0.0000000E+000	0.0000000E+000	85.5354	0.0000000E+000	0.0000000E+000	0.0000000E+000	-85.5354	0.0000000E+000	0.0000000E+000	0.0000000E+000	-4.4646	0.0000000E+000	0.0000000E+000	0.0000000E+000	4.4646	12.8074	85.5354	-1.25854e-05	-1.12692e-06	-3.74161e-10	-1.12654e-06	0.248881	55002.1	18.2619	54983.8
0.316193	14.9791	1.27137	15.0329	-4.85142	33.0419	0.248965	-0.0067861	395911	2831.73	1	11	0.00487399	0.000324221	0	-0.000108221	0.00019719	3.2058e-06	4.86923	0.00988769	0.00985201	-0.000839285	-4.84506	15.0427	14.9889	1.27053	0.0662823	0.00562579	0.0665207	4.85142	2.83173e+06	3.3363e+07	3.3483e+07	-85.1486	0.0000000E+000	0.0000000E+000	0.0000000E+000	85.1486	0.0000000E+000	0.0000000E+000	0.0000000E+000	-85.1486	0.0000000E+000	0.0000000E+000	0.0000000E+000	-4.85142	0.0000000E+000	0.0000000E+000	0.0000000E+000	4.85142	11.7819	85.1486	-7.16163e-06	-1.6895e-06	-1.33815e-09	-1.68816e-06	0.248768	36687.5	29.0579	36658.5
0.0999041	15.7767	2.3727	15.9541	-8.55279	78.25	0.248968	-0.00271419	671419	14850.3	1	11	0.00487222	0.00030539	0	-7.84584e-06	4.44852e-05	3.92328e-06	9.48943	0.0128468	0.012671	-0.002118	-8.53851	15.9663	15.7893	2.37058	0.0619828	0.00932179	0.0626799	8.55279	1.48503e+07	9.87434e+07	9.98538e+07	-81.4472	0.0000000E+000	0.0000000E+000	0.0000000E+000	81.4472	0.0000000E+000	0.0000000E+000	0.0000000E+000	-81.4472	0.0000000E+000	0.0000000E+000	0.0000000E+000	-8.55279	0.0000000E+000	0.0000000E+000	0.0000000E+000	8.55279	6.64924	81.4472	4.7755e-05	-6.75747e-07	-1.20741e-10	-6.75626e-07	0.248924	91728.4	16.3899	91712
0.0315922	17.385	5.37379	18.1966	-17.1766	235.902	0.248963	-0.00172381	937474	81760	1	12	0.00487187	0.000267735	0	-0.000350453	0.000159014	3.16394e-06	14.2067	0.0118174	0.011456	-0.00290024	-17.1573	18.2067	17.3965	5.37089	0.0525042	0.0162293	0.0549553	17.1766	8.176e+07	2.64505e+08	2.76853e+08	-72.8234	0.0000000E+000	0.0000000E+000	0.0000000E+000	72.8234	0.0000000E+000	0.0000000E+000	0.0000000E+000	-72.8234	0.0000000E+000	0.0000000E+000	0.0000000E+000	-17.1766	0.0000000E+000	0.0000000E+000	0.0000000E+000	17.1766	3.23515	72.8234	-0.000257885	-4.29166e-07	-2.74109e-10	-4.28892e-07	0.248804	144426	92.2453	144334
0.0100092	20.8604	12.7992	24.474	-31.5318	687.125	0.248961	-0.00380812	1.24234e+06	339778	1	12	0.00486904	0.000198948	0	-0.0011825	0.00019719	1.74587e-06	33.0752	0.0087755	0.00735347	-0.00478913	-31.5132	24.4777	20.8677	12.7944	0.0348268	0.0213685	0.0408598	31.5318	3.39778e+08	5.53778e+08	6.49707e+08	-58.4682	0.0000000E+000	0.0000000E+000	0.0000000E+000	58.4682	0.0000000E+000	0.0000000E+000	0.0000000E+000	-58.4682	0.0000000E+000	0.0000000E+000	0.0000000E+000	-31.5318	0.0000000E+000	0.0000000E+000	0.0000000E+000	31.5318	1.62982	58.4682	-6.88959e-05	-9.48071e-07	-7.50922e-10	-9.4732e-07	0.248763	65376.2	51.7814	65324.5