File: txt/18712_R307_UA701_SOC00_C07.mpt
EC-Lab ASCII FILE
Nb header lines : 65

Potentio Electrochemical Impedance Spectroscopy

Run on channel : 7 (SN 66126)
User :
CE vs. WE compliance from -10 V to 10 V
Electrode connection : standard
Potential control : Ewe
Ewe ctrl range : min = -10.00 V, max = 10.00 V
Safety Limits :
	Do not start on E overload
Acquisition started on : 10/28/2025 15:31:01.789
Technique started on : 10/28/2025 15:31:03.843
Loaded Setting File :  C:\Users\Celltest\OneDrive - store-dot.com\Documents\EC-Lab\Data\@Biologic Test Protocols\anode half cell EIS SOC00.mps
Saved on :
	File : 18712_R307_UA701_SOC00_C07.mpr
	Directory : C:\Users\Celltest\OneDrive - store-dot.com\Documents\EC-Lab\Data\Anna\
	Host : 169.254.61.224
Device : VMP-3e (SN .003165)
Address : USB
EC-LAB for windows v11.62 (software)
Internet server v27.00 (firmware)
Command interpretor v12.03 (firmware)
Electrode material :
Initial state :
Electrolyte :
Comments :
Electrode surface area : 0.001 cm²
Characteristic mass : 0.001 g
Equivalent Weight : 0.000 g/eq.
Density : 0.000 g/cm3
Volume (V) : 0.001 cm³
Record Ece
Cycle Definition : Charge/Discharge alternance
Mode                Single sine
E (V)               0.0000
vs.                 Eoc
tE (h:m:s)          0:00:0.0000
record              0
dI                  0.000
unit dI             mA
dt (s)              0.000
fi                  100.000
unit fi             kHz
ff                  10.000
unit ff             mHz
Nd                  6
Points              per decade
spacing             Logarithmic
Va (mV)             5.0
pw                  0.10
Na                  2
corr                0
E range min (V)     -10.000
E range max (V)     10.000
I Range             Auto
Bandwidth           5
nc cycles           0
goto Ns'            0
nr cycles           0
inc. cycle          0

freq/Hz	Re(Z)/Ohm	-Im(Z)/Ohm	|Z|/Ohm	Phase(Z)/deg	time/s	<Ewe>/V	<I>/mA	Cs/µF	Cp/µF	cycle number	I Range	|Ewe|/V	|I|/A	Ns	(Q-Qo)/mA.h	<Ece>/V	|Ece|/V	Phase(Zce)/deg	|Zce|/Ohm	Re(Zce)/Ohm	-Im(Zce)/Ohm	Phase(Zwe-ce)/deg	|Zwe-ce|/Ohm	Re(Zwe-ce)/Ohm	-Im(Zwe-ce)/Ohm	Re(Y)/Ohm-1	Im(Y)/Ohm-1	|Y|/Ohm-1	Phase(Y)/deg	Re(C)/nF	Im(C)/nF	|C|/nF	Phase(C)/deg	Re(M)	Im(M)	|M|	Phase(M)/deg	Re(Permittivity)	Im(Permittivity)	|Permittivity|	Phase(Permittivity)/deg	Re(Resistivity)/Ohm.cm	Im(Resistivity)/Ohm.cm	|Resistivity|/Ohm.cm	Phase(Resistivity)/deg	Re(Conductivity)/mS/cm	Im(Conductivity)/mS/cm	|Conductivity|/mS/cm	Phase(Conductivity)/deg	Tan(Delta)	Loss Angle(Delta)/deg	dq/mA.h	Pwe/W	Pce/W	Pwe-ce/W	<Ewe-Ece>/V	Rwe/Ohm	Rce/Ohm	Rwe-ce/Ohm		Ewe-Ece/V
100004	1.17026	0.453031	1.25489	-21.1624	2.05355	0.240187	0.0744795	3.51298	0.457847	1	9	0.00495781	0.00395079	0	1.47579e-05	-0.000307521	4.86343e-05	90.5739	0.01231	-0.000123303	-0.0123094	-20.6384	1.25038	1.17014	0.440722	0.743141	0.287684	0.796882	21.1624	457.847	1182.7	1268.23	-68.8376	0.0000000E+000	0.0000000E+000	0.0000000E+000	68.8376	0.0000000E+000	0.0000000E+000	0.0000000E+000	-68.8376	0.0000000E+000	0.0000000E+000	0.0000000E+000	-21.1624	0.0000000E+000	0.0000000E+000	0.0000000E+000	21.1624	2.58318	68.8376	1.47579e-05	1.7889e-05	-2.2904e-08	1.79119e-05	0.240494	3224.87	4.12893	3229
31621.1	1.56341	0.574366	1.66557	-20.1724	3.45056	0.240211	0.0820384	8.76302	1.04209	1	9	0.00546523	0.00328129	0	3.00321e-05	3.58368e-05	2.0189e-05	53.5728	0.00615277	0.00365352	-0.00495059	-19.9694	1.66731	1.56706	0.569416	0.563565	0.207043	0.600394	20.1724	1042.09	2836.53	3021.89	-69.8276	0.0000000E+000	0.0000000E+000	0.0000000E+000	69.8276	0.0000000E+000	0.0000000E+000	0.0000000E+000	-69.8276	0.0000000E+000	0.0000000E+000	0.0000000E+000	-20.1724	0.0000000E+000	0.0000000E+000	0.0000000E+000	20.1724	2.72197	69.8276	-1.21364e-06	1.97066e-05	2.93999e-09	1.97036e-05	0.240176	2928.04	0.436829	2927.6
10002.2	1.98592	0.716843	2.11134	-19.8477	4.60355	0.24022	0.0753731	22.1973	2.55878	1	9	0.00510507	0.00241793	0	6.33063e-05	1.67614e-05	7.02956e-06	-102.368	0.00290726	-0.000622728	0.00283978	-19.9259	2.11172	1.9853	0.719682	0.445499	0.160809	0.473634	19.8477	2558.78	7088.76	7536.44	-70.1523	0.0000000E+000	0.0000000E+000	0.0000000E+000	70.1523	0.0000000E+000	0.0000000E+000	0.0000000E+000	-70.1523	0.0000000E+000	0.0000000E+000	0.0000000E+000	-19.8477	0.0000000E+000	0.0000000E+000	0.0000000E+000	19.8477	2.77037	70.1523	9.67736e-06	1.81062e-05	1.26336e-09	1.81049e-05	0.240204	3187.08	0.222379	3186.86
3163.08	2.53509	0.975097	2.71616	-21.0387	5.50064	0.240081	0.014939	51.6015	6.6504	1	9	0.00505165	0.00185985	0	7.19569e-05	-7.86157e-05	1.24446e-05	-82.6817	0.0066912	0.000852328	0.00663669	-21.1628	2.71934	2.53594	0.981734	0.343624	0.132172	0.368167	21.0387	6650.41	17290	18524.9	-68.9613	0.0000000E+000	0.0000000E+000	0.0000000E+000	68.9613	0.0000000E+000	0.0000000E+000	0.0000000E+000	-68.9613	0.0000000E+000	0.0000000E+000	0.0000000E+000	-21.0387	0.0000000E+000	0.0000000E+000	0.0000000E+000	21.0387	2.59984	68.9613	2.37963e-06	3.58657e-06	-1.17444e-09	3.58774e-06	0.24016	16070.8	5.26247	16076.1
1000.32	3.31217	1.41317	3.60104	-23.1061	7.09878	0.240137	-0.00912	112.586	17.3388	1	10	0.00499392	0.0013868	0	8.30226e-05	-0.000212144	1.29984e-05	-37.3864	0.00937299	0.00744739	0.00569116	-23.1428	3.61013	3.31962	1.41887	0.25542	0.108978	0.277697	23.1061	17338.8	40638.4	44182.7	-66.8939	0.0000000E+000	0.0000000E+000	0.0000000E+000	66.8939	0.0000000E+000	0.0000000E+000	0.0000000E+000	-66.8939	0.0000000E+000	0.0000000E+000	0.0000000E+000	-23.1061	0.0000000E+000	0.0000000E+000	0.0000000E+000	23.1061	2.34378	66.8939	-4.95398e-07	-2.19005e-06	1.93475e-09	-2.19198e-06	0.240349	26330.8	23.2614	26354.1
316.316	4.51625	2.12812	4.99253	-25.2304	8.44802	0.240142	-0.0095779	236.431	42.9588	1	10	0.00488811	0.000979084	0	8.00695e-05	-0.000364747	2.07049e-06	-138.777	0.00211472	-0.00159058	0.00139359	-25.2527	4.99169	4.51466	2.12951	0.181191	0.0853794	0.200299	25.2304	42958.8	91166.4	100781	-64.7696	0.0000000E+000	0.0000000E+000	0.0000000E+000	64.7696	0.0000000E+000	0.0000000E+000	0.0000000E+000	-64.7696	0.0000000E+000	0.0000000E+000	0.0000000E+000	-25.2304	0.0000000E+000	0.0000000E+000	0.0000000E+000	25.2304	2.12218	64.7696	-1.88756e-06	-2.30006e-06	3.49351e-09	-2.30355e-06	0.240507	25072.6	38.0821	25110.6
100.032	6.58717	2.73253	7.13145	-22.53	9.79485	0.240131	-0.00949229	582.259	85.4852	1	10	0.00485984	0.000681466	0	7.61591e-05	-0.000288445	4.38742e-06	-18.5191	0.00643822	0.00610483	0.00204492	-22.5263	7.13787	6.59327	2.73458	0.129522	0.0537291	0.140224	22.53	85485.2	206075	223102	-67.47	0.0000000E+000	0.0000000E+000	0.0000000E+000	67.47	0.0000000E+000	0.0000000E+000	0.0000000E+000	-67.47	0.0000000E+000	0.0000000E+000	0.0000000E+000	-22.53	0.0000000E+000	0.0000000E+000	0.0000000E+000	22.53	2.41065	67.47	-5.18014e-07	-2.27939e-06	2.73801e-09	-2.28213e-06	0.240419	25297.4	30.3873	25327.8
31.6296	8.87158	2.42249	9.19638	-15.273	11.1246	0.240139	-0.011417	2077.14	144.13	1	10	0.00485354	0.000527766	0	7.21362e-05	-7.86157e-05	1.09235e-05	-4.35423	0.0206977	0.0206379	0.00157142	-15.2486	9.2167	8.89222	2.42406	0.104898	0.0286436	0.108738	15.273	144130	527830	547155	-74.727	0.0000000E+000	0.0000000E+000	0.0000000E+000	74.727	0.0000000E+000	0.0000000E+000	0.0000000E+000	-74.727	0.0000000E+000	0.0000000E+000	0.0000000E+000	-15.273	0.0000000E+000	0.0000000E+000	0.0000000E+000	15.273	3.66217	74.727	-2.36092e-06	-2.74166e-06	8.97553e-10	-2.74255e-06	0.240218	21033.5	6.88588	21040.4
10.0032	10.389	1.71395	10.5295	-9.36812	12.4568	0.240133	-0.0101177	9282.86	245.962	1	10	0.00485183	0.000460786	0	7.17002e-05	0.000169365	8.32831e-06	-45.1553	0.0180742	0.0127457	0.0128149	-9.42555	10.5441	10.4018	1.72677	0.0937049	0.0154592	0.0949716	9.36812	245962	1.49088e+06	1.51104e+06	-80.6319	0.0000000E+000	0.0000000E+000	0.0000000E+000	80.6319	0.0000000E+000	0.0000000E+000	0.0000000E+000	-80.6319	0.0000000E+000	0.0000000E+000	0.0000000E+000	-9.36812	0.0000000E+000	0.0000000E+000	0.0000000E+000	9.36812	6.06144	80.6319	2.24413e-06	-2.4296e-06	-1.71358e-09	-2.42789e-06	0.239964	23734	16.7394	23717.2
3.1604	11.3842	1.15305	11.4424	-5.78352	14.1655	0.240181	-0.0011746	43674.6	443.499	1	11	0.00484989	0.000423851	0	7.62294e-05	-0.000364747	3.41729e-06	4.31886	0.00806248	0.00803958	-0.000607161	-5.77644	11.4504	11.3922	1.15245	0.0869492	0.00880671	0.0873941	5.78352	443498	4.37869e+06	4.40109e+06	-84.2165	0.0000000E+000	0.0000000E+000	0.0000000E+000	84.2165	0.0000000E+000	0.0000000E+000	0.0000000E+000	-84.2165	0.0000000E+000	0.0000000E+000	0.0000000E+000	-5.78352	0.0000000E+000	0.0000000E+000	0.0000000E+000	5.78352	9.87307	84.2165	2.09936e-06	-2.82115e-07	4.2843e-10	-2.82544e-07	0.240546	204480	310.53	204790
1.00006	11.9489	0.861855	11.98	-4.1255	18.7578	0.240179	-0.0017417	184654	955.687	1	11	0.00485546	0.000405299	0	5.3749e-05	-0.000135842	2.88353e-06	-82.7283	0.00711458	0.000900525	0.00705736	-4.15885	11.9814	11.9498	0.868913	0.0832564	0.00600514	0.0834727	4.1255	955688	1.32498e+07	1.32842e+07	-85.8745	0.0000000E+000	0.0000000E+000	0.0000000E+000	85.8745	0.0000000E+000	0.0000000E+000	0.0000000E+000	-85.8745	0.0000000E+000	0.0000000E+000	0.0000000E+000	-4.1255	0.0000000E+000	0.0000000E+000	0.0000000E+000	4.1255	13.8642	85.8745	-7.59235e-06	-4.18321e-07	2.36596e-10	-4.18557e-07	0.240315	137899	77.9938	137977
0.316193	12.3014	1.05775	12.3468	-4.91457	33.1	0.240179	-0.00366956	475865	3492.56	1	11	0.0048568	0.000393366	0	9.74243e-05	-0.000116767	1.53818e-06	53.7012	0.0039103	0.00231489	-0.00315147	-4.89908	12.3488	12.3037	1.0546	0.080695	0.00693867	0.0809928	4.91457	3.49256e+06	4.06176e+07	4.07675e+07	-85.0854	0.0000000E+000	0.0000000E+000	0.0000000E+000	85.0854	0.0000000E+000	0.0000000E+000	0.0000000E+000	-85.0854	0.0000000E+000	0.0000000E+000	0.0000000E+000	-4.91457	0.0000000E+000	0.0000000E+000	0.0000000E+000	4.91457	11.6297	85.0854	2.85645e-05	-8.81352e-07	4.28482e-10	-8.81781e-07	0.240296	65451.7	31.8203	65483.5
0.0999041	12.8798	2.20157	13.0666	-9.69997	78.3093	0.240182	-0.000364735	723609	20542.2	1	11	0.00485392	0.000371476	0	7.02185e-05	-7.86157e-05	2.57856e-06	-8.91033	0.0069414	0.00685763	0.00107514	-9.69955	13.0735	12.8866	2.20265	0.0754371	0.0128947	0.0765312	9.69997	2.05422e+07	1.20177e+08	1.2192e+08	-80.3	0.0000000E+000	0.0000000E+000	0.0000000E+000	80.3	0.0000000E+000	0.0000000E+000	0.0000000E+000	-80.3	0.0000000E+000	0.0000000E+000	0.0000000E+000	-9.69997	0.0000000E+000	0.0000000E+000	0.0000000E+000	9.69997	5.85026	80.3	-6.13911e-05	-8.7603e-08	2.86739e-11	-8.76317e-08	0.240261	658512	215.542	658727
0.0315922	14.2558	4.90963	15.0775	-19.0035	221.193	0.240191	-0.00687224	1.02611e+06	108800	1	11	0.00485675	0.000322119	0	-0.000604666	-7.86157e-05	2.12341e-06	11.9331	0.00659201	0.00644956	-0.00136303	-18.9906	15.0832	14.2622	4.90826	0.0627091	0.0215967	0.0663238	19.0035	1.088e+08	3.15915e+08	3.34126e+08	-70.9965	0.0000000E+000	0.0000000E+000	0.0000000E+000	70.9965	0.0000000E+000	0.0000000E+000	0.0000000E+000	-70.9965	0.0000000E+000	0.0000000E+000	0.0000000E+000	-19.0035	0.0000000E+000	0.0000000E+000	0.0000000E+000	19.0035	2.90364	70.9965	-0.000268368	-1.65065e-06	5.40266e-10	-1.65119e-06	0.240269	34950.8	11.4396	34962.3
0.0100092	17.2963	11.5018	20.7714	-33.6235	719.023	0.24018	-0.00860885	1.38247e+06	423893	1	12	0.00485328	0.000233652	0	-0.000476773	-0.000364747	2.82852e-06	7.29853	0.0121057	0.0120076	-0.0015379	-33.6017	20.7806	17.3083	11.5003	0.0400884	0.0266584	0.048143	33.6235	4.23893e+08	6.37442e+08	7.65518e+08	-56.3765	0.0000000E+000	0.0000000E+000	0.0000000E+000	56.3765	0.0000000E+000	0.0000000E+000	0.0000000E+000	-56.3765	0.0000000E+000	0.0000000E+000	0.0000000E+000	-33.6235	0.0000000E+000	0.0000000E+000	0.0000000E+000	33.6235	1.50378	56.3765	0.000197945	-2.06768e-06	3.14005e-09	-2.07082e-06	0.240545	27899.3	42.3689	27941.6