File: txt/18711_R307_UA701_4p95_SOC00_C07.mpt
EC-Lab ASCII FILE
Nb header lines : 65

Potentio Electrochemical Impedance Spectroscopy

Run on channel : 7 (SN 66126)
User :
CE vs. WE compliance from -10 V to 10 V
Electrode connection : standard
Potential control : Ewe
Ewe ctrl range : min = -10.00 V, max = 10.00 V
Safety Limits :
	Do not start on E overload
Acquisition started on : 10/29/2025 17:32:53.195
Technique started on : 10/29/2025 17:32:54.922
Loaded Setting File :  C:\Users\Celltest\OneDrive - store-dot.com\Documents\EC-Lab\Data\@Biologic Test Protocols\anode half cell EIS SOC00.mps
Saved on :
	File : 18711_R307_UA701_4p95_SOC00_C07.mpr
	Directory : C:\Users\Celltest\OneDrive - store-dot.com\Documents\EC-Lab\Data\Anna\
	Host : 169.254.61.224
Device : VMP-3e (SN .003165)
Address : USB
EC-LAB for windows v11.62 (software)
Internet server v27.00 (firmware)
Command interpretor v12.03 (firmware)
Electrode material :
Initial state :
Electrolyte :
Comments :
Electrode surface area : 0.001 cm²
Characteristic mass : 0.001 g
Equivalent Weight : 0.000 g/eq.
Density : 0.000 g/cm3
Volume (V) : 0.001 cm³
Record Ece
Cycle Definition : Charge/Discharge alternance
Mode                Single sine
E (V)               0.0000
vs.                 Eoc
tE (h:m:s)          0:00:0.0000
record              0
dI                  0.000
unit dI             mA
dt (s)              0.000
fi                  100.000
unit fi             kHz
ff                  10.000
unit ff             mHz
Nd                  6
Points              per decade
spacing             Logarithmic
Va (mV)             5.0
pw                  0.10
Na                  2
corr                0
E range min (V)     -10.000
E range max (V)     10.000
I Range             Auto
Bandwidth           5
nc cycles           0
goto Ns'            0
nr cycles           0
inc. cycle          0

freq/Hz	Re(Z)/Ohm	-Im(Z)/Ohm	|Z|/Ohm	Phase(Z)/deg	time/s	<Ewe>/V	<I>/mA	Cs/µF	Cp/µF	cycle number	I Range	|Ewe|/V	|I|/A	Ns	(Q-Qo)/mA.h	<Ece>/V	|Ece|/V	Phase(Zce)/deg	|Zce|/Ohm	Re(Zce)/Ohm	-Im(Zce)/Ohm	Phase(Zwe-ce)/deg	|Zwe-ce|/Ohm	Re(Zwe-ce)/Ohm	-Im(Zwe-ce)/Ohm	Re(Y)/Ohm-1	Im(Y)/Ohm-1	|Y|/Ohm-1	Phase(Y)/deg	Re(C)/nF	Im(C)/nF	|C|/nF	Phase(C)/deg	Re(M)	Im(M)	|M|	Phase(M)/deg	Re(Permittivity)	Im(Permittivity)	|Permittivity|	Phase(Permittivity)/deg	Re(Resistivity)/Ohm.cm	Im(Resistivity)/Ohm.cm	|Resistivity|/Ohm.cm	Phase(Resistivity)/deg	Re(Conductivity)/mS/cm	Im(Conductivity)/mS/cm	|Conductivity|/mS/cm	Phase(Conductivity)/deg	Tan(Delta)	Loss Angle(Delta)/deg	dq/mA.h	Pwe/W	Pce/W	Pwe-ce/W	<Ewe-Ece>/V	Rwe/Ohm	Rce/Ohm	Rwe-ce/Ohm		Ewe-Ece/V
100004	1.23464	0.458518	1.31703	-20.3739	1.72654	0.253121	0.0774211	3.47094	0.420697	1	9	0.00463451	0.00351891	0	5.17521e-06	-0.000421973	4.25561e-05	80.4433	0.0120935	0.00200781	-0.0119257	-19.8563	1.31481	1.23664	0.446592	0.711784	0.264342	0.759285	20.3739	420.697	1132.8	1208.39	-69.6261	0.0000000E+000	0.0000000E+000	0.0000000E+000	69.6261	0.0000000E+000	0.0000000E+000	0.0000000E+000	-69.6261	0.0000000E+000	0.0000000E+000	0.0000000E+000	-20.3739	0.0000000E+000	0.0000000E+000	0.0000000E+000	20.3739	2.69267	69.6261	5.17521e-06	1.95969e-05	-3.26697e-08	1.96296e-05	0.253543	3269.41	5.45036	3274.86
31621.1	1.62062	0.577524	1.72045	-19.614	3.12351	0.253143	0.0767509	8.71511	0.982041	1	9	0.00548729	0.00318945	0	1.82645e-05	-5.95403e-05	9.68227e-06	38.919	0.00303571	0.00236189	-0.0019071	-19.5279	1.72203	1.62298	0.575617	0.547518	0.195113	0.581244	19.614	982.041	2755.76	2925.51	-70.386	0.0000000E+000	0.0000000E+000	0.0000000E+000	70.386	0.0000000E+000	0.0000000E+000	0.0000000E+000	-70.386	0.0000000E+000	0.0000000E+000	0.0000000E+000	-19.614	0.0000000E+000	0.0000000E+000	0.0000000E+000	19.614	2.80615	70.386	1.48867e-05	1.9429e-05	-4.56977e-09	1.94335e-05	0.253203	3298.25	0.775761	3299.02
10002.2	2.05517	0.738554	2.18385	-19.7666	4.14852	0.253133	0.0823735	21.5447	2.46411	1	9	0.00527419	0.00241509	0	4.36003e-05	-0.000173993	6.18656e-06	-101.112	0.00256163	-0.000493688	0.00251361	-19.833	2.18424	2.05468	0.741068	0.430926	0.154859	0.457907	19.7666	2464.11	6856.88	7286.19	-70.2334	0.0000000E+000	0.0000000E+000	0.0000000E+000	70.2334	0.0000000E+000	0.0000000E+000	0.0000000E+000	-70.2334	0.0000000E+000	0.0000000E+000	0.0000000E+000	-19.7666	0.0000000E+000	0.0000000E+000	0.0000000E+000	19.7666	2.7827	70.2334	6.59553e-06	2.08515e-05	-1.43324e-08	2.08658e-05	0.253307	3072.99	2.11224	3075.1
3163.08	2.60983	1.03096	2.80608	-21.5555	5.04762	0.252979	0.018737	48.8055	6.58797	1	9	0.00503579	0.0017946	0	5.31672e-05	-0.000173993	9.98601e-06	-36.461	0.00556447	0.00447529	0.00330683	-21.5846	2.81146	2.6143	1.03426	0.331446	0.130931	0.356369	21.5555	6587.97	16677.2	17931.2	-68.4445	0.0000000E+000	0.0000000E+000	0.0000000E+000	68.4445	0.0000000E+000	0.0000000E+000	0.0000000E+000	-68.4445	0.0000000E+000	0.0000000E+000	0.0000000E+000	-21.5555	0.0000000E+000	0.0000000E+000	0.0000000E+000	21.5555	2.53146	68.4445	2.8e-06	4.74008e-06	-3.26011e-09	4.74334e-06	0.253153	13501.6	9.28604	13510.8
1000.32	3.42399	1.5353	3.75245	-24.1513	6.64679	0.253051	-0.017351	103.63	17.3479	1	10	0.0049904	0.00132991	0	6.57635e-05	-0.000154917	2.83075e-06	13.2206	0.00212853	0.00207212	-0.000486796	-24.1316	3.75414	3.42606	1.53482	0.243166	0.109035	0.266493	24.1513	17347.9	38688.7	42400.1	-65.8487	0.0000000E+000	0.0000000E+000	0.0000000E+000	65.8487	0.0000000E+000	0.0000000E+000	0.0000000E+000	-65.8487	0.0000000E+000	0.0000000E+000	0.0000000E+000	-24.1513	0.0000000E+000	0.0000000E+000	0.0000000E+000	24.1513	2.23017	65.8487	-8.74848e-07	-4.39068e-06	2.68797e-09	-4.39337e-06	0.253206	14584.2	8.92844	14593.1
316.316	4.69045	2.42324	5.27944	-27.3224	7.99708	0.25305	-0.0169527	207.636	43.7443	1	10	0.00489227	0.000926665	0	6.0843e-05	-0.000231219	6.477e-06	-105.823	0.00698958	-0.00190582	0.00672473	-27.3967	5.28083	4.68854	2.42997	0.168283	0.0869405	0.189414	27.3224	43744.3	84671.8	95304.1	-62.6776	0.0000000E+000	0.0000000E+000	0.0000000E+000	62.6776	0.0000000E+000	0.0000000E+000	0.0000000E+000	-62.6776	0.0000000E+000	0.0000000E+000	0.0000000E+000	-27.3224	0.0000000E+000	0.0000000E+000	0.0000000E+000	27.3224	1.93561	62.6776	-1.41076e-06	-4.28987e-06	3.91979e-09	-4.29379e-06	0.253281	14926.8	13.6391	14940.4
100.032	7.12155	3.41816	7.89939	-25.6398	9.34481	0.253048	-0.0172245	465.467	87.1539	1	10	0.00487064	0.000616584	0	5.42361e-05	-0.00026937	3.32687e-06	37.2089	0.00539564	0.00429728	-0.00326287	-25.605	7.90185	7.12585	3.4149	0.114127	0.0547779	0.126592	25.6398	87153.9	181580	201413	-64.3602	0.0000000E+000	0.0000000E+000	0.0000000E+000	64.3602	0.0000000E+000	0.0000000E+000	0.0000000E+000	-64.3602	0.0000000E+000	0.0000000E+000	0.0000000E+000	-25.6398	0.0000000E+000	0.0000000E+000	0.0000000E+000	25.6398	2.08345	64.3602	-1.24028e-06	-4.35861e-06	4.63975e-09	-4.36325e-06	0.253317	14691.2	15.6388	14706.8
31.6296	10.139	3.1967	10.631	-17.4995	10.6736	0.253034	-0.0200091	1574.07	142.326	1	10	0.00486667	0.000457783	0	4.83134e-05	-2.13895e-05	1.0306e-05	41.7528	0.0225129	0.0167952	-0.0149918	-17.3953	10.6425	10.1558	3.18171	0.0897115	0.028285	0.0940649	17.4995	142326	451414	473320	-72.5005	0.0000000E+000	0.0000000E+000	0.0000000E+000	72.5005	0.0000000E+000	0.0000000E+000	0.0000000E+000	-72.5005	0.0000000E+000	0.0000000E+000	0.0000000E+000	-17.4995	0.0000000E+000	0.0000000E+000	0.0000000E+000	17.4995	3.17169	72.5005	-2.14556e-06	-5.06298e-06	4.27984e-10	-5.06341e-06	0.253056	12646	1.06899	12647
10.0032	12.2873	2.37337	12.5144	-10.9324	12.2518	0.253079	-0.00870928	6703.72	241.117	1	11	0.00486745	0.000388948	0	4.23915e-05	-0.000154917	3.74319e-06	86.3936	0.00962388	0.000605363	-0.00960482	-10.8887	12.5132	12.2879	2.36376	0.0784578	0.0151547	0.079908	10.9324	241117	1.2483e+06	1.27137e+06	-79.0676	0.0000000E+000	0.0000000E+000	0.0000000E+000	79.0676	0.0000000E+000	0.0000000E+000	0.0000000E+000	-79.0676	0.0000000E+000	0.0000000E+000	0.0000000E+000	-10.9324	0.0000000E+000	0.0000000E+000	0.0000000E+000	10.9324	5.17714	79.0676	-3.80244e-06	-2.20414e-06	1.34922e-09	-2.20549e-06	0.253234	29058.5	17.7876	29076.3
3.1604	13.6773	1.62582	13.7736	-6.77892	13.7684	0.253081	-0.00706682	30974.7	431.575	1	11	0.0048641	0.000353147	0	4.32799e-05	-0.000173993	3.67033e-06	-14.7223	0.0103932	0.010052	0.00264127	-6.78489	13.7839	13.6873	1.62846	0.0720952	0.00856993	0.0726027	6.77892	431575	3.63065e+06	3.65621e+06	-83.2211	0.0000000E+000	0.0000000E+000	0.0000000E+000	83.2211	0.0000000E+000	0.0000000E+000	0.0000000E+000	-83.2211	0.0000000E+000	0.0000000E+000	0.0000000E+000	-6.77892	0.0000000E+000	0.0000000E+000	0.0000000E+000	6.77892	8.41257	83.2211	1.65746e-06	-1.78848e-06	1.22958e-09	-1.7897e-06	0.253255	35812.5	24.6211	35837.1
1.00006	14.521	1.16607	14.5678	-4.5911	18.3599	0.253089	-0.00559398	136480	874.436	1	11	0.00486347	0.000333851	0	1.72871e-05	-0.000173993	2.98154e-06	23.5327	0.00893076	0.00818801	-0.0035658	-4.57455	14.5757	14.5292	1.1625	0.0684243	0.00549459	0.0686446	4.5911	874436	1.08894e+07	1.09244e+07	-85.4089	0.0000000E+000	0.0000000E+000	0.0000000E+000	85.4089	0.0000000E+000	0.0000000E+000	0.0000000E+000	-85.4089	0.0000000E+000	0.0000000E+000	0.0000000E+000	-4.5911	0.0000000E+000	0.0000000E+000	0.0000000E+000	4.5911	12.453	85.4089	-1.08708e-05	-1.41578e-06	9.73313e-10	-1.41675e-06	0.253263	45243.1	31.1036	45274.2
0.316193	15.1037	1.30232	15.1597	-4.92817	32.7031	0.253085	-0.00646033	386500	2852.36	1	11	0.00486368	0.00032083	0	3.20575e-05	-0.000345672	2.96689e-06	-31.1841	0.00924755	0.00791135	0.00478828	-4.94362	15.168	15.1116	1.30711	0.0657205	0.00566678	0.0659643	4.92817	2.85236e+06	3.30802e+07	3.3203e+07	-85.0718	0.0000000E+000	0.0000000E+000	0.0000000E+000	85.0718	0.0000000E+000	0.0000000E+000	0.0000000E+000	-85.0718	0.0000000E+000	0.0000000E+000	0.0000000E+000	-4.92817	0.0000000E+000	0.0000000E+000	0.0000000E+000	4.92817	11.5975	85.0718	1.68627e-05	-1.63501e-06	2.23315e-09	-1.63725e-06	0.253431	39175.3	53.5068	39228.8
0.0999041	16.0994	2.47003	16.2878	-8.72252	87.9858	0.253094	-0.00224089	644962	14832.5	1	12	0.00486271	0.000298549	0	2.21798e-05	-0.000326596	1.36979e-06	52.5298	0.00458814	0.00279119	-0.00364147	-8.70837	16.29	16.1022	2.46639	0.0606856	0.00931061	0.0613957	8.72252	1.48325e+07	9.66769e+07	9.78081e+07	-81.2775	0.0000000E+000	0.0000000E+000	0.0000000E+000	81.2775	0.0000000E+000	0.0000000E+000	0.0000000E+000	-81.2775	0.0000000E+000	0.0000000E+000	0.0000000E+000	-8.72252	0.0000000E+000	0.0000000E+000	0.0000000E+000	8.72252	6.5179	81.2775	-4.2291e-05	-5.67157e-07	7.31868e-10	-5.67889e-07	0.253421	112943	145.744	113089
0.0315922	18.0508	5.37376	18.8337	-16.5784	230.868	0.253096	-0.00377672	937479	76321.6	1	12	0.00486352	0.000258235	0	-0.000518038	-2.13895e-05	2.22531e-06	-26.3481	0.00861739	0.00772217	0.0038246	-16.5828	18.8422	18.0585	5.37759	0.0508891	0.0151498	0.0530963	16.5784	7.63216e+07	2.56369e+08	2.67488e+08	-73.4216	0.0000000E+000	0.0000000E+000	0.0000000E+000	73.4216	0.0000000E+000	0.0000000E+000	0.0000000E+000	-73.4216	0.0000000E+000	0.0000000E+000	0.0000000E+000	-16.5784	0.0000000E+000	0.0000000E+000	0.0000000E+000	16.5784	3.35906	73.4216	-0.000233058	-9.55872e-07	8.07821e-11	-9.55953e-07	0.253117	67014.7	5.6635	67020.4
0.0100092	21.4235	12.5409	24.8242	-30.3438	682.092	0.253096	-0.00331889	1.26793e+06	323593	1	12	0.00486316	0.000195904	0	-0.000112167	-0.000402898	1.9112e-06	66.779	0.0097558	0.00384651	-0.0089655	-30.3214	24.823	21.4274	12.5319	0.0347649	0.0203506	0.0402833	30.3438	3.23593e+08	5.52793e+08	6.40541e+08	-59.6562	0.0000000E+000	0.0000000E+000	0.0000000E+000	59.6562	0.0000000E+000	0.0000000E+000	0.0000000E+000	-59.6562	0.0000000E+000	0.0000000E+000	0.0000000E+000	-30.3438	0.0000000E+000	0.0000000E+000	0.0000000E+000	30.3438	1.7083	59.6562	0.000390576	-8.39996e-07	1.33717e-09	-8.41333e-07	0.253499	76259.2	121.395	76380.6