File: txt/18713_R307_UA701_SOC00_C08.mpt
EC-Lab ASCII FILE
Nb header lines : 65

Potentio Electrochemical Impedance Spectroscopy

Run on channel : 8 (SN 65398)
User :
CE vs. WE compliance from -10 V to 10 V
Electrode connection : standard
Potential control : Ewe
Ewe ctrl range : min = -10.00 V, max = 10.00 V
Safety Limits :
	Do not start on E overload
Acquisition started on : 10/28/2025 15:31:10.147
Technique started on : 10/28/2025 15:31:11.874
Loaded Setting File :  C:\Users\Celltest\OneDrive - store-dot.com\Documents\EC-Lab\Data\@Biologic Test Protocols\anode half cell EIS SOC00.mps
Saved on :
	File : 18713_R307_UA701_SOC00_C08.mpr
	Directory : C:\Users\Celltest\OneDrive - store-dot.com\Documents\EC-Lab\Data\Anna\
	Host : 169.254.61.224
Device : VMP-3e (SN .003165)
Address : USB
EC-LAB for windows v11.62 (software)
Internet server v27.00 (firmware)
Command interpretor v12.03 (firmware)
Electrode material :
Initial state :
Electrolyte :
Comments :
Electrode surface area : 0.001 cm²
Characteristic mass : 0.001 g
Equivalent Weight : 0.000 g/eq.
Density : 0.000 g/cm3
Volume (V) : 0.001 cm³
Record Ece
Cycle Definition : Charge/Discharge alternance
Mode                Single sine
E (V)               0.0000
vs.                 Eoc
tE (h:m:s)          0:00:0.0000
record              0
dI                  0.000
unit dI             mA
dt (s)              0.000
fi                  100.000
unit fi             kHz
ff                  10.000
unit ff             mHz
Nd                  6
Points              per decade
spacing             Logarithmic
Va (mV)             5.0
pw                  0.10
Na                  2
corr                0
E range min (V)     -10.000
E range max (V)     10.000
I Range             Auto
Bandwidth           5
nc cycles           0
goto Ns'            0
nr cycles           0
inc. cycle          0

freq/Hz	Re(Z)/Ohm	-Im(Z)/Ohm	|Z|/Ohm	Phase(Z)/deg	time/s	<Ewe>/V	<I>/mA	Cs/µF	Cp/µF	cycle number	I Range	|Ewe|/V	|I|/A	Ns	(Q-Qo)/mA.h	<Ece>/V	|Ece|/V	Phase(Zce)/deg	|Zce|/Ohm	Re(Zce)/Ohm	-Im(Zce)/Ohm	Phase(Zwe-ce)/deg	|Zwe-ce|/Ohm	Re(Zwe-ce)/Ohm	-Im(Zwe-ce)/Ohm	Re(Y)/Ohm-1	Im(Y)/Ohm-1	|Y|/Ohm-1	Phase(Y)/deg	Re(C)/nF	Im(C)/nF	|C|/nF	Phase(C)/deg	Re(M)	Im(M)	|M|	Phase(M)/deg	Re(Permittivity)	Im(Permittivity)	|Permittivity|	Phase(Permittivity)/deg	Re(Resistivity)/Ohm.cm	Im(Resistivity)/Ohm.cm	|Resistivity|/Ohm.cm	Phase(Resistivity)/deg	Re(Conductivity)/mS/cm	Im(Conductivity)/mS/cm	|Conductivity|/mS/cm	Phase(Conductivity)/deg	Tan(Delta)	Loss Angle(Delta)/deg	dq/mA.h	Pwe/W	Pce/W	Pwe-ce/W	<Ewe-Ece>/V	Rwe/Ohm	Rce/Ohm	Rwe-ce/Ohm		Ewe-Ece/V
100004	1.18558	0.479614	1.27892	-22.0252	1.72653	0.245637	0.00558275	3.31827	0.466668	1	9	0.00483276	0.00377878	0	-5.00142e-06	0.000273542	5.59898e-05	91.8803	0.0148169	-0.000486162	-0.0148089	-21.4155	1.27299	1.1851	0.464805	0.724844	0.293227	0.781909	22.0252	466.668	1153.58	1244.4	-67.9748	0.0000000E+000	0.0000000E+000	0.0000000E+000	67.9748	0.0000000E+000	0.0000000E+000	0.0000000E+000	-67.9748	0.0000000E+000	0.0000000E+000	0.0000000E+000	-22.0252	0.0000000E+000	0.0000000E+000	0.0000000E+000	22.0252	2.47195	67.9748	-5.00142e-06	1.37133e-06	1.52712e-09	1.3698e-06	0.245363	43999.2	48.9977	43950.2
31621.1	1.60959	0.621946	1.72557	-21.1266	3.24856	0.245632	-0.00111365	8.09264	1.05131	1	9	0.0050684	0.00293724	0	2.72719e-05	0.000368982	9.45333e-06	40.2105	0.00321844	0.00245785	-0.00207782	-21.0329	1.72711	1.61204	0.619868	0.540568	0.208876	0.57952	21.1266	1051.31	2720.78	2916.83	-68.8734	0.0000000E+000	0.0000000E+000	0.0000000E+000	68.8734	0.0000000E+000	0.0000000E+000	0.0000000E+000	-68.8734	0.0000000E+000	0.0000000E+000	0.0000000E+000	-21.1266	0.0000000E+000	0.0000000E+000	0.0000000E+000	21.1266	2.58798	68.8734	3.10796e-06	-2.73549e-07	-4.10917e-10	-2.73138e-07	0.245263	220565	331.326	220233
10002.2	2.08593	0.780506	2.22718	-20.5146	4.27256	0.245642	0.00152769	20.3867	2.50375	1	9	0.00495284	0.00222382	0	2.2748e-05	-8.91312e-05	5.59818e-06	-40.6168	0.00251737	0.00191089	0.0016388	-20.5369	2.22954	2.08785	0.782145	0.420525	0.15735	0.448999	20.5146	2503.75	6691.37	7144.45	-69.4854	0.0000000E+000	0.0000000E+000	0.0000000E+000	69.4854	0.0000000E+000	0.0000000E+000	0.0000000E+000	-69.4854	0.0000000E+000	0.0000000E+000	0.0000000E+000	-20.5146	0.0000000E+000	0.0000000E+000	0.0000000E+000	20.5146	2.67254	69.4854	-2.95844e-07	3.75264e-07	-1.36165e-10	3.754e-07	0.245731	160793	58.3438	160851
3163.08	2.67099	1.07628	2.87969	-21.9471	5.17367	0.245422	-0.0479513	46.7502	6.53049	1	9	0.00462545	0.00160623	0	1.68858e-05	-1.2779e-05	6.42914e-06	-51.5252	0.00400262	0.00249031	0.00313358	-21.9863	2.88317	2.67348	1.07942	0.322094	0.129788	0.34726	21.9471	6530.49	16206.6	17472.9	-68.0529	0.0000000E+000	0.0000000E+000	0.0000000E+000	68.0529	0.0000000E+000	0.0000000E+000	0.0000000E+000	-68.0529	0.0000000E+000	0.0000000E+000	0.0000000E+000	-21.9471	0.0000000E+000	0.0000000E+000	0.0000000E+000	21.9471	2.48168	68.0529	-6.41771e-06	-1.17683e-05	6.12768e-10	-1.17689e-05	0.245435	5118.15	0.266499	5118.42
1000.32	3.51677	1.56515	3.84933	-23.9917	6.77178	0.245554	-0.0158282	101.654	16.8061	1	10	0.00460813	0.00119712	0	1.81905e-05	0.000178102	8.15096e-06	-93.9321	0.00680878	-0.00046691	0.00679276	-24.0868	3.85167	3.5163	1.57195	0.237341	0.10563	0.259785	23.9917	16806.1	37761.9	41332.9	-66.0083	0.0000000E+000	0.0000000E+000	0.0000000E+000	66.0083	0.0000000E+000	0.0000000E+000	0.0000000E+000	-66.0083	0.0000000E+000	0.0000000E+000	0.0000000E+000	-23.9917	0.0000000E+000	0.0000000E+000	0.0000000E+000	23.9917	2.24692	66.0083	-1.97062e-06	-3.88667e-06	-2.81902e-09	-3.88385e-06	0.245376	15513.7	11.2522	15502.5
316.316	4.84102	2.44701	5.42432	-26.8154	8.335	0.245546	-0.0181569	205.619	41.845	1	10	0.00506101	0.000933022	0	1.09309e-05	0.00019719	4.8672e-05	-64.9495	0.052166	0.0220879	0.047259	-27.1531	5.46545	4.86311	2.49427	0.16453	0.0831656	0.184355	26.8154	41844.9	82783.6	92758.4	-63.1846	0.0000000E+000	0.0000000E+000	0.0000000E+000	63.1846	0.0000000E+000	0.0000000E+000	0.0000000E+000	-63.1846	0.0000000E+000	0.0000000E+000	0.0000000E+000	-26.8154	0.0000000E+000	0.0000000E+000	0.0000000E+000	26.8154	1.97834	63.1846	-3.19843e-06	-4.45835e-06	-3.58035e-09	-4.45477e-06	0.245349	13523.6	10.8603	13512.7
100.032	7.19287	3.22985	7.88475	-24.1817	9.68283	0.245546	-0.0177663	492.605	82.6584	1	10	0.00501029	0.00063544	0	5.4873e-06	0.000216278	9.54127e-06	90.4063	0.0150152	-0.000106479	-0.0150148	-24.0824	7.87852	7.19277	3.21483	0.115698	0.0519524	0.126827	24.1817	82658.4	184080	201787	-65.8183	0.0000000E+000	0.0000000E+000	0.0000000E+000	65.8183	0.0000000E+000	0.0000000E+000	0.0000000E+000	-65.8183	0.0000000E+000	0.0000000E+000	0.0000000E+000	-24.1817	0.0000000E+000	0.0000000E+000	0.0000000E+000	24.1817	2.227	65.8183	-2.75211e-06	-4.36245e-06	-3.84245e-09	-4.35861e-06	0.24533	13820.9	12.1735	13808.7
31.6296	9.97009	2.96714	10.4022	-16.5732	11.0115	0.245535	-0.0232942	1695.86	137.978	1	10	0.00500414	0.000481064	0	-8.18222e-07	0.00019719	5.98997e-06	32.2562	0.0124515	0.0105299	-0.00664545	-16.5216	10.4104	9.98062	2.96049	0.0921394	0.027421	0.0961332	16.5732	137978	463631	483727	-73.4268	0.0000000E+000	0.0000000E+000	0.0000000E+000	73.4268	0.0000000E+000	0.0000000E+000	0.0000000E+000	-73.4268	0.0000000E+000	0.0000000E+000	0.0000000E+000	-16.5732	0.0000000E+000	0.0000000E+000	0.0000000E+000	16.5732	3.36017	73.4268	-1.94377e-06	-5.71953e-06	-4.59337e-09	-5.71493e-06	0.245337	10540.6	8.46519	10532.1
10.0032	11.9398	2.21197	12.143	-10.4956	12.5888	0.24558	-0.00512268	7192.87	238.676	1	11	0.0049989	0.00041167	0	-6.81061e-06	0.00038807	3.33713e-06	100.981	0.00810634	-0.00154416	-0.00795791	-10.46	12.14	11.9383	2.20401	0.0809742	0.0150013	0.082352	10.4956	238676	1.28833e+06	1.31025e+06	-79.5044	0.0000000E+000	0.0000000E+000	0.0000000E+000	79.5044	0.0000000E+000	0.0000000E+000	0.0000000E+000	-79.5044	0.0000000E+000	0.0000000E+000	0.0000000E+000	-10.4956	0.0000000E+000	0.0000000E+000	0.0000000E+000	10.4956	5.39782	79.5044	-7.91183e-07	-1.25803e-06	-1.98796e-09	-1.25604e-06	0.245192	47939.8	75.7553	47864.1
3.1604	13.2624	1.55395	13.3531	-6.68286	14.1054	0.245576	-0.00549902	32407.2	438.885	1	11	0.00500677	0.000374952	0	-1.23796e-05	0.000349894	3.92421e-06	40.0631	0.0104659	0.00800993	-0.00673619	-6.65017	13.3603	13.2704	1.54721	0.0743801	0.0087151	0.0748889	6.68286	438885	3.74572e+06	3.77135e+06	-83.3171	0.0000000E+000	0.0000000E+000	0.0000000E+000	83.3171	0.0000000E+000	0.0000000E+000	0.0000000E+000	-83.3171	0.0000000E+000	0.0000000E+000	0.0000000E+000	-6.68286	0.0000000E+000	0.0000000E+000	0.0000000E+000	6.68286	8.53463	83.3171	-4.65907e-07	-1.35043e-06	-1.92407e-09	-1.3485e-06	0.245226	44658.2	63.6285	44594.5
1.00006	14.0385	1.13686	14.0844	-4.6298	18.7007	0.245589	-0.00293802	139987	912.054	1	11	0.00500348	0.000355249	0	-4.24814e-06	2.53972e-05	2.01169e-06	23.4969	0.00566274	0.0051932	-0.00225774	-4.61894	14.0894	14.0437	1.1346	0.0707688	0.00573097	0.0710005	4.6298	912054	1.12625e+07	1.12994e+07	-85.3702	0.0000000E+000	0.0000000E+000	0.0000000E+000	85.3702	0.0000000E+000	0.0000000E+000	0.0000000E+000	-85.3702	0.0000000E+000	0.0000000E+000	0.0000000E+000	-4.6298	0.0000000E+000	0.0000000E+000	0.0000000E+000	4.6298	12.3485	85.3702	-1.69107e-06	-7.21544e-07	-7.46174e-11	-7.2147e-07	0.245563	83589.8	8.64431	83581.2
0.316193	14.5336	1.28155	14.5899	-5.03922	33.0439	0.245598	-0.00394473	392765	3030.36	1	11	0.00500312	0.000342916	0	-7.29906e-05	0.000407158	3.45616e-06	4.74525	0.0100787	0.0100442	-0.000833768	-5.0325	14.5999	14.5436	1.28071	0.0682754	0.00602043	0.0685403	5.03922	3.03036e+06	3.43663e+07	3.44996e+07	-84.9608	0.0000000E+000	0.0000000E+000	0.0000000E+000	84.9608	0.0000000E+000	0.0000000E+000	0.0000000E+000	-84.9608	0.0000000E+000	0.0000000E+000	0.0000000E+000	-5.03922	0.0000000E+000	0.0000000E+000	0.0000000E+000	5.03922	11.3406	84.9608	-3.16593e-05	-9.68816e-07	-1.60613e-09	-9.6721e-07	0.245191	62259.8	103.216	62156.5
0.0999041	15.2057	2.44321	15.4007	-9.12815	78.252	0.245584	-0.00779969	652042	16410.4	1	11	0.00500849	0.000325212	0	-6.48627e-05	0.000101749	2.56021e-06	9.12029	0.00787243	0.00777291	-0.00124784	-9.11898	15.4082	15.2134	2.44197	0.0641099	0.010301	0.0649322	9.12815	1.64104e+07	1.02132e+08	1.03442e+08	-80.8718	0.0000000E+000	0.0000000E+000	0.0000000E+000	80.8718	0.0000000E+000	0.0000000E+000	0.0000000E+000	-80.8718	0.0000000E+000	0.0000000E+000	0.0000000E+000	-9.12815	0.0000000E+000	0.0000000E+000	0.0000000E+000	9.12815	6.22363	80.8718	3.73859e-05	-1.91548e-06	-7.93614e-10	-1.91469e-06	0.245483	31486.4	13.0453	31473.4
0.0315922	16.7697	5.40901	17.6205	-17.8769	242.778	0.245581	-0.00549725	931370	87765.1	1	12	0.00500662	0.000284136	0	-9.40693e-05	0.000101749	3.01617e-06	19.1823	0.0106152	0.0100258	-0.00348789	-17.8561	17.629	16.7798	5.40552	0.054012	0.0174213	0.0567521	17.8769	8.77651e+07	2.72101e+08	2.85905e+08	-72.1231	0.0000000E+000	0.0000000E+000	0.0000000E+000	72.1231	0.0000000E+000	0.0000000E+000	0.0000000E+000	-72.1231	0.0000000E+000	0.0000000E+000	0.0000000E+000	-17.8769	0.0000000E+000	0.0000000E+000	0.0000000E+000	17.8769	3.10033	72.1231	-0.000108229	-1.35002e-06	-5.59342e-10	-1.34946e-06	0.245479	44673.5	18.5091	44654.9
0.0100092	20.2	12.2738	23.6365	-31.2835	694.001	0.245587	-0.00914143	1.29551e+06	349328	1	12	0.00500382	0.000211699	0	-0.00232296	0.000330806	3.25438e-06	-99.6166	0.0153727	-0.00256808	0.0151567	-31.3181	23.6422	20.1974	12.289	0.0361562	0.0219691	0.0423074	31.2835	3.49328e+08	5.74917e+08	6.72726e+08	-58.7165	0.0000000E+000	0.0000000E+000	0.0000000E+000	58.7165	0.0000000E+000	0.0000000E+000	0.0000000E+000	-58.7165	0.0000000E+000	0.0000000E+000	0.0000000E+000	-31.2835	0.0000000E+000	0.0000000E+000	0.0000000E+000	31.2835	1.64578	58.7165	-0.00101244	-2.24502e-06	-3.02404e-09	-2.24199e-06	0.245257	26865.3	36.1876	26829.1