File: txt/18723_R302_UA698_SOC00_C03.mpt
EC-Lab ASCII FILE
Nb header lines : 65

Potentio Electrochemical Impedance Spectroscopy

Run on channel : 3 (SN 65921)
User :
CE vs. WE compliance from -10 V to 10 V
Electrode connection : standard
Potential control : Ewe
Ewe ctrl range : min = -10.00 V, max = 10.00 V
Safety Limits :
	Do not start on E overload
Acquisition started on : 10/31/2025 10:59:39.821
Technique started on : 10/31/2025 10:59:41.600
Loaded Setting File :  C:\Users\Celltest\OneDrive - store-dot.com\Documents\EC-Lab\Data\@Biologic Test Protocols\anode half cell EIS SOC00.mps
Saved on :
	File : 18723_R302_UA698_SOC00_C03.mpr
	Directory : C:\Users\Celltest\OneDrive - store-dot.com\Documents\EC-Lab\Data\Charmaine\
	Host : 169.254.61.224
Device : VMP-3e (SN .003165)
Address : USB
EC-LAB for windows v11.62 (software)
Internet server v27.00 (firmware)
Command interpretor v12.03 (firmware)
Electrode material :
Initial state :
Electrolyte :
Comments :
Electrode surface area : 0.001 cm²
Characteristic mass : 0.001 g
Equivalent Weight : 0.000 g/eq.
Density : 0.000 g/cm3
Volume (V) : 0.001 cm³
Record Ece
Cycle Definition : Charge/Discharge alternance
Mode                Single sine
E (V)               0.0000
vs.                 Eoc
tE (h:m:s)          0:00:0.0000
record              0
dI                  0.000
unit dI             mA
dt (s)              0.000
fi                  100.000
unit fi             kHz
ff                  10.000
unit ff             mHz
Nd                  6
Points              per decade
spacing             Logarithmic
Va (mV)             5.0
pw                  0.10
Na                  2
corr                0
E range min (V)     -10.000
E range max (V)     10.000
I Range             Auto
Bandwidth           5
nc cycles           0
goto Ns'            0
nr cycles           0
inc. cycle          0

freq/Hz	Re(Z)/Ohm	-Im(Z)/Ohm	|Z|/Ohm	Phase(Z)/deg	time/s	<Ewe>/V	<I>/mA	Cs/µF	Cp/µF	cycle number	I Range	|Ewe|/V	|I|/A	Ns	(Q-Qo)/mA.h	<Ece>/V	|Ece|/V	Phase(Zce)/deg	|Zce|/Ohm	Re(Zce)/Ohm	-Im(Zce)/Ohm	Phase(Zwe-ce)/deg	|Zwe-ce|/Ohm	Re(Zwe-ce)/Ohm	-Im(Zwe-ce)/Ohm	Re(Y)/Ohm-1	Im(Y)/Ohm-1	|Y|/Ohm-1	Phase(Y)/deg	Re(C)/nF	Im(C)/nF	|C|/nF	Phase(C)/deg	Re(M)	Im(M)	|M|	Phase(M)/deg	Re(Permittivity)	Im(Permittivity)	|Permittivity|	Phase(Permittivity)/deg	Re(Resistivity)/Ohm.cm	Im(Resistivity)/Ohm.cm	|Resistivity|/Ohm.cm	Phase(Resistivity)/deg	Re(Conductivity)/mS/cm	Im(Conductivity)/mS/cm	|Conductivity|/mS/cm	Phase(Conductivity)/deg	Tan(Delta)	Loss Angle(Delta)/deg	dq/mA.h	Pwe/W	Pce/W	Pwe-ce/W	<Ewe-Ece>/V	Rwe/Ohm	Rce/Ohm	Rwe-ce/Ohm		Ewe-Ece/V
100004	1.4372	0.607567	1.56035	-22.9159	1.77856	0.262717	0.0517944	2.61945	0.39715	1	9	0.00607963	0.00389633	0	7.4974e-06	1.49552e-05	3.672e-05	50.7726	0.00942426	0.0059599	-0.00730043	-22.5843	1.56302	1.44316	0.600267	0.590302	0.249546	0.640882	22.9159	397.15	939.461	1019.96	-67.0841	0.0000000E+000	0.0000000E+000	0.0000000E+000	67.0841	0.0000000E+000	0.0000000E+000	0.0000000E+000	-67.0841	0.0000000E+000	0.0000000E+000	0.0000000E+000	-22.9159	0.0000000E+000	0.0000000E+000	0.0000000E+000	22.9159	2.3655	67.0841	7.4974e-06	1.36073e-05	7.74598e-10	1.36065e-05	0.262702	5072.32	0.288743	5072.03
31621.1	2.02763	0.916232	2.22503	-24.317	3.05353	0.262675	0.0464241	5.49335	0.931486	1	9	0.00532189	0.00239183	0	8.16697e-06	-0.000118703	1.12e-05	27.6142	0.00468259	0.00414919	-0.00217045	-24.2222	2.22792	2.03178	0.914062	0.409559	0.185069	0.449432	24.317	931.486	2061.39	2262.07	-65.683	0.0000000E+000	0.0000000E+000	0.0000000E+000	65.683	0.0000000E+000	0.0000000E+000	0.0000000E+000	-65.683	0.0000000E+000	0.0000000E+000	0.0000000E+000	-24.317	0.0000000E+000	0.0000000E+000	0.0000000E+000	24.317	2.21301	65.683	1.72878e-06	1.21945e-05	-5.51069e-09	1.22e-05	0.262794	5658.16	2.55693	5660.72
10002.2	2.74829	1.16357	2.98445	-22.9468	4.20452	0.262677	0.0433287	13.6751	2.07867	1	9	0.00484638	0.00162387	0	1.89777e-05	-9.96091e-05	7.8434e-06	-49.9496	0.00483005	0.00310796	0.0036973	-22.9889	2.98876	2.75139	1.16727	0.308555	0.130636	0.33507	22.9468	2078.67	4909.71	5331.61	-67.0532	0.0000000E+000	0.0000000E+000	0.0000000E+000	67.0532	0.0000000E+000	0.0000000E+000	0.0000000E+000	-67.0532	0.0000000E+000	0.0000000E+000	0.0000000E+000	-22.9468	0.0000000E+000	0.0000000E+000	0.0000000E+000	22.9468	2.36195	67.0532	2.18273e-06	1.13814e-05	-4.31593e-09	1.13858e-05	0.262776	6062.42	2.29892	6064.72
3163.08	3.4181	1.69098	3.8135	-26.3223	5.73962	0.262672	-0.000757572	29.7558	5.85061	1	10	0.00478123	0.00125376	0	3.12133e-05	-0.000156891	5.6965e-06	132.436	0.00454352	-0.00306579	-0.00335328	-26.2975	3.80927	3.41503	1.68763	0.235037	0.116276	0.262226	26.3223	5850.61	11826.2	13194.3	-63.6777	0.0000000E+000	0.0000000E+000	0.0000000E+000	63.6777	0.0000000E+000	0.0000000E+000	0.0000000E+000	-63.6777	0.0000000E+000	0.0000000E+000	0.0000000E+000	-26.3223	0.0000000E+000	0.0000000E+000	0.0000000E+000	26.3223	2.02137	63.6777	8.05939e-06	-1.98993e-07	1.18857e-10	-1.99112e-07	0.262829	346729	207.098	346936
1000.32	4.23835	3.15174	5.28177	-36.6354	7.73477	0.262691	0.00180789	50.4813	17.9752	1	10	0.0050305	0.000952428	0	3.2975e-05	-0.000309644	1.06676e-05	-73.109	0.0112005	0.00325432	0.0107173	-36.7075	5.29078	4.2416	3.16246	0.151928	0.112978	0.189331	36.6354	17975.2	24172.4	30123.2	-53.3646	0.0000000E+000	0.0000000E+000	0.0000000E+000	53.3646	0.0000000E+000	0.0000000E+000	0.0000000E+000	-53.3646	0.0000000E+000	0.0000000E+000	0.0000000E+000	-36.6354	0.0000000E+000	0.0000000E+000	0.0000000E+000	36.6354	1.34476	53.3646	1.54608e-07	4.74915e-07	-5.59801e-10	4.75475e-07	0.263	145302	171.274	145474
316.316	6.71895	6.68536	9.47831	-44.8564	9.29702	0.262685	0.00208754	75.2618	37.4423	1	10	0.00509413	0.000537451	0	3.49996e-05	-0.000156891	6.51217e-06	-86.2203	0.0121168	0.000798752	0.0120904	-44.9048	9.48741	6.71975	6.69745	0.0747894	0.0744154	0.105504	44.8564	37442.3	37630.4	53084.6	-45.1436	0.0000000E+000	0.0000000E+000	0.0000000E+000	45.1436	0.0000000E+000	0.0000000E+000	0.0000000E+000	-45.1436	0.0000000E+000	0.0000000E+000	0.0000000E+000	-44.8564	0.0000000E+000	0.0000000E+000	0.0000000E+000	44.8564	1.00503	45.1436	7.89375e-07	5.48365e-07	-3.27517e-10	5.48692e-07	0.262842	125835	75.1562	125910
100.032	13.7921	12.997	18.9511	-43.3001	10.6428	0.262676	0.00197194	122.416	57.578	1	10	0.00478779	0.000252639	0	3.62135e-05	-4.13882e-06	7.86197e-06	-6.93101	0.0311194	0.030892	0.0037553	-43.2444	18.9762	13.823	13.0008	0.0384026	0.0361889	0.0527674	43.3001	57578	61100.1	83955	-46.6999	0.0000000E+000	0.0000000E+000	0.0000000E+000	46.6999	0.0000000E+000	0.0000000E+000	0.0000000E+000	-46.6999	0.0000000E+000	0.0000000E+000	0.0000000E+000	-43.3001	0.0000000E+000	0.0000000E+000	0.0000000E+000	43.3001	1.06117	46.6999	8.65519e-08	5.17982e-07	-8.16149e-12	5.1799e-07	0.26268	133207	2.09886	133209
31.6296	27.9215	14.8881	31.6428	-28.0671	12.2225	0.262677	-0.00324543	337.978	74.8198	1	11	0.00472904	0.000149451	0	3.48416e-05	-2.32329e-05	1.29991e-05	15.1892	0.0869794	0.0839409	-0.0227892	-27.9594	31.7062	28.0054	14.8653	0.0278862	0.0148693	0.0316028	28.0671	74819.8	140319	159020	-61.9329	0.0000000E+000	0.0000000E+000	0.0000000E+000	61.9329	0.0000000E+000	0.0000000E+000	0.0000000E+000	-61.9329	0.0000000E+000	0.0000000E+000	0.0000000E+000	-28.0671	0.0000000E+000	0.0000000E+000	0.0000000E+000	28.0671	1.87543	61.9329	-6.05146e-07	-8.52498e-07	7.54006e-11	-8.52574e-07	0.2627	80937.5	7.15865	80944.6
10.0032	38.1643	9.49857	39.3286	-13.9762	13.5548	0.262689	-0.00309403	1675.03	97.7064	1	11	0.00472157	0.000120055	0	3.36554e-05	0.00012952	1.02287e-05	-98.0999	0.0852003	-0.0120047	0.0843503	-14.0996	39.3374	38.1523	9.58292	0.0246741	0.00614104	0.0254268	13.9762	97706.5	392575	404551	-76.0238	0.0000000E+000	0.0000000E+000	0.0000000E+000	76.0238	0.0000000E+000	0.0000000E+000	0.0000000E+000	-76.0238	0.0000000E+000	0.0000000E+000	0.0000000E+000	-13.9762	0.0000000E+000	0.0000000E+000	0.0000000E+000	13.9762	4.0179	76.0238	2.91736e-07	-8.12766e-07	-4.00738e-10	-8.12366e-07	0.262559	84901.8	41.8611	84859.9
3.1604	42.3847	5.56131	42.748	-7.47509	15.0715	0.262678	-0.00307855	9055.27	153.258	1	11	0.00472514	0.000110535	0	3.34281e-05	-4.13882e-06	4.56514e-06	13.8998	0.0413005	0.0400911	-0.00992143	-7.45493	42.7865	42.4248	5.55139	0.0231941	0.0030433	0.0233929	7.47509	153258	1.16803e+06	1.17805e+06	-82.5249	0.0000000E+000	0.0000000E+000	0.0000000E+000	82.5249	0.0000000E+000	0.0000000E+000	0.0000000E+000	-82.5249	0.0000000E+000	0.0000000E+000	0.0000000E+000	-7.47509	0.0000000E+000	0.0000000E+000	0.0000000E+000	7.47509	7.62136	82.5249	7.88414e-07	-8.08669e-07	1.27416e-11	-8.08682e-07	0.262682	85325.2	1.3444	85326.6
1.00006	44.9755	4.39819	45.19	-5.58524	20.3936	0.262674	-0.00323081	36184.2	342.753	1	12	0.00472391	0.000104534	0	2.40907e-05	-0.000405114	2.51462e-06	16.9903	0.0240554	0.0230055	-0.00702921	-5.57354	45.2122	44.9985	4.39116	0.0220237	0.00215372	0.0221288	5.58524	342753	3.50496e+06	3.52168e+06	-84.4148	0.0000000E+000	0.0000000E+000	0.0000000E+000	84.4148	0.0000000E+000	0.0000000E+000	0.0000000E+000	-84.4148	0.0000000E+000	0.0000000E+000	0.0000000E+000	-5.58524	0.0000000E+000	0.0000000E+000	0.0000000E+000	5.58524	10.2259	84.4148	-4.4125e-06	-8.48649e-07	1.30885e-09	-8.49958e-07	0.263079	81302.9	125.391	81428.3
0.316193	47.2918	4.77461	47.5322	-5.76508	34.7348	0.262677	-0.00371153	105422	1063.72	1	12	0.00472332	9.9371e-05	0	2.17027e-05	-6.1421e-05	3.19076e-06	-22.2922	0.0321095	0.0297097	0.0121801	-5.77608	47.563	47.3215	4.78679	0.0209319	0.0021133	0.0210384	5.76508	1.06373e+06	1.0536e+07	1.05896e+07	-84.2349	0.0000000E+000	0.0000000E+000	0.0000000E+000	84.2349	0.0000000E+000	0.0000000E+000	0.0000000E+000	-84.2349	0.0000000E+000	0.0000000E+000	0.0000000E+000	-5.76508	0.0000000E+000	0.0000000E+000	0.0000000E+000	5.76508	9.90485	84.2349	1.92332e-06	-9.74933e-07	2.27966e-10	-9.75161e-07	0.262738	70773.1	16.5487	70789.7
0.0999041	50.8806	5.84874	51.2157	-6.55739	79.9436	0.262674	-0.00142061	272379	3552.17	1	12	0.00472341	9.22259e-05	0	7.21454e-06	3.40493e-05	1.93493e-06	-66.0963	0.0209804	0.00850125	0.0191808	-6.57761	51.2263	50.8891	5.86793	0.0193975	0.00222975	0.0195253	6.55739	3.55217e+06	3.09018e+07	3.11053e+07	-83.4426	0.0000000E+000	0.0000000E+000	0.0000000E+000	83.4426	0.0000000E+000	0.0000000E+000	0.0000000E+000	-83.4426	0.0000000E+000	0.0000000E+000	0.0000000E+000	-6.55739	0.0000000E+000	0.0000000E+000	0.0000000E+000	6.55739	8.69941	83.4426	-1.57053e-05	-3.73158e-07	-4.83708e-11	-3.73109e-07	0.26264	184902	23.9681	184878
0.0315922	54.5445	9.57398	55.3784	-9.95549	222.828	0.262677	-0.000947829	526196	15727.2	1	12	0.00472552	8.53315e-05	0	-0.000162129	-0.000175985	3.83337e-06	9.62156	0.0449233	0.0442914	-0.00750847	-9.93992	55.4207	54.5888	9.56647	0.0177857	0.00312185	0.0180576	9.95549	1.57272e+07	8.96006e+07	9.09704e+07	-80.0445	0.0000000E+000	0.0000000E+000	0.0000000E+000	80.0445	0.0000000E+000	0.0000000E+000	0.0000000E+000	-80.0445	0.0000000E+000	0.0000000E+000	0.0000000E+000	-9.95549	0.0000000E+000	0.0000000E+000	0.0000000E+000	9.95549	5.69716	80.0445	-7.52493e-05	-2.48973e-07	1.66804e-10	-2.49139e-07	0.262853	277135	185.672	277321
0.0100092	60.3329	19.656	63.454	-18.0452	674.047	0.262673	-0.000841105	808961	77624.4	1	12	0.00472479	7.446e-05	0	-4.43928e-05	5.31434e-05	1.91931e-06	-11.2875	0.0257764	0.0252778	0.00504528	-18.0425	63.4796	60.3581	19.661	0.0149843	0.00488176	0.0157594	18.0452	7.76244e+07	2.38264e+08	2.5059e+08	-71.9548	0.0000000E+000	0.0000000E+000	0.0000000E+000	71.9548	0.0000000E+000	0.0000000E+000	0.0000000E+000	-71.9548	0.0000000E+000	0.0000000E+000	0.0000000E+000	-18.0452	0.0000000E+000	0.0000000E+000	0.0000000E+000	18.0452	3.06944	71.9548	0.000146627	-2.20936e-07	-4.46992e-11	-2.20891e-07	0.26262	312296	63.1828	312232