File: txt/18721_R302_UA698_SOC00_C01.mpt
EC-Lab ASCII FILE
Nb header lines : 65

Potentio Electrochemical Impedance Spectroscopy

Run on channel : 1 (SN 66354)
User :
CE vs. WE compliance from -10 V to 10 V
Electrode connection : standard
Potential control : Ewe
Ewe ctrl range : min = -10.00 V, max = 10.00 V
Safety Limits :
	Do not start on E overload
Acquisition started on : 10/31/2025 10:59:19.911
Technique started on : 10/31/2025 10:59:21.822
Loaded Setting File :  C:\Users\Celltest\OneDrive - store-dot.com\Documents\EC-Lab\Data\@Biologic Test Protocols\anode half cell EIS SOC00.mps
Saved on :
	File : 18721_R302_UA698_SOC00_C01.mpr
	Directory : C:\Users\Celltest\OneDrive - store-dot.com\Documents\EC-Lab\Data\Charmaine\
	Host : 169.254.61.224
Device : VMP-3e (SN .003165)
Address : USB
EC-LAB for windows v11.62 (software)
Internet server v27.00 (firmware)
Command interpretor v12.03 (firmware)
Electrode material :
Initial state :
Electrolyte :
Comments :
Electrode surface area : 0.001 cm²
Characteristic mass : 0.001 g
Equivalent Weight : 0.000 g/eq.
Density : 0.000 g/cm3
Volume (V) : 0.001 cm³
Record Ece
Cycle Definition : Charge/Discharge alternance
Mode                Single sine
E (V)               0.0000
vs.                 Eoc
tE (h:m:s)          0:00:0.0000
record              0
dI                  0.000
unit dI             mA
dt (s)              0.000
fi                  100.000
unit fi             kHz
ff                  10.000
unit ff             mHz
Nd                  6
Points              per decade
spacing             Logarithmic
Va (mV)             5.0
pw                  0.10
Na                  2
corr                0
E range min (V)     -10.000
E range max (V)     10.000
I Range             Auto
Bandwidth           5
nc cycles           0
goto Ns'            0
nr cycles           0
inc. cycle          0

freq/Hz	Re(Z)/Ohm	-Im(Z)/Ohm	|Z|/Ohm	Phase(Z)/deg	time/s	<Ewe>/V	<I>/mA	Cs/µF	Cp/µF	cycle number	I Range	|Ewe|/V	|I|/A	Ns	(Q-Qo)/mA.h	<Ece>/V	|Ece|/V	Phase(Zce)/deg	|Zce|/Ohm	Re(Zce)/Ohm	-Im(Zce)/Ohm	Phase(Zwe-ce)/deg	|Zwe-ce|/Ohm	Re(Zwe-ce)/Ohm	-Im(Zwe-ce)/Ohm	Re(Y)/Ohm-1	Im(Y)/Ohm-1	|Y|/Ohm-1	Phase(Y)/deg	Re(C)/nF	Im(C)/nF	|C|/nF	Phase(C)/deg	Re(M)	Im(M)	|M|	Phase(M)/deg	Re(Permittivity)	Im(Permittivity)	|Permittivity|	Phase(Permittivity)/deg	Re(Resistivity)/Ohm.cm	Im(Resistivity)/Ohm.cm	|Resistivity|/Ohm.cm	Phase(Resistivity)/deg	Re(Conductivity)/mS/cm	Im(Conductivity)/mS/cm	|Conductivity|/mS/cm	Phase(Conductivity)/deg	Tan(Delta)	Loss Angle(Delta)/deg	dq/mA.h	Pwe/W	Pce/W	Pwe-ce/W	<Ewe-Ece>/V	Rwe/Ohm	Rce/Ohm	Rwe-ce/Ohm		Ewe-Ece/V
100004	1.26917	0.648754	1.42537	-27.0745	1.91051	0.264325	0.0710022	2.45315	0.508194	1	9	0.00481153	0.00337564	0	1.39242e-05	-7.39696e-05	4.2086e-05	82.5989	0.0124675	0.00160601	-0.0123637	-26.6012	1.42122	1.27078	0.636391	0.624691	0.31932	0.701573	27.0745	508.194	994.19	1116.55	-62.9255	0.0000000E+000	0.0000000E+000	0.0000000E+000	62.9255	0.0000000E+000	0.0000000E+000	0.0000000E+000	-62.9255	0.0000000E+000	0.0000000E+000	0.0000000E+000	-27.0745	0.0000000E+000	0.0000000E+000	0.0000000E+000	27.0745	1.95632	62.9255	1.39242e-05	1.87677e-05	-5.252e-09	1.87729e-05	0.264399	3722.78	1.04179	3723.82
31621.1	1.85446	0.87602	2.05096	-25.2854	3.43354	0.264331	0.0656376	5.74551	1.0482	1	9	0.00500949	0.00244252	0	4.92186e-05	0.000135881	7.61083e-06	18.1373	0.00311598	0.00296115	-0.000969989	-25.2256	2.05322	1.85742	0.87505	0.440864	0.208258	0.487578	25.2854	1048.2	2218.95	2454.07	-64.7146	0.0000000E+000	0.0000000E+000	0.0000000E+000	64.7146	0.0000000E+000	0.0000000E+000	0.0000000E+000	-64.7146	0.0000000E+000	0.0000000E+000	0.0000000E+000	-25.2854	0.0000000E+000	0.0000000E+000	0.0000000E+000	25.2854	2.11691	64.7146	1.94942e-05	1.735e-05	8.91889e-09	1.73411e-05	0.264195	4027.12	2.07017	4025.05
10002.2	2.49948	1.08472	2.7247	-23.4598	4.33654	0.26432	0.0689904	14.6692	2.3249	1	9	0.00463621	0.00170155	0	6.82346e-05	5.95716e-05	7.17561e-06	-112.442	0.00421711	-0.00160989	0.00389772	-23.5485	2.72478	2.49787	1.08862	0.336675	0.14611	0.367013	23.4598	2324.9	5357.16	5839.89	-66.5402	0.0000000E+000	0.0000000E+000	0.0000000E+000	66.5402	0.0000000E+000	0.0000000E+000	0.0000000E+000	-66.5402	0.0000000E+000	0.0000000E+000	0.0000000E+000	-23.4598	0.0000000E+000	0.0000000E+000	0.0000000E+000	23.4598	2.30426	66.5402	4.12873e-06	1.82356e-05	4.10987e-09	1.82315e-05	0.264261	3831.26	0.863476	3830.4
3163.08	3.18321	1.62867	3.57567	-27.0963	5.35768	0.264098	0.0531946	30.8942	6.40958	1	9	0.00465503	0.00130186	0	8.43341e-05	0.000174035	9.3934e-06	-41.8738	0.00721535	0.00537267	0.00481618	-27.1257	3.58264	3.18858	1.63349	0.248972	0.127385	0.279668	27.0963	6409.57	12527.4	14071.9	-62.9037	0.0000000E+000	0.0000000E+000	0.0000000E+000	62.9037	0.0000000E+000	0.0000000E+000	0.0000000E+000	-62.9037	0.0000000E+000	0.0000000E+000	0.0000000E+000	-27.0963	0.0000000E+000	0.0000000E+000	0.0000000E+000	27.0963	1.95448	62.9037	6.41045e-06	1.40486e-05	9.25774e-09	1.40393e-05	0.263924	4964.76	3.27167	4961.48
1000.32	4.19038	3.07684	5.19867	-36.2885	6.95577	0.264221	-0.0101079	51.7102	18.1134	1	10	0.00467049	0.000898401	0	8.85718e-05	2.1417e-05	1.1342e-05	7.68548	0.0126247	0.0125113	-0.00168836	-36.192	5.20776	4.20289	3.07515	0.155049	0.113847	0.192357	36.2885	18113.4	24668.9	30604.7	-53.7115	0.0000000E+000	0.0000000E+000	0.0000000E+000	53.7115	0.0000000E+000	0.0000000E+000	0.0000000E+000	-53.7115	0.0000000E+000	0.0000000E+000	0.0000000E+000	-36.2885	0.0000000E+000	0.0000000E+000	0.0000000E+000	36.2885	1.36191	53.7115	-1.84421e-06	-2.67072e-06	-2.1648e-10	-2.6705e-06	0.2642	26140.1	2.11883	26138
316.316	6.43808	6.64551	9.25266	-45.9083	8.30604	0.264222	-0.0102756	75.7131	39.0566	1	10	0.00459074	0.000496153	0	8.55656e-05	-3.5815e-05	4.67628e-06	13.248	0.00942507	0.00917425	-0.00215991	-45.8582	9.25749	6.44726	6.64335	0.075201	0.0776239	0.108077	45.9083	39056.6	37837.5	54379.2	-44.0917	0.0000000E+000	0.0000000E+000	0.0000000E+000	44.0917	0.0000000E+000	0.0000000E+000	0.0000000E+000	-44.0917	0.0000000E+000	0.0000000E+000	0.0000000E+000	-45.9083	0.0000000E+000	0.0000000E+000	0.0000000E+000	45.9083	0.968787	44.0917	-9.98358e-07	-2.71505e-06	3.68021e-10	-2.71542e-06	0.264258	25713.5	3.48543	25717
100.032	13.4055	12.837	18.5606	-43.759	9.65283	0.264217	-0.0106185	123.941	59.2871	1	10	0.00456604	0.000246006	0	8.15891e-05	7.86489e-05	1.62671e-05	-59.8009	0.0661247	0.0332612	0.0571505	-43.8152	18.6242	13.4388	12.8942	0.0389132	0.0372631	0.0538774	43.759	59287.1	61912.5	85721.2	-46.241	0.0000000E+000	0.0000000E+000	0.0000000E+000	46.241	0.0000000E+000	0.0000000E+000	0.0000000E+000	-46.241	0.0000000E+000	0.0000000E+000	0.0000000E+000	-43.759	0.0000000E+000	0.0000000E+000	0.0000000E+000	43.759	1.04428	46.241	-1.05997e-06	-2.80559e-06	-8.35134e-10	-2.80475e-06	0.264138	24882.7	7.40677	24875.2
31.6296	27.6439	14.9469	31.426	-28.3998	11.2325	0.264279	-0.00230924	336.648	76.1551	1	11	0.00456051	0.000145119	0	8.07164e-05	-3.5815e-05	1.06425e-05	-25.5294	0.0733368	0.0661765	0.0316063	-28.3932	31.4993	27.7101	14.9785	0.0279911	0.0151346	0.0318207	28.3998	76155.1	140847	160117	-61.6002	0.0000000E+000	0.0000000E+000	0.0000000E+000	61.6002	0.0000000E+000	0.0000000E+000	0.0000000E+000	-61.6002	0.0000000E+000	0.0000000E+000	0.0000000E+000	-28.3998	0.0000000E+000	0.0000000E+000	0.0000000E+000	28.3998	1.84947	61.6002	-4.48121e-08	-6.10283e-07	8.27054e-11	-6.10366e-07	0.264314	114444	15.5094	114459
10.0032	37.9428	9.49519	39.1128	-14.0497	12.5648	0.264275	-0.00209177	1675.63	98.7522	1	11	0.00456106	0.000116613	0	7.99662e-05	-0.000150279	9.57884e-06	-18.4135	0.0821421	0.0779366	0.0259464	-14.0589	39.1947	38.0207	9.52114	0.0248022	0.00620677	0.0255671	14.0497	98752.2	394614	406782	-75.9503	0.0000000E+000	0.0000000E+000	0.0000000E+000	75.9503	0.0000000E+000	0.0000000E+000	0.0000000E+000	-75.9503	0.0000000E+000	0.0000000E+000	0.0000000E+000	-14.0497	0.0000000E+000	0.0000000E+000	0.0000000E+000	14.0497	3.996	75.9503	-9.47668e-07	-5.528e-07	3.14348e-10	-5.53115e-07	0.264425	126340	71.8431	126412
3.1604	42.1353	5.51097	42.4941	-7.45155	14.0814	0.264283	-0.000747246	9137.99	153.691	1	11	0.00456237	0.000107365	0	7.86044e-05	9.77262e-05	8.07409e-06	72.6834	0.0752025	0.0223841	-0.071794	-7.35168	42.5071	42.1576	5.43917	0.0233339	0.0030519	0.0235327	7.45155	153691	1.17508e+06	1.18509e+06	-82.5484	0.0000000E+000	0.0000000E+000	0.0000000E+000	82.5484	0.0000000E+000	0.0000000E+000	0.0000000E+000	-82.5484	0.0000000E+000	0.0000000E+000	0.0000000E+000	-7.45155	0.0000000E+000	0.0000000E+000	0.0000000E+000	7.45155	7.64571	82.5484	-1.50236e-06	-1.97485e-07	-7.30255e-11	-1.97412e-07	0.264186	353676	130.782	353546
1.00006	44.7813	4.36493	44.9935	-5.56716	19.403	0.264288	-0.000772974	36459.9	343.138	1	12	0.00456192	0.000101391	0	8.2619e-05	-0.000188433	3.37963e-06	14.2408	0.0333328	0.0323085	-0.00819978	-5.55278	45.0249	44.8136	4.35673	0.0221206	0.00215614	0.0222254	5.56716	343138	3.52037e+06	3.53706e+06	-84.4328	0.0000000E+000	0.0000000E+000	0.0000000E+000	84.4328	0.0000000E+000	0.0000000E+000	0.0000000E+000	-84.4328	0.0000000E+000	0.0000000E+000	0.0000000E+000	-5.56716	0.0000000E+000	0.0000000E+000	0.0000000E+000	5.56716	10.2593	84.4328	2.1158e-06	-2.04288e-07	1.45654e-10	-2.04433e-07	0.264476	341910	243.777	342154
0.316193	47.6928	4.67506	47.9214	-5.5985	33.7452	0.264285	-0.000316076	107666	1024.7	1	12	0.00456162	9.51896e-05	0	6.95321e-05	-0.000245665	2.9993e-06	13.4554	0.0315087	0.0306438	-0.00733172	-5.58621	47.9512	47.7234	4.66773	0.020768	0.00203577	0.0208675	5.5985	1.0247e+06	1.04535e+07	1.05036e+07	-84.4015	0.0000000E+000	0.0000000E+000	0.0000000E+000	84.4015	0.0000000E+000	0.0000000E+000	0.0000000E+000	-84.4015	0.0000000E+000	0.0000000E+000	0.0000000E+000	-5.5985	0.0000000E+000	0.0000000E+000	0.0000000E+000	5.5985	10.2015	84.4015	-9.23629e-06	-8.35341e-08	7.76489e-11	-8.36118e-08	0.264531	836144	777.235	836921
0.0999041	51.0439	5.84913	51.3779	-6.53702	78.9541	0.264286	-0.00111158	272361	3530	1	12	0.00456562	8.88634e-05	0	4.79572e-05	0.000135881	2.28555e-06	10.563	0.0257198	0.025284	-0.00471487	-6.52859	51.4025	51.0692	5.84441	0.0193371	0.00221584	0.0194636	6.53702	3.53e+06	3.08054e+07	3.1007e+07	-83.463	0.0000000E+000	0.0000000E+000	0.0000000E+000	83.463	0.0000000E+000	0.0000000E+000	0.0000000E+000	-83.463	0.0000000E+000	0.0000000E+000	0.0000000E+000	-6.53702	0.0000000E+000	0.0000000E+000	0.0000000E+000	6.53702	8.72675	83.463	5.31563e-07	-2.93776e-07	-1.51043e-10	-2.93625e-07	0.264151	237757	122.241	237635
0.0315922	54.9598	9.46646	55.7691	-9.77293	221.837	0.264283	-0.00028943	532172	15333.5	1	12	0.00456495	8.18545e-05	0	0.000155392	9.77262e-05	3.05225e-06	4.75768	0.0372887	0.0371602	-0.00309279	-9.76332	55.8052	54.9969	9.46337	0.0176709	0.00304369	0.0179311	9.77293	1.53335e+07	8.90221e+07	9.0333e+07	-80.2271	0.0000000E+000	0.0000000E+000	0.0000000E+000	80.2271	0.0000000E+000	0.0000000E+000	0.0000000E+000	-80.2271	0.0000000E+000	0.0000000E+000	0.0000000E+000	-9.77293	0.0000000E+000	0.0000000E+000	0.0000000E+000	9.77293	5.80574	80.2271	5.194e-05	-7.64913e-08	-2.82849e-11	-7.6463e-08	0.264185	913115	337.651	912778
0.0100092	61.1577	19.3839	64.1561	-17.586	673.059	0.264289	0.000218306	820315	74883.7	1	12	0.0045634	7.11297e-05	0	-2.59785e-05	2.33964e-06	2.59051e-06	-2.57685	0.0364196	0.0363828	0.0016374	-17.5776	64.1913	61.1941	19.3855	0.0148585	0.0047094	0.015587	17.586	7.48837e+07	2.36264e+08	2.47847e+08	-72.414	0.0000000E+000	0.0000000E+000	0.0000000E+000	72.414	0.0000000E+000	0.0000000E+000	0.0000000E+000	-72.414	0.0000000E+000	0.0000000E+000	0.0000000E+000	-17.586	0.0000000E+000	0.0000000E+000	0.0000000E+000	17.586	3.15508	72.414	-0.00016654	5.7696e-08	5.10759e-13	5.76955e-08	0.264287	1.21063e+06	10.7173	1.21062e+06