File: txt/18729_R302_UA699_SOC00_C04.mpt
EC-Lab ASCII FILE
Nb header lines : 65

Potentio Electrochemical Impedance Spectroscopy

Run on channel : 4 (SN 66756)
User :
CE vs. WE compliance from -10 V to 10 V
Electrode connection : standard
Potential control : Ewe
Ewe ctrl range : min = -10.00 V, max = 10.00 V
Safety Limits :
	Do not start on E overload
Acquisition started on : 10/31/2025 11:24:10.521
Technique started on : 10/31/2025 11:24:12.433
Loaded Setting File :  C:\Users\Celltest\OneDrive - store-dot.com\Documents\EC-Lab\Data\@Biologic Test Protocols\anode half cell EIS SOC00.mps
Saved on :
	File : 18729_R302_UA699_SOC00_C04.mpr
	Directory : C:\Users\Celltest\OneDrive - store-dot.com\Documents\EC-Lab\Data\Charmaine\
	Host : 169.254.61.224
Device : VMP-3e (SN .003165)
Address : USB
EC-LAB for windows v11.62 (software)
Internet server v27.00 (firmware)
Command interpretor v12.03 (firmware)
Electrode material :
Initial state :
Electrolyte :
Comments :
Electrode surface area : 0.001 cm²
Characteristic mass : 0.001 g
Equivalent Weight : 0.000 g/eq.
Density : 0.000 g/cm3
Volume (V) : 0.001 cm³
Record Ece
Cycle Definition : Charge/Discharge alternance
Mode                Single sine
E (V)               0.0000
vs.                 Eoc
tE (h:m:s)          0:00:0.0000
record              0
dI                  0.000
unit dI             mA
dt (s)              0.000
fi                  100.000
unit fi             kHz
ff                  10.000
unit ff             mHz
Nd                  6
Points              per decade
spacing             Logarithmic
Va (mV)             5.0
pw                  0.10
Na                  2
corr                0
E range min (V)     -10.000
E range max (V)     10.000
I Range             Auto
Bandwidth           5
nc cycles           0
goto Ns'            0
nr cycles           0
inc. cycle          0

freq/Hz	Re(Z)/Ohm	-Im(Z)/Ohm	|Z|/Ohm	Phase(Z)/deg	time/s	<Ewe>/V	<I>/mA	Cs/µF	Cp/µF	cycle number	I Range	|Ewe|/V	|I|/A	Ns	(Q-Qo)/mA.h	<Ece>/V	|Ece|/V	Phase(Zce)/deg	|Zce|/Ohm	Re(Zce)/Ohm	-Im(Zce)/Ohm	Phase(Zwe-ce)/deg	|Zwe-ce|/Ohm	Re(Zwe-ce)/Ohm	-Im(Zwe-ce)/Ohm	Re(Y)/Ohm-1	Im(Y)/Ohm-1	|Y|/Ohm-1	Phase(Y)/deg	Re(C)/nF	Im(C)/nF	|C|/nF	Phase(C)/deg	Re(M)	Im(M)	|M|	Phase(M)/deg	Re(Permittivity)	Im(Permittivity)	|Permittivity|	Phase(Permittivity)/deg	Re(Resistivity)/Ohm.cm	Im(Resistivity)/Ohm.cm	|Resistivity|/Ohm.cm	Phase(Resistivity)/deg	Re(Conductivity)/mS/cm	Im(Conductivity)/mS/cm	|Conductivity|/mS/cm	Phase(Conductivity)/deg	Tan(Delta)	Loss Angle(Delta)/deg	dq/mA.h	Pwe/W	Pce/W	Pwe-ce/W	<Ewe-Ece>/V	Rwe/Ohm	Rce/Ohm	Rwe-ce/Ohm		Ewe-Ece/V
100004	1.39435	0.742969	1.57994	-28.0507	1.91156	0.271973	-0.035455	2.14207	0.473691	1	9	0.00474359	0.00300239	0	-3.6751e-06	-0.000263931	3.02601e-05	85.2503	0.0100787	0.000834544	-0.010044	-27.7141	1.57598	1.39518	0.732925	0.558587	0.29764	0.632937	28.0507	473.691	888.985	1007.31	-61.9493	0.0000000E+000	0.0000000E+000	0.0000000E+000	61.9493	0.0000000E+000	0.0000000E+000	0.0000000E+000	-61.9493	0.0000000E+000	0.0000000E+000	0.0000000E+000	-28.0507	0.0000000E+000	0.0000000E+000	0.0000000E+000	28.0507	1.87672	61.9493	-3.6751e-06	-9.64282e-06	9.35768e-09	-9.65218e-06	0.272237	7670.94	7.44411	7678.38
31621.1	2.09111	0.992353	2.31463	-25.387	3.43455	0.27197	-0.0328815	5.07197	0.932277	1	9	0.00521567	0.00225335	0	-3.66911e-05	-0.000283041	9.78629e-06	-6.31548	0.004343	0.00431665	0.000477743	-25.352	2.31874	2.09543	0.992831	0.390314	0.185226	0.432034	25.387	932.277	1964.52	2174.51	-64.613	0.0000000E+000	0.0000000E+000	0.0000000E+000	64.613	0.0000000E+000	0.0000000E+000	0.0000000E+000	-64.613	0.0000000E+000	0.0000000E+000	0.0000000E+000	-25.387	0.0000000E+000	0.0000000E+000	0.0000000E+000	25.387	2.10723	64.613	-1.5526e-05	-8.94279e-06	9.30682e-09	-8.9521e-06	0.272253	8271.22	8.60791	8279.82
10002.2	2.84766	1.18368	3.08387	-22.5711	4.58356	0.271975	-0.0378421	13.4428	1.98045	1	9	0.00499634	0.00162015	0	-4.22851e-05	-9.19415e-05	5.91053e-06	-140.441	0.00364814	-0.00281259	0.00232341	-22.631	3.08217	2.84485	1.186	0.29943	0.124463	0.324268	22.5711	1980.45	4764.52	5159.73	-67.4289	0.0000000E+000	0.0000000E+000	0.0000000E+000	67.4289	0.0000000E+000	0.0000000E+000	0.0000000E+000	-67.4289	0.0000000E+000	0.0000000E+000	0.0000000E+000	-22.5711	0.0000000E+000	0.0000000E+000	0.0000000E+000	22.5711	2.40577	67.4289	-3.2829e-06	-1.02921e-05	3.47926e-09	-1.02956e-05	0.272067	7187.1	2.42961	7189.53
3163.08	3.65007	1.61461	3.99124	-23.8623	5.69063	0.271861	-0.0288477	31.1631	5.09992	1	10	0.00485893	0.0012174	0	-5.38291e-05	-0.000187491	7.07005e-06	49.8554	0.00580752	0.00374422	-0.00443938	-23.7823	3.99287	3.65382	1.61018	0.229132	0.101357	0.250549	23.8623	5099.92	11529.1	12606.7	-66.1377	0.0000000E+000	0.0000000E+000	0.0000000E+000	66.1377	0.0000000E+000	0.0000000E+000	0.0000000E+000	-66.1377	0.0000000E+000	0.0000000E+000	0.0000000E+000	-23.8623	0.0000000E+000	0.0000000E+000	0.0000000E+000	23.8623	2.26065	66.1377	-5.19021e-06	-7.84255e-06	5.40869e-09	-7.84796e-06	0.272048	9424	6.49935	9430.5
1000.32	4.68005	2.7723	5.43953	-30.641	7.04385	0.271862	-0.0189627	57.3907	14.9073	1	10	0.00470224	0.000864456	0	-6.00413e-05	-1.55017e-05	3.37262e-06	137.313	0.00390144	-0.00286782	-0.00264515	-30.6324	5.43571	4.67718	2.76965	0.158171	0.0936951	0.183839	30.641	14907.3	25165.7	29249.6	-59.359	0.0000000E+000	0.0000000E+000	0.0000000E+000	59.359	0.0000000E+000	0.0000000E+000	0.0000000E+000	-59.359	0.0000000E+000	0.0000000E+000	0.0000000E+000	-30.641	0.0000000E+000	0.0000000E+000	0.0000000E+000	30.641	1.68815	59.359	-1.81017e-06	-5.15525e-06	2.93954e-10	-5.15554e-06	0.271878	14336.7	0.817482	14337.5
316.316	6.7715	5.57739	8.77271	-39.4768	8.39206	0.27187	-0.0196081	90.2128	36.4639	1	10	0.00463738	0.000528615	0	-6.64395e-05	-0.000225711	1.0315e-05	27.5301	0.0195132	0.0173037	-0.00901928	-39.3596	8.78035	6.7888	5.56837	0.0879867	0.0724709	0.11399	39.4768	36463.9	44270.7	57354.2	-50.5232	0.0000000E+000	0.0000000E+000	0.0000000E+000	50.5232	0.0000000E+000	0.0000000E+000	0.0000000E+000	-50.5232	0.0000000E+000	0.0000000E+000	0.0000000E+000	-39.4768	0.0000000E+000	0.0000000E+000	0.0000000E+000	39.4768	1.2141	50.5232	-2.59306e-06	-5.33085e-06	4.42576e-09	-5.33528e-06	0.272096	13865.2	11.5111	13876.7
100.032	12.7485	10.055	16.2366	-38.2636	9.73985	0.271876	-0.0192276	158.233	60.6838	1	10	0.00464194	0.000285893	0	-7.3102e-05	-5.37216e-05	3.8294e-05	92.5252	0.133945	-0.00590144	-0.133815	-37.9038	16.1494	12.7426	9.92121	0.048358	0.038141	0.0615892	38.2636	60683.8	76939.4	97990.8	-51.7364	0.0000000E+000	0.0000000E+000	0.0000000E+000	51.7364	0.0000000E+000	0.0000000E+000	0.0000000E+000	-51.7364	0.0000000E+000	0.0000000E+000	0.0000000E+000	-38.2636	0.0000000E+000	0.0000000E+000	0.0000000E+000	38.2636	1.26787	51.7364	-2.69047e-06	-5.22752e-06	1.03294e-09	-5.22855e-06	0.27193	14139.9	2.79398	14142.7
31.6296	23.0323	10.7396	25.4131	-24.9988	11.3095	0.271919	-0.0071428	468.533	83.6756	1	11	0.00461852	0.000181738	0	-7.81112e-05	-0.000111051	6.98931e-06	-107.499	0.0384582	-0.0115638	0.0366785	-25.0848	25.4181	23.0207	10.7762	0.0356634	0.0166292	0.0393498	24.9988	83675.6	179453	198002	-65.0012	0.0000000E+000	0.0000000E+000	0.0000000E+000	65.0012	0.0000000E+000	0.0000000E+000	0.0000000E+000	-65.0012	0.0000000E+000	0.0000000E+000	0.0000000E+000	-24.9988	0.0000000E+000	0.0000000E+000	0.0000000E+000	24.9988	2.14462	65.0012	-4.93128e-07	-1.94226e-06	7.93219e-10	-1.94305e-06	0.27203	38068.9	15.5473	38084.4
10.0032	30.0641	7.71421	31.0381	-14.3911	12.6408	0.271919	-0.00634927	2062.48	127.404	1	11	0.00461833	0.000148796	0	-8.14555e-05	0.000156488	3.25982e-06	-42.2226	0.021908	0.0162237	0.0147224	-14.41	31.0574	30.0804	7.72893	0.0312075	0.00800759	0.0322185	14.3911	127404	496524	512609	-75.6089	0.0000000E+000	0.0000000E+000	0.0000000E+000	75.6089	0.0000000E+000	0.0000000E+000	0.0000000E+000	-75.6089	0.0000000E+000	0.0000000E+000	0.0000000E+000	-14.3911	0.0000000E+000	0.0000000E+000	0.0000000E+000	14.3911	3.89724	75.6089	-1.73027e-06	-1.72649e-06	-9.93584e-10	-1.72549e-06	0.271762	42826.8	24.6466	42802.2
3.1604	34.3817	6.27709	34.9501	-10.3466	14.1574	0.271934	-0.00492448	8022.69	258.786	1	11	0.00461617	0.000132079	0	-8.29899e-05	3.60827e-06	9.28736e-06	40.0497	0.0703168	0.0538265	-0.0452455	-10.2579	34.9949	34.4356	6.23185	0.028147	0.00513881	0.0286123	10.3466	258787	1.41746e+06	1.44089e+06	-79.6534	0.0000000E+000	0.0000000E+000	0.0000000E+000	79.6534	0.0000000E+000	0.0000000E+000	0.0000000E+000	-79.6534	0.0000000E+000	0.0000000E+000	0.0000000E+000	-10.3466	0.0000000E+000	0.0000000E+000	0.0000000E+000	10.3466	5.47733	79.6534	-1.90864e-06	-1.33913e-06	-1.77689e-11	-1.33912e-06	0.27193	55220.8	0.732721	55220.1
1.00006	38.5472	6.03859	39.0173	-8.90327	19.4769	0.271931	-0.00442969	26354.6	631.266	1	12	0.00461676	0.000118326	0	-8.99847e-05	-0.000263931	2.61541e-06	17.1993	0.0221035	0.0211151	-0.00653594	-8.88899	39.0372	38.5683	6.03205	0.0253208	0.00396661	0.0256296	8.90327	631266	4.02968e+06	4.07882e+06	-81.0967	0.0000000E+000	0.0000000E+000	0.0000000E+000	81.0967	0.0000000E+000	0.0000000E+000	0.0000000E+000	-81.0967	0.0000000E+000	0.0000000E+000	0.0000000E+000	-8.90327	0.0000000E+000	0.0000000E+000	0.0000000E+000	8.90327	6.38348	81.0967	3.39387e-07	-1.20457e-06	1.16913e-09	-1.20574e-06	0.272195	61388.3	59.5823	61447.9
0.316193	42.8518	5.95651	43.2638	-7.91356	33.819	0.271936	-0.0030099	84503.7	1601.81	1	12	0.0046205	0.000106798	0	-9.34373e-05	0.000156488	2.65386e-06	2.93025	0.0248493	0.0248168	-0.0012703	-7.90737	43.2882	42.8766	5.95524	0.0228939	0.00318231	0.023114	7.91356	1.60181e+06	1.15236e+07	1.16344e+07	-82.0864	0.0000000E+000	0.0000000E+000	0.0000000E+000	82.0864	0.0000000E+000	0.0000000E+000	0.0000000E+000	-82.0864	0.0000000E+000	0.0000000E+000	0.0000000E+000	-7.91356	0.0000000E+000	0.0000000E+000	0.0000000E+000	7.91356	7.19411	82.0864	-5.31016e-06	-8.185e-07	-4.71013e-10	-8.18029e-07	0.27178	90347.3	51.9911	90295.3
0.0999041	46.7484	6.70025	47.2261	-8.15642	79.0271	0.271932	-0.00205689	237764	4785.9	1	12	0.00461754	9.77752e-05	0	-0.0001751	-0.000130161	2.50247e-06	33.3233	0.0255941	0.021386	-0.0140604	-8.13586	47.2453	46.7698	6.68619	0.0209605	0.00300419	0.0211747	8.15642	4.7859e+06	3.33918e+07	3.3733e+07	-81.8436	0.0000000E+000	0.0000000E+000	0.0000000E+000	81.8436	0.0000000E+000	0.0000000E+000	0.0000000E+000	-81.8436	0.0000000E+000	0.0000000E+000	0.0000000E+000	-8.15642	0.0000000E+000	0.0000000E+000	0.0000000E+000	8.15642	6.97711	81.8436	-3.76785e-05	-5.59334e-07	2.67727e-10	-5.59602e-07	0.272062	132206	63.2808	132269
0.0315922	51.0875	10.1834	52.0926	-11.2731	221.912	0.271924	-0.00182488	494708	18905.1	1	12	0.00462112	8.87098e-05	0	-0.000213349	-3.46116e-05	2.5277e-06	-24.986	0.028494	0.0258273	0.0120358	-11.2805	52.1202	51.1133	10.1954	0.0188262	0.00375267	0.0191966	11.2731	1.89051e+07	9.48426e+07	9.67085e+07	-78.7269	0.0000000E+000	0.0000000E+000	0.0000000E+000	78.7269	0.0000000E+000	0.0000000E+000	0.0000000E+000	-78.7269	0.0000000E+000	0.0000000E+000	0.0000000E+000	-11.2731	0.0000000E+000	0.0000000E+000	0.0000000E+000	11.2731	5.01676	78.7269	2.09583e-05	-4.96228e-07	6.31621e-11	-4.96291e-07	0.271958	149009	18.9665	149028
0.0100092	57.7912	19.002	60.835	-18.2011	673.135	0.271933	5.5968e-05	836801	81642.1	1	12	0.0046204	7.59497e-05	0	3.98462e-05	-0.000187491	3.18993e-06	-13.9719	0.0420005	0.0407579	0.0101409	-18.1982	60.8769	57.832	19.0122	0.0156154	0.00513443	0.0164379	18.2011	8.16421e+07	2.483e+08	2.61378e+08	-71.7989	0.0000000E+000	0.0000000E+000	0.0000000E+000	71.7989	0.0000000E+000	0.0000000E+000	0.0000000E+000	-71.7989	0.0000000E+000	0.0000000E+000	0.0000000E+000	-18.2011	0.0000000E+000	0.0000000E+000	0.0000000E+000	18.2011	3.04132	71.7989	6.76984e-05	1.52195e-08	-1.04935e-11	1.523e-08	0.27212	4.85871e+06	3349.97	4.86206e+06