File: txt/18728_R302_UA699_SOC00_C03.mpt
EC-Lab ASCII FILE
Nb header lines : 65

Potentio Electrochemical Impedance Spectroscopy

Run on channel : 3 (SN 65921)
User :
CE vs. WE compliance from -10 V to 10 V
Electrode connection : standard
Potential control : Ewe
Ewe ctrl range : min = -10.00 V, max = 10.00 V
Safety Limits :
	Do not start on E overload
Acquisition started on : 10/31/2025 11:24:03.402
Technique started on : 10/31/2025 11:24:05.457
Loaded Setting File :  C:\Users\Celltest\OneDrive - store-dot.com\Documents\EC-Lab\Data\@Biologic Test Protocols\anode half cell EIS SOC00.mps
Saved on :
	File : 18728_R302_UA699_SOC00_C03.mpr
	Directory : C:\Users\Celltest\OneDrive - store-dot.com\Documents\EC-Lab\Data\Charmaine\
	Host : 169.254.61.224
Device : VMP-3e (SN .003165)
Address : USB
EC-LAB for windows v11.62 (software)
Internet server v27.00 (firmware)
Command interpretor v12.03 (firmware)
Electrode material :
Initial state :
Electrolyte :
Comments :
Electrode surface area : 0.001 cm²
Characteristic mass : 0.001 g
Equivalent Weight : 0.000 g/eq.
Density : 0.000 g/cm3
Volume (V) : 0.001 cm³
Record Ece
Cycle Definition : Charge/Discharge alternance
Mode                Single sine
E (V)               0.0000
vs.                 Eoc
tE (h:m:s)          0:00:0.0000
record              0
dI                  0.000
unit dI             mA
dt (s)              0.000
fi                  100.000
unit fi             kHz
ff                  10.000
unit ff             mHz
Nd                  6
Points              per decade
spacing             Logarithmic
Va (mV)             5.0
pw                  0.10
Na                  2
corr                0
E range min (V)     -10.000
E range max (V)     10.000
I Range             Auto
Bandwidth           5
nc cycles           0
goto Ns'            0
nr cycles           0
inc. cycle          0

freq/Hz	Re(Z)/Ohm	-Im(Z)/Ohm	|Z|/Ohm	Phase(Z)/deg	time/s	<Ewe>/V	<I>/mA	Cs/µF	Cp/µF	cycle number	I Range	|Ewe|/V	|I|/A	Ns	(Q-Qo)/mA.h	<Ece>/V	|Ece|/V	Phase(Zce)/deg	|Zce|/Ohm	Re(Zce)/Ohm	-Im(Zce)/Ohm	Phase(Zwe-ce)/deg	|Zwe-ce|/Ohm	Re(Zwe-ce)/Ohm	-Im(Zwe-ce)/Ohm	Re(Y)/Ohm-1	Im(Y)/Ohm-1	|Y|/Ohm-1	Phase(Y)/deg	Re(C)/nF	Im(C)/nF	|C|/nF	Phase(C)/deg	Re(M)	Im(M)	|M|	Phase(M)/deg	Re(Permittivity)	Im(Permittivity)	|Permittivity|	Phase(Permittivity)/deg	Re(Resistivity)/Ohm.cm	Im(Resistivity)/Ohm.cm	|Resistivity|/Ohm.cm	Phase(Resistivity)/deg	Re(Conductivity)/mS/cm	Im(Conductivity)/mS/cm	|Conductivity|/mS/cm	Phase(Conductivity)/deg	Tan(Delta)	Loss Angle(Delta)/deg	dq/mA.h	Pwe/W	Pce/W	Pwe-ce/W	<Ewe-Ece>/V	Rwe/Ohm	Rce/Ohm	Rwe-ce/Ohm		Ewe-Ece/V
100004	1.51084	0.737068	1.68104	-26.0056	2.05454	0.270687	0.0338189	2.15922	0.415101	1	9	0.00494952	0.00294431	0	-2.44194e-06	1.49552e-05	2.52937e-05	66.6042	0.00859069	0.0034112	-0.0078844	-25.713	1.68067	1.51425	0.729184	0.534639	0.260825	0.594869	26.0056	415.101	850.873	946.728	-63.9944	0.0000000E+000	0.0000000E+000	0.0000000E+000	63.9944	0.0000000E+000	0.0000000E+000	0.0000000E+000	-63.9944	0.0000000E+000	0.0000000E+000	0.0000000E+000	-26.0056	0.0000000E+000	0.0000000E+000	0.0000000E+000	26.0056	2.0498	63.9944	-2.44194e-06	9.15433e-06	5.0577e-10	9.15382e-06	0.270672	8004.02	0.442216	8003.57
31621.1	2.20236	1.02225	2.42804	-24.899	3.32952	0.270685	0.0310964	4.92361	0.87275	1	9	0.00544751	0.00224358	0	5.05051e-06	0.000301366	7.00642e-06	21.5554	0.00312287	0.00290447	-0.00114734	-24.8456	2.43019	2.20526	1.02111	0.373574	0.173399	0.411855	24.899	872.75	1880.26	2072.94	-65.101	0.0000000E+000	0.0000000E+000	0.0000000E+000	65.101	0.0000000E+000	0.0000000E+000	0.0000000E+000	-65.101	0.0000000E+000	0.0000000E+000	0.0000000E+000	-24.899	0.0000000E+000	0.0000000E+000	0.0000000E+000	24.899	2.15441	65.101	6.57522e-06	8.41733e-06	9.37141e-09	8.40796e-06	0.270383	8704.69	9.69135	8695
10002.2	2.99847	1.26204	3.25324	-22.826	4.48051	0.270687	0.0356089	12.6081	1.89742	1	9	0.00518535	0.0015939	0	2.53978e-05	3.40493e-05	4.88778e-06	-71.057	0.00306655	0.000995489	0.00290047	-22.8662	3.25528	2.99947	1.26494	0.283314	0.119245	0.307386	22.826	1897.42	4508.07	4891.11	-67.174	0.0000000E+000	0.0000000E+000	0.0000000E+000	67.174	0.0000000E+000	0.0000000E+000	0.0000000E+000	-67.174	0.0000000E+000	0.0000000E+000	0.0000000E+000	-22.826	0.0000000E+000	0.0000000E+000	0.0000000E+000	22.826	2.37589	67.174	3.47317e-06	9.63887e-06	1.21246e-09	9.63766e-06	0.270653	7601.66	0.956202	7600.71
3163.08	3.83653	1.72955	4.20836	-24.2664	5.71067	0.270615	-0.0163145	29.0922	4.91379	1	10	0.0050612	0.00120265	0	2.83839e-05	-4.13882e-06	1.38969e-05	20.4378	0.0115552	0.0108278	-0.00403496	-24.1559	4.21658	3.84736	1.72551	0.216627	0.0976578	0.237622	24.2664	4913.79	10899.9	11956.3	-65.7336	0.0000000E+000	0.0000000E+000	0.0000000E+000	65.7336	0.0000000E+000	0.0000000E+000	0.0000000E+000	-65.7336	0.0000000E+000	0.0000000E+000	0.0000000E+000	-24.2664	0.0000000E+000	0.0000000E+000	0.0000000E+000	24.2664	2.21822	65.7336	-2.63258e-06	-4.41495e-06	6.75226e-11	-4.41501e-06	0.270619	16587.4	0.25369	16587.7
1000.32	4.93198	2.94209	5.74285	-30.8175	7.06384	0.27062	-0.00872248	54.0785	14.1933	1	10	0.00486025	0.000846312	0	2.52603e-05	1.49552e-05	5.85269e-06	-22.3997	0.00691552	0.00639373	0.00263527	-30.8074	5.74969	4.93837	2.94473	0.149543	0.0892075	0.174129	30.8175	14193.3	23792.9	27704.7	-59.1825	0.0000000E+000	0.0000000E+000	0.0000000E+000	59.1825	0.0000000E+000	0.0000000E+000	0.0000000E+000	-59.1825	0.0000000E+000	0.0000000E+000	0.0000000E+000	-30.8175	0.0000000E+000	0.0000000E+000	0.0000000E+000	30.8175	1.67635	59.1825	-3.86825e-07	-2.36048e-06	-1.30447e-10	-2.36035e-06	0.270605	31025.6	1.71456	31023.9
316.316	7.10648	5.88668	9.22795	-39.6368	8.41206	0.270615	-0.00857707	85.4729	34.7824	1	10	0.00474635	0.000514345	0	2.2026e-05	0.000167708	6.17628e-06	101.328	0.0120081	-0.00235875	-0.0117741	-39.5898	9.21863	7.10412	5.87491	0.0834534	0.069129	0.108366	39.6368	34782.4	41989.7	54524.8	-50.3632	0.0000000E+000	0.0000000E+000	0.0000000E+000	50.3632	0.0000000E+000	0.0000000E+000	0.0000000E+000	-50.3632	0.0000000E+000	0.0000000E+000	0.0000000E+000	-39.6368	0.0000000E+000	0.0000000E+000	0.0000000E+000	39.6368	1.20721	50.3632	-5.69858e-07	-2.32108e-06	-1.43844e-09	-2.31964e-06	0.270447	31551	19.553	31531.4
100.032	13.3213	10.8382	17.1733	-39.1319	9.75884	0.270624	-0.00894996	146.799	58.4696	1	10	0.00470834	0.000274166	0	1.90694e-05	-2.32329e-05	3.19372e-05	-89.3931	0.116489	0.00123383	0.116482	-39.4294	17.248	13.3225	10.9547	0.0451686	0.0367493	0.0582299	39.1319	58469.6	71865.1	92646	-50.8681	0.0000000E+000	0.0000000E+000	0.0000000E+000	50.8681	0.0000000E+000	0.0000000E+000	0.0000000E+000	-50.8681	0.0000000E+000	0.0000000E+000	0.0000000E+000	-39.1319	0.0000000E+000	0.0000000E+000	0.0000000E+000	39.1319	1.2291	50.8681	-1.27368e-06	-2.42207e-06	2.07933e-10	-2.42228e-06	0.270647	30237.4	2.59586	30240
31.6296	24.6719	12.0362	27.4513	-26.0055	11.3386	0.27064	-0.00737904	418.058	80.3698	1	11	0.00471413	0.000171727	0	1.6274e-05	-6.1421e-05	5.99577e-06	11.9564	0.0349145	0.034157	-0.00723315	-25.9607	27.4788	24.706	12.029	0.0327399	0.0159722	0.0364282	26.0055	80369.8	164742	183301	-63.9945	0.0000000E+000	0.0000000E+000	0.0000000E+000	63.9945	0.0000000E+000	0.0000000E+000	0.0000000E+000	-63.9945	0.0000000E+000	0.0000000E+000	0.0000000E+000	-26.0055	0.0000000E+000	0.0000000E+000	0.0000000E+000	26.0055	2.0498	63.9945	-4.94391e-07	-1.99707e-06	4.53228e-10	-1.99752e-06	0.270702	36676.9	8.32371	36685.2
10.0032	32.727	8.86117	33.9054	-15.1502	12.6709	0.270658	-0.00664294	1795.52	122.64	1	11	0.0047035	0.000138724	0	1.30057e-05	-0.000118703	1.13595e-05	-61.4341	0.0818855	0.0391552	0.0719174	-15.25	33.9621	32.7662	8.93308	0.0284687	0.0077082	0.0294938	15.1502	122640	452949	469258	-74.8498	0.0000000E+000	0.0000000E+000	0.0000000E+000	74.8498	0.0000000E+000	0.0000000E+000	0.0000000E+000	-74.8498	0.0000000E+000	0.0000000E+000	0.0000000E+000	-15.1502	0.0000000E+000	0.0000000E+000	0.0000000E+000	15.1502	3.69331	74.8498	-1.92341e-06	-1.79796e-06	7.88538e-10	-1.79875e-06	0.270777	40743.7	17.8691	40761.6
3.1604	37.7331	7.23449	38.4204	-10.8535	14.1874	0.270651	-0.0060558	6960.98	246.81	1	11	0.0047102	0.000122596	0	1.04029e-05	-2.32329e-05	7.62929e-06	24.7913	0.062231	0.0564958	-0.0260944	-10.7995	38.471	37.7896	7.2084	0.0255622	0.00490099	0.0260278	10.8535	246810	1.28729e+06	1.31074e+06	-79.1465	0.0000000E+000	0.0000000E+000	0.0000000E+000	79.1465	0.0000000E+000	0.0000000E+000	0.0000000E+000	-79.1465	0.0000000E+000	0.0000000E+000	0.0000000E+000	-10.8535	0.0000000E+000	0.0000000E+000	0.0000000E+000	10.8535	5.21573	79.1465	-2.62291e-06	-1.63901e-06	1.40694e-10	-1.63915e-06	0.270674	44692.8	3.83647	44696.7
1.00006	42.6282	7.09343	43.2144	-9.44758	19.5058	0.270652	-0.00563322	22435.5	604.494	1	12	0.00471164	0.00010903	0	4.35373e-06	-4.23269e-05	1.63207e-06	73.085	0.0149691	0.0043553	-0.0143215	-9.4279	43.2163	42.6326	7.07911	0.0228266	0.00379839	0.0231404	9.44758	604494	3.63273e+06	3.68268e+06	-80.5524	0.0000000E+000	0.0000000E+000	0.0000000E+000	80.5524	0.0000000E+000	0.0000000E+000	0.0000000E+000	-80.5524	0.0000000E+000	0.0000000E+000	0.0000000E+000	-9.44758	0.0000000E+000	0.0000000E+000	0.0000000E+000	9.44758	6.00954	80.5524	1.63148e-07	-1.52464e-06	2.38437e-10	-1.52488e-06	0.270694	48045.6	7.51381	48053.2
0.316193	47.8315	6.99236	48.3399	-8.31699	33.848	0.270656	-0.00408849	71985.3	1506.19	1	12	0.00471496	9.75375e-05	0	-1.15581e-05	-4.23269e-05	4.36312e-06	23.6009	0.0447328	0.0409912	-0.0179094	-8.28899	48.3779	47.8725	6.97445	0.0204693	0.00299234	0.0206868	8.31699	1.50619e+06	1.03031e+07	1.04127e+07	-81.683	0.0000000E+000	0.0000000E+000	0.0000000E+000	81.683	0.0000000E+000	0.0000000E+000	0.0000000E+000	-81.683	0.0000000E+000	0.0000000E+000	0.0000000E+000	-8.31699	0.0000000E+000	0.0000000E+000	0.0000000E+000	8.31699	6.84055	81.683	-1.15066e-05	-1.10658e-06	1.73053e-10	-1.10675e-06	0.270699	66199.6	10.3527	66210
0.0999041	52.489	7.62498	53.0399	-8.26543	79.0559	0.270655	-0.00314621	208929	4317.87	1	12	0.00471077	8.88156e-05	0	-9.89133e-05	-0.000233268	1.19323e-06	-19.2889	0.0134349	0.0126807	0.00443796	-8.2682	53.0531	52.5017	7.62941	0.0186579	0.00271039	0.0188537	8.26543	4.31787e+06	2.97234e+07	3.00354e+07	-81.7346	0.0000000E+000	0.0000000E+000	0.0000000E+000	81.7346	0.0000000E+000	0.0000000E+000	0.0000000E+000	-81.7346	0.0000000E+000	0.0000000E+000	0.0000000E+000	-8.26543	0.0000000E+000	0.0000000E+000	0.0000000E+000	8.26543	6.88382	81.7346	-3.47058e-05	-8.51535e-07	7.33908e-10	-8.52269e-07	0.270888	86025.7	74.1425	86099.8
0.0315922	57.2829	11.0675	58.3423	-10.9353	221.939	0.270652	-0.00193972	455186	16380.4	1	12	0.00471025	8.07348e-05	0	-0.000103401	0.000396837	2.16108e-06	12.0425	0.0267676	0.0261785	-0.00558471	-10.925	58.367	57.3091	11.062	0.016829	0.0032515	0.0171402	10.9353	1.63804e+07	8.47809e+07	8.63489e+07	-79.0647	0.0000000E+000	0.0000000E+000	0.0000000E+000	79.0647	0.0000000E+000	0.0000000E+000	0.0000000E+000	-79.0647	0.0000000E+000	0.0000000E+000	0.0000000E+000	-10.9353	0.0000000E+000	0.0000000E+000	0.0000000E+000	10.9353	5.17576	79.0647	3.03588e-05	-5.24989e-07	-7.69752e-10	-5.2422e-07	0.270255	139532	204.584	139327
0.0100092	64.6939	20.5961	67.8933	-17.6595	673.159	0.270655	6.34858e-05	772037	71048	1	12	0.00471187	6.94011e-05	0	-2.08478e-05	-0.000309644	2.21976e-06	-4.216	0.0319844	0.0318979	0.00235139	-17.6532	67.9244	64.7258	20.5984	0.0140349	0.00446817	0.014729	17.6595	7.1048e+07	2.23168e+08	2.34204e+08	-72.3405	0.0000000E+000	0.0000000E+000	0.0000000E+000	72.3405	0.0000000E+000	0.0000000E+000	0.0000000E+000	-72.3405	0.0000000E+000	0.0000000E+000	0.0000000E+000	-17.6595	0.0000000E+000	0.0000000E+000	0.0000000E+000	17.6595	3.14108	72.3405	-3.11106e-05	1.71827e-08	-1.9658e-11	1.72024e-08	0.270964	4.26323e+06	4877.37	4.26811e+06