File: txt/18722_R302_UA698_SOC00_C02.mpt
EC-Lab ASCII FILE
Nb header lines : 65

Potentio Electrochemical Impedance Spectroscopy

Run on channel : 2 (SN 66139)
User :
CE vs. WE compliance from -10 V to 10 V
Electrode connection : standard
Potential control : Ewe
Ewe ctrl range : min = -10.00 V, max = 10.00 V
Safety Limits :
	Do not start on E overload
Acquisition started on : 10/31/2025 10:59:24.795
Technique started on : 10/31/2025 10:59:26.706
Loaded Setting File :  C:\Users\Celltest\OneDrive - store-dot.com\Documents\EC-Lab\Data\@Biologic Test Protocols\anode half cell EIS SOC00.mps
Saved on :
	File : 18722_R302_UA698_SOC00_C02.mpr
	Directory : C:\Users\Celltest\OneDrive - store-dot.com\Documents\EC-Lab\Data\Anna\
	Host : 169.254.61.224
Device : VMP-3e (SN .003165)
Address : USB
EC-LAB for windows v11.62 (software)
Internet server v27.00 (firmware)
Command interpretor v12.03 (firmware)
Electrode material :
Initial state :
Electrolyte :
Comments :
Electrode surface area : 0.001 cm²
Characteristic mass : 0.001 g
Equivalent Weight : 0.000 g/eq.
Density : 0.000 g/cm3
Volume (V) : 0.001 cm³
Record Ece
Cycle Definition : Charge/Discharge alternance
Mode                Single sine
E (V)               0.0000
vs.                 Eoc
tE (h:m:s)          0:00:0.0000
record              0
dI                  0.000
unit dI             mA
dt (s)              0.000
fi                  100.000
unit fi             kHz
ff                  10.000
unit ff             mHz
Nd                  6
Points              per decade
spacing             Logarithmic
Va (mV)             5.0
pw                  0.10
Na                  2
corr                0
E range min (V)     -10.000
E range max (V)     10.000
I Range             Auto
Bandwidth           5
nc cycles           0
goto Ns'            0
nr cycles           0
inc. cycle          0

freq/Hz	Re(Z)/Ohm	-Im(Z)/Ohm	|Z|/Ohm	Phase(Z)/deg	time/s	<Ewe>/V	<I>/mA	Cs/µF	Cp/µF	cycle number	I Range	|Ewe|/V	|I|/A	Ns	(Q-Qo)/mA.h	<Ece>/V	|Ece|/V	Phase(Zce)/deg	|Zce|/Ohm	Re(Zce)/Ohm	-Im(Zce)/Ohm	Phase(Zwe-ce)/deg	|Zwe-ce|/Ohm	Re(Zwe-ce)/Ohm	-Im(Zwe-ce)/Ohm	Re(Y)/Ohm-1	Im(Y)/Ohm-1	|Y|/Ohm-1	Phase(Y)/deg	Re(C)/nF	Im(C)/nF	|C|/nF	Phase(C)/deg	Re(M)	Im(M)	|M|	Phase(M)/deg	Re(Permittivity)	Im(Permittivity)	|Permittivity|	Phase(Permittivity)/deg	Re(Resistivity)/Ohm.cm	Im(Resistivity)/Ohm.cm	|Resistivity|/Ohm.cm	Phase(Resistivity)/deg	Re(Conductivity)/mS/cm	Im(Conductivity)/mS/cm	|Conductivity|/mS/cm	Phase(Conductivity)/deg	Tan(Delta)	Loss Angle(Delta)/deg	dq/mA.h	Pwe/W	Pce/W	Pwe-ce/W	<Ewe-Ece>/V	Rwe/Ohm	Rce/Ohm	Rwe-ce/Ohm		Ewe-Ece/V
100004	1.22478	0.595328	1.3618	-25.9229	1.91052	0.269559	-0.0139649	2.6733	0.510896	1	9	0.00481853	0.00353835	0	-1.34094e-06	3.85242e-05	2.17013e-05	94.5882	0.00613318	-0.000490611	-0.00611353	-25.7001	1.3587	1.22429	0.589215	0.660435	0.321017	0.734321	25.9229	510.896	1051.08	1168.66	-64.0771	0.0000000E+000	0.0000000E+000	0.0000000E+000	64.0771	0.0000000E+000	0.0000000E+000	0.0000000E+000	-64.0771	0.0000000E+000	0.0000000E+000	0.0000000E+000	-25.9229	0.0000000E+000	0.0000000E+000	0.0000000E+000	25.9229	2.05732	64.0771	-1.34094e-06	-3.76437e-06	-5.37987e-10	-3.76384e-06	0.269521	19302.6	2.75864	19299.9
31621.1	1.75702	0.781118	1.92283	-23.9685	3.43354	0.269547	-0.00662748	6.44356	1.06336	1	9	0.00511284	0.00265902	0	-5.06753e-05	0.000496704	1.74504e-05	20.7215	0.00656271	0.00613818	-0.00232206	-23.8313	1.9275	1.76316	0.778796	0.475222	0.211269	0.520067	23.9685	1063.36	2391.88	2617.59	-66.0315	0.0000000E+000	0.0000000E+000	0.0000000E+000	66.0315	0.0000000E+000	0.0000000E+000	0.0000000E+000	-66.0315	0.0000000E+000	0.0000000E+000	0.0000000E+000	-23.9685	0.0000000E+000	0.0000000E+000	0.0000000E+000	23.9685	2.24937	66.0315	-1.50322e-05	-1.78642e-06	-3.2919e-09	-1.78312e-06	0.26905	40671.2	74.9462	40596.2
10002.2	2.33024	0.983176	2.52916	-22.8759	4.45855	0.269548	-0.00863879	16.1842	2.4457	1	9	0.00491641	0.00194389	0	-5.0477e-05	-0.000247839	5.22121e-06	-164.129	0.00268595	-0.00258356	0.000734545	-22.914	2.52706	2.32765	0.983911	0.364291	0.153702	0.395389	22.8759	2445.7	5796.58	6291.41	-67.1241	0.0000000E+000	0.0000000E+000	0.0000000E+000	67.1241	0.0000000E+000	0.0000000E+000	0.0000000E+000	-67.1241	0.0000000E+000	0.0000000E+000	0.0000000E+000	-22.8759	0.0000000E+000	0.0000000E+000	0.0000000E+000	22.8759	2.37011	67.1241	1.12916e-06	-2.32857e-06	2.14102e-09	-2.33071e-06	0.269796	31202.1	28.689	31230.8
3163.08	2.92815	1.53927	3.30808	-27.73	5.53265	0.269339	-0.0364615	32.6885	7.07737	1	9	0.00499482	0.00150988	0	-6.39456e-05	-0.000133293	7.63878e-06	41.1196	0.00505918	0.00381128	-0.00332708	-27.6484	3.30991	2.93196	1.53594	0.267572	0.140657	0.30229	27.73	7077.38	13463.3	15210.1	-62.27	0.0000000E+000	0.0000000E+000	0.0000000E+000	62.27	0.0000000E+000	0.0000000E+000	0.0000000E+000	-62.27	0.0000000E+000	0.0000000E+000	0.0000000E+000	-27.73	0.0000000E+000	0.0000000E+000	0.0000000E+000	27.73	1.9023	62.27	-8.68386e-06	-9.82051e-06	4.86008e-09	-9.82537e-06	0.269473	7386.95	3.65573	7390.61
1000.32	3.85722	3.0157	4.89618	-38.0195	7.13081	0.26948	-0.0193634	52.7586	20.015	1	10	0.0050408	0.00102954	0	-6.64827e-05	0.000133978	9.08782e-06	-6.62252	0.00882709	0.00876819	0.00101801	-37.9657	4.90371	3.86598	3.01672	0.160901	0.125798	0.204241	38.0195	20015	25600	32495.6	-51.9805	0.0000000E+000	0.0000000E+000	0.0000000E+000	51.9805	0.0000000E+000	0.0000000E+000	0.0000000E+000	-51.9805	0.0000000E+000	0.0000000E+000	0.0000000E+000	-38.0195	0.0000000E+000	0.0000000E+000	0.0000000E+000	38.0195	1.27905	51.9805	-2.27959e-06	-5.21805e-06	-2.59428e-09	-5.21546e-06	0.269346	13917	6.91915	13910
316.316	6.08964	6.57699	8.96329	-47.2034	8.48101	0.26948	-0.0191437	76.5018	41.19	1	10	0.00493359	0.000550421	0	-7.39672e-05	0.000133978	5.31581e-06	40.729	0.00965771	0.00731866	-0.00630148	-47.1417	8.96364	6.09695	6.57069	0.0757978	0.081864	0.111566	47.2034	41190	38137.8	56134.8	-42.7966	0.0000000E+000	0.0000000E+000	0.0000000E+000	42.7966	0.0000000E+000	0.0000000E+000	0.0000000E+000	-42.7966	0.0000000E+000	0.0000000E+000	0.0000000E+000	-47.2034	0.0000000E+000	0.0000000E+000	0.0000000E+000	47.2034	0.9259	42.7966	-2.7191e-06	-5.15883e-06	-2.56484e-09	-5.15626e-06	0.269346	14076.7	6.99858	14069.7
100.032	13.3148	12.7291	18.4205	-43.7118	9.82884	0.269474	-0.0190915	124.992	59.6868	1	10	0.00493562	0.000267942	0	-8.11978e-05	0.000248523	3.13291e-05	90.4706	0.116925	-0.00096033	-0.116921	-43.4498	18.3392	13.3138	12.6122	0.0392403	0.0375143	0.0542875	43.7118	59686.8	62432.9	86373.5	-46.2882	0.0000000E+000	0.0000000E+000	0.0000000E+000	46.2882	0.0000000E+000	0.0000000E+000	0.0000000E+000	-46.2882	0.0000000E+000	0.0000000E+000	0.0000000E+000	-43.7118	0.0000000E+000	0.0000000E+000	0.0000000E+000	43.7118	1.04601	46.2882	-2.26879e-06	-5.14467e-06	-4.74469e-09	-5.13992e-06	0.269226	14114.9	13.0175	14101.8
31.6296	26.9787	14.0624	30.4237	-27.5303	11.4075	0.269517	-0.00758341	357.823	76.4471	1	11	0.00490833	0.000161332	0	-8.51854e-05	5.7615e-05	2.999e-06	-71.9105	0.018589	0.00577193	0.0176702	-27.5547	30.437	26.9845	14.08	0.0291472	0.0151927	0.0328691	27.5303	76447.1	146664	165392	-62.4697	0.0000000E+000	0.0000000E+000	0.0000000E+000	62.4697	0.0000000E+000	0.0000000E+000	0.0000000E+000	-62.4697	0.0000000E+000	0.0000000E+000	0.0000000E+000	-27.5303	0.0000000E+000	0.0000000E+000	0.0000000E+000	27.5303	1.91851	62.4697	-1.18798e-06	-2.04386e-06	-4.36918e-10	-2.04342e-06	0.269459	35540.4	7.59751	35532.8
10.0032	36.3141	8.89092	37.3866	-13.7573	12.7398	0.269517	-0.00707185	1789.51	101.203	1	11	0.00490899	0.000131303	0	-8.74161e-05	0.000191251	6.30382e-06	9.39501	0.0480096	0.0473656	-0.00783709	-13.7284	37.4308	36.3614	8.88308	0.0259802	0.00636083	0.0267475	13.7573	101203	413355	425564	-76.2427	0.0000000E+000	0.0000000E+000	0.0000000E+000	76.2427	0.0000000E+000	0.0000000E+000	0.0000000E+000	-76.2427	0.0000000E+000	0.0000000E+000	0.0000000E+000	-13.7573	0.0000000E+000	0.0000000E+000	0.0000000E+000	13.7573	4.0844	76.2427	1.35313e-07	-1.90599e-06	-1.3525e-09	-1.90464e-06	0.269326	38111.3	27.044	38084.2
3.1604	40.2437	5.41917	40.607	-7.66924	14.2564	0.26953	-0.006114	9292.78	165.505	1	11	0.00490755	0.000120855	0	-8.93141e-05	-0.000114203	5.00876e-06	-61.7269	0.0414445	0.0196312	0.0365001	-7.71656	40.6313	40.2634	5.45567	0.024406	0.00328649	0.0246263	7.66924	165505	1.22907e+06	1.24016e+06	-82.3308	0.0000000E+000	0.0000000E+000	0.0000000E+000	82.3308	0.0000000E+000	0.0000000E+000	0.0000000E+000	-82.3308	0.0000000E+000	0.0000000E+000	0.0000000E+000	-7.66924	0.0000000E+000	0.0000000E+000	0.0000000E+000	7.66924	7.42618	82.3308	5.119e-07	-1.64791e-06	6.98234e-10	-1.64861e-06	0.269645	44084.2	18.6789	44102.8
1.00006	43.0447	4.56939	43.2866	-6.05951	19.5779	0.26953	-0.00496578	34828.4	388.101	1	12	0.00490986	0.000113427	0	-0.000101471	0.000114888	2.39625e-06	7.74641	0.0211259	0.0209331	-0.00284754	-6.05284	43.3071	43.0657	4.56655	0.0229728	0.00243866	0.0231018	6.05951	388100	3.656e+06	3.67654e+06	-83.9405	0.0000000E+000	0.0000000E+000	0.0000000E+000	83.9405	0.0000000E+000	0.0000000E+000	0.0000000E+000	-83.9405	0.0000000E+000	0.0000000E+000	0.0000000E+000	-6.05951	0.0000000E+000	0.0000000E+000	0.0000000E+000	6.05951	9.42023	83.9405	-6.50853e-06	-1.33843e-06	-5.70506e-10	-1.33786e-06	0.269415	54277.5	23.1359	54254.4
0.316193	46.1849	4.8478	46.4386	-5.99211	33.9201	0.269533	-0.00465953	103830	1131.5	1	12	0.00490834	0.000105695	0	-0.000113277	0.000343978	1.81007e-06	-8.03442	0.0171254	0.0169573	0.00239358	-5.99286	46.4557	46.2019	4.85019	0.0214161	0.00224795	0.0215338	5.99211	1.1315e+06	1.07798e+07	1.0839e+07	-84.0079	0.0000000E+000	0.0000000E+000	0.0000000E+000	84.0079	0.0000000E+000	0.0000000E+000	0.0000000E+000	-84.0079	0.0000000E+000	0.0000000E+000	0.0000000E+000	-5.99211	0.0000000E+000	0.0000000E+000	0.0000000E+000	5.99211	9.52699	84.0079	-6.24142e-07	-1.2559e-06	-1.60278e-09	-1.25429e-06	0.269189	57845.4	73.8224	57771.6
0.0999041	49.4318	5.75588	49.7658	-6.64166	79.128	0.269529	-0.00227634	276774	3702.43	1	12	0.00490987	9.86596e-05	0	-0.000122917	-7.60209e-05	1.92965e-06	24.3959	0.0195587	0.0178124	-0.00807849	-6.63005	49.7826	49.4496	5.74781	0.0199593	0.00232407	0.0200941	6.64166	3.70243e+06	3.17966e+07	3.20115e+07	-83.3583	0.0000000E+000	0.0000000E+000	0.0000000E+000	83.3583	0.0000000E+000	0.0000000E+000	0.0000000E+000	-83.3583	0.0000000E+000	0.0000000E+000	0.0000000E+000	-6.64166	0.0000000E+000	0.0000000E+000	0.0000000E+000	6.64166	8.58805	83.3583	-1.17153e-05	-6.1354e-07	1.7305e-10	-6.13713e-07	0.269605	118404	33.3961	118438
0.0315922	53.1842	9.35166	54.0001	-9.97269	222.013	0.26951	-0.00122721	538705	16156.2	1	12	0.00490827	9.08937e-05	0	-0.000323443	0.000191251	1.36589e-06	62.4272	0.0150274	0.00695579	-0.0133206	-9.95749	54.0046	53.1911	9.33834	0.0182387	0.00320701	0.0185185	9.97269	1.61562e+07	9.18827e+07	9.32923e+07	-80.0273	0.0000000E+000	0.0000000E+000	0.0000000E+000	80.0273	0.0000000E+000	0.0000000E+000	0.0000000E+000	-80.0273	0.0000000E+000	0.0000000E+000	0.0000000E+000	-9.97269	0.0000000E+000	0.0000000E+000	0.0000000E+000	9.97269	5.68713	80.0273	-0.000101013	-3.30744e-07	-2.34704e-10	-3.3051e-07	0.269318	219612	155.842	219456
0.0100092	59.3071	19.2962	62.3673	-18.0228	673.236	0.269515	-0.00109923	824045	78882.2	1	12	0.00490982	7.87243e-05	0	-0.000386989	0.000248523	2.49273e-06	12.6042	0.031664	0.0309009	-0.00690956	-18.008	62.3945	59.338	19.2893	0.0152473	0.00496086	0.016034	18.0228	7.88823e+07	2.42446e+08	2.54956e+08	-71.9772	0.0000000E+000	0.0000000E+000	0.0000000E+000	71.9772	0.0000000E+000	0.0000000E+000	0.0000000E+000	-71.9772	0.0000000E+000	0.0000000E+000	0.0000000E+000	-18.0228	0.0000000E+000	0.0000000E+000	0.0000000E+000	18.0228	3.07352	71.9772	8.67092e-05	-2.96258e-07	-2.73184e-10	-2.95985e-07	0.269266	245186	226.089	244960