File: txt/18724_R302_UA698_SOC00_C04.mpt
EC-Lab ASCII FILE
Nb header lines : 65

Potentio Electrochemical Impedance Spectroscopy

Run on channel : 4 (SN 66756)
User :
CE vs. WE compliance from -10 V to 10 V
Electrode connection : standard
Potential control : Ewe
Ewe ctrl range : min = -10.00 V, max = 10.00 V
Safety Limits :
	Do not start on E overload
Acquisition started on : 10/31/2025 10:59:49.391
Technique started on : 10/31/2025 10:59:51.302
Loaded Setting File :  C:\Users\Celltest\OneDrive - store-dot.com\Documents\EC-Lab\Data\@Biologic Test Protocols\anode half cell EIS SOC00.mps
Saved on :
	File : 18724_R302_UA698_SOC00_C04.mpr
	Directory : C:\Users\Celltest\OneDrive - store-dot.com\Documents\EC-Lab\Data\Charmaine\
	Host : 169.254.61.224
Device : VMP-3e (SN .003165)
Address : USB
EC-LAB for windows v11.62 (software)
Internet server v27.00 (firmware)
Command interpretor v12.03 (firmware)
Electrode material :
Initial state :
Electrolyte :
Comments :
Electrode surface area : 0.001 cm²
Characteristic mass : 0.001 g
Equivalent Weight : 0.000 g/eq.
Density : 0.000 g/cm3
Volume (V) : 0.001 cm³
Record Ece
Cycle Definition : Charge/Discharge alternance
Mode                Single sine
E (V)               0.0000
vs.                 Eoc
tE (h:m:s)          0:00:0.0000
record              0
dI                  0.000
unit dI             mA
dt (s)              0.000
fi                  100.000
unit fi             kHz
ff                  10.000
unit ff             mHz
Nd                  6
Points              per decade
spacing             Logarithmic
Va (mV)             5.0
pw                  0.10
Na                  2
corr                0
E range min (V)     -10.000
E range max (V)     10.000
I Range             Auto
Bandwidth           5
nc cycles           0
goto Ns'            0
nr cycles           0
inc. cycle          0

freq/Hz	Re(Z)/Ohm	-Im(Z)/Ohm	|Z|/Ohm	Phase(Z)/deg	time/s	<Ewe>/V	<I>/mA	Cs/µF	Cp/µF	cycle number	I Range	|Ewe|/V	|I|/A	Ns	(Q-Qo)/mA.h	<Ece>/V	|Ece|/V	Phase(Zce)/deg	|Zce|/Ohm	Re(Zce)/Ohm	-Im(Zce)/Ohm	Phase(Zwe-ce)/deg	|Zwe-ce|/Ohm	Re(Zwe-ce)/Ohm	-Im(Zwe-ce)/Ohm	Re(Y)/Ohm-1	Im(Y)/Ohm-1	|Y|/Ohm-1	Phase(Y)/deg	Re(C)/nF	Im(C)/nF	|C|/nF	Phase(C)/deg	Re(M)	Im(M)	|M|	Phase(M)/deg	Re(Permittivity)	Im(Permittivity)	|Permittivity|	Phase(Permittivity)/deg	Re(Resistivity)/Ohm.cm	Im(Resistivity)/Ohm.cm	|Resistivity|/Ohm.cm	Phase(Resistivity)/deg	Re(Conductivity)/mS/cm	Im(Conductivity)/mS/cm	|Conductivity|/mS/cm	Phase(Conductivity)/deg	Tan(Delta)	Loss Angle(Delta)/deg	dq/mA.h	Pwe/W	Pce/W	Pwe-ce/W	<Ewe-Ece>/V	Rwe/Ohm	Rce/Ohm	Rwe-ce/Ohm		Ewe-Ece/V
100004	1.25157	0.656947	1.41351	-27.6949	1.91054	0.262079	-0.0353804	2.42255	0.523283	1	9	0.00454921	0.00321838	0	-1.26463e-05	-9.19415e-05	3.35582e-05	67.9709	0.0104271	0.00391095	-0.00966582	-27.274	1.41252	1.25548	0.647281	0.626409	0.328801	0.707459	27.6949	523.283	996.924	1125.91	-62.3051	0.0000000E+000	0.0000000E+000	0.0000000E+000	62.3051	0.0000000E+000	0.0000000E+000	0.0000000E+000	-62.3051	0.0000000E+000	0.0000000E+000	0.0000000E+000	-27.6949	0.0000000E+000	0.0000000E+000	0.0000000E+000	27.6949	1.90513	62.3051	-1.26463e-05	-9.27246e-06	3.25293e-09	-9.27571e-06	0.262171	7407.45	2.59865	7410.05
31621.1	1.85931	0.876696	2.05564	-25.2446	3.06153	0.262064	-0.0313896	5.74108	1.04424	1	9	0.00542773	0.00264041	0	-4.49986e-05	-0.000111051	1.08892e-05	0.612357	0.00412405	0.00412381	-4.40756e-05	-25.1946	2.05935	1.86344	0.876652	0.440007	0.20747	0.486467	25.2446	1044.24	2214.64	2448.48	-64.7554	0.0000000E+000	0.0000000E+000	0.0000000E+000	64.7554	0.0000000E+000	0.0000000E+000	0.0000000E+000	-64.7554	0.0000000E+000	0.0000000E+000	0.0000000E+000	-25.2446	0.0000000E+000	0.0000000E+000	0.0000000E+000	25.2446	2.12082	64.7554	-1.14129e-05	-8.22609e-06	3.48586e-09	-8.22957e-06	0.262175	8348.74	3.53784	8352.28
10002.2	2.49693	1.05704	2.71146	-22.9446	4.21056	0.262072	-0.0286669	15.0534	2.28775	1	9	0.00524165	0.00193315	0	-5.05045e-05	-0.000130161	1.23116e-05	-58.4141	0.00636866	0.00333575	0.00542518	-23.0225	2.71665	2.50027	1.06246	0.339627	0.143775	0.368806	22.9446	2287.75	5404.12	5868.42	-67.0554	0.0000000E+000	0.0000000E+000	0.0000000E+000	67.0554	0.0000000E+000	0.0000000E+000	0.0000000E+000	-67.0554	0.0000000E+000	0.0000000E+000	0.0000000E+000	-22.9446	0.0000000E+000	0.0000000E+000	0.0000000E+000	22.9446	2.3622	67.0554	-7.2777e-07	-7.51281e-06	3.73133e-09	-7.51654e-06	0.262202	9141.97	4.54047	9146.51
3163.08	3.1356	1.53029	3.48909	-26.0142	5.23267	0.262012	-0.0436232	32.8802	6.32498	1	9	0.00537092	0.00153934	0	-6.18633e-05	6.09381e-05	1.32456e-05	-61.1264	0.00860471	0.00415503	0.00753503	-26.0953	3.49614	3.13975	1.53783	0.25757	0.125704	0.286607	26.0142	6324.98	12960	14421.1	-63.9858	0.0000000E+000	0.0000000E+000	0.0000000E+000	63.9858	0.0000000E+000	0.0000000E+000	0.0000000E+000	-63.9858	0.0000000E+000	0.0000000E+000	0.0000000E+000	-26.0142	0.0000000E+000	0.0000000E+000	0.0000000E+000	26.0142	2.04902	63.9858	-5.03921e-06	-1.14298e-05	-2.65831e-09	-1.14271e-05	0.261951	6006.25	1.39692	6004.85
1000.32	4.1141	2.95615	5.06603	-35.6988	6.83082	0.26203	-0.0170641	53.8213	18.3262	1	10	0.00523014	0.00103239	0	-7.08539e-05	-0.000244821	1.06334e-05	0.498437	0.0102998	0.0102994	-8.96003e-05	-35.6301	5.07434	4.1244	2.95606	0.160302	0.115184	0.197393	35.6988	18326.2	25504.7	31406.1	-54.3012	0.0000000E+000	0.0000000E+000	0.0000000E+000	54.3012	0.0000000E+000	0.0000000E+000	0.0000000E+000	-54.3012	0.0000000E+000	0.0000000E+000	0.0000000E+000	-35.6988	0.0000000E+000	0.0000000E+000	0.0000000E+000	35.6988	1.39171	54.3012	-1.68792e-06	-4.4713e-06	4.17764e-09	-4.47548e-06	0.262275	15355.7	14.3472	15370
316.316	6.36842	6.25839	8.92885	-44.5007	8.18109	0.262022	-0.0173737	80.3963	39.4977	1	10	0.00503789	0.000564226	0	-7.66041e-05	-5.37216e-05	1.01404e-05	25.0107	0.0179722	0.0162869	-0.00759841	-44.3928	8.93515	6.38471	6.25079	0.0798806	0.0785004	0.111997	44.5007	39497.7	40192.1	56351.3	-45.4993	0.0000000E+000	0.0000000E+000	0.0000000E+000	45.4993	0.0000000E+000	0.0000000E+000	0.0000000E+000	-45.4993	0.0000000E+000	0.0000000E+000	0.0000000E+000	-44.5007	0.0000000E+000	0.0000000E+000	0.0000000E+000	44.5007	1.01758	45.4993	-1.72488e-06	-4.55228e-06	9.33342e-10	-4.55322e-06	0.262076	15081.5	3.09212	15084.6
100.032	13.1391	11.6134	17.5359	-41.473	9.52881	0.262035	-0.0167843	137	60.0879	1	10	0.00498336	0.000284181	0	-8.26128e-05	2.27182e-05	2.48977e-05	21.8622	0.087612	0.0813111	-0.0326246	-41.2177	17.5754	13.2204	11.5808	0.0427278	0.0377664	0.057026	41.473	60087.9	67981.6	90730.6	-48.527	0.0000000E+000	0.0000000E+000	0.0000000E+000	48.527	0.0000000E+000	0.0000000E+000	0.0000000E+000	-48.527	0.0000000E+000	0.0000000E+000	0.0000000E+000	-41.473	0.0000000E+000	0.0000000E+000	0.0000000E+000	41.473	1.13137	48.527	-2.14856e-06	-4.39807e-06	-3.8131e-10	-4.39769e-06	0.262012	15611.9	1.35354	15610.5
31.6296	25.4343	12.0375	28.139	-25.3272	11.1085	0.262049	-0.00915668	418.013	76.4973	1	11	0.00497958	0.000176963	0	-8.6501e-05	0.000175598	5.61945e-06	8.61425	0.0317549	0.0313967	-0.00475629	-25.2912	28.1654	25.4657	12.0328	0.0321219	0.0152026	0.0355378	25.3272	76497.3	161632	178821	-64.6728	0.0000000E+000	0.0000000E+000	0.0000000E+000	64.6728	0.0000000E+000	0.0000000E+000	0.0000000E+000	-64.6728	0.0000000E+000	0.0000000E+000	0.0000000E+000	-25.3272	0.0000000E+000	0.0000000E+000	0.0000000E+000	25.3272	2.11291	64.6728	-6.98843e-07	-2.3995e-06	-1.60789e-09	-2.39789e-06	0.261874	28618.4	19.177	28599.2
10.0032	33.0971	7.21258	33.8739	-12.2938	12.4408	0.26206	-0.00852357	2205.92	100.009	1	11	0.00498912	0.000147285	0	-9.01806e-05	3.60827e-06	8.3557e-06	0.242773	0.0567315	0.056731	-0.000240381	-12.273	33.9293	33.1539	7.21234	0.0288443	0.00628579	0.0295212	12.2938	100009	458924	469695	-77.7062	0.0000000E+000	0.0000000E+000	0.0000000E+000	77.7062	0.0000000E+000	0.0000000E+000	0.0000000E+000	-77.7062	0.0000000E+000	0.0000000E+000	0.0000000E+000	-12.2938	0.0000000E+000	0.0000000E+000	0.0000000E+000	12.2938	4.58881	77.7062	-2.22348e-06	-2.23369e-06	-3.07553e-11	-2.23365e-06	0.262056	30745.3	0.423329	30744.9
3.1604	36.0393	4.29766	36.2946	-6.80036	13.9574	0.262069	-0.00728122	11717.8	164.295	1	11	0.00498206	0.000137267	0	-9.40298e-05	-0.000263931	6.86065e-06	-15.4216	0.0499803	0.0481807	0.0132908	-6.81217	36.3441	36.0875	4.31095	0.0273584	0.00326247	0.0275523	6.80036	164295	1.37775e+06	1.38751e+06	-83.1996	0.0000000E+000	0.0000000E+000	0.0000000E+000	83.1996	0.0000000E+000	0.0000000E+000	0.0000000E+000	-83.1996	0.0000000E+000	0.0000000E+000	0.0000000E+000	-6.80036	0.0000000E+000	0.0000000E+000	0.0000000E+000	6.80036	8.38581	83.1996	-3.28302e-06	-1.90818e-06	1.92174e-09	-1.9101e-06	0.262333	35992.5	36.2482	36028.7
1.00006	38.1743	3.5731	38.3411	-5.34729	19.2769	0.262066	-0.00625901	44539.7	386.819	1	12	0.00498722	0.000130075	0	-9.88625e-05	-0.000263931	2.64563e-06	-6.19775	0.0203393	0.0202204	0.00219584	-5.34774	38.3615	38.1945	3.5753	0.0259682	0.00243061	0.0260817	5.34729	386819	4.1327e+06	4.15076e+06	-84.6527	0.0000000E+000	0.0000000E+000	0.0000000E+000	84.6527	0.0000000E+000	0.0000000E+000	0.0000000E+000	-84.6527	0.0000000E+000	0.0000000E+000	0.0000000E+000	-5.34729	0.0000000E+000	0.0000000E+000	0.0000000E+000	5.34729	10.6838	84.6527	3.78443e-07	-1.64027e-06	1.65195e-09	-1.64193e-06	0.26233	41870.2	42.1682	41912.4
0.316193	40.5142	3.92698	40.7041	-5.5363	33.6192	0.262058	-0.00451329	128177	1193.03	1	12	0.00498615	0.000122498	0	-0.000125811	-0.000397701	3.84665e-06	-13.2269	0.0314019	0.0305689	0.00718501	-5.54221	40.7352	40.5448	3.93416	0.024453	0.00237019	0.0245676	5.5363	1.19303e+06	1.23083e+07	1.2366e+07	-84.4637	0.0000000E+000	0.0000000E+000	0.0000000E+000	84.4637	0.0000000E+000	0.0000000E+000	0.0000000E+000	-84.4637	0.0000000E+000	0.0000000E+000	0.0000000E+000	-5.5363	0.0000000E+000	0.0000000E+000	0.0000000E+000	5.5363	10.3169	84.4637	-1.73653e-05	-1.18274e-06	1.79494e-09	-1.18454e-06	0.262456	58063.8	88.1178	58151.9
0.0999041	43.1431	5.10562	43.4441	-6.74909	78.8272	0.262054	-0.00380142	312024	4309.47	1	12	0.00498928	0.000114844	0	-0.00021567	-3.46116e-05	4.80674e-06	-19.2875	0.0418547	0.0395055	0.013825	-6.76106	43.485	43.1826	5.11945	0.0228586	0.00270512	0.0230181	6.74909	4.30946e+06	3.64155e+07	3.66696e+07	-83.2509	0.0000000E+000	0.0000000E+000	0.0000000E+000	83.2509	0.0000000E+000	0.0000000E+000	0.0000000E+000	-83.2509	0.0000000E+000	0.0000000E+000	0.0000000E+000	-6.74909	0.0000000E+000	0.0000000E+000	0.0000000E+000	6.74909	8.45011	83.2509	-2.94673e-05	-9.96176e-07	1.31573e-10	-9.96308e-07	0.262089	68935.9	9.10493	68945
0.0315922	46.0689	8.82563	46.9067	-10.845	221.711	0.262064	-0.00152535	570814	20207.7	1	12	0.00499155	0.000106414	0	-0.000145689	-0.000302151	2.51733e-06	-7.74303	0.0236559	0.0234402	0.00318716	-10.8435	46.9303	46.0923	8.82882	0.0209382	0.00401122	0.0213189	10.845	2.02077e+07	1.05482e+08	1.074e+08	-79.155	0.0000000E+000	0.0000000E+000	0.0000000E+000	79.155	0.0000000E+000	0.0000000E+000	0.0000000E+000	-79.155	0.0000000E+000	0.0000000E+000	0.0000000E+000	-10.845	0.0000000E+000	0.0000000E+000	0.0000000E+000	10.845	5.2199	79.155	6.1513e-05	-3.99741e-07	4.60887e-10	-4.00202e-07	0.262367	171806	198.086	172004
0.0100092	51.5597	18.6923	54.8434	-19.9275	672.933	0.262055	5.39081e-05	850665	98818	1	12	0.0049853	9.09005e-05	0	-0.000231819	-0.000225711	2.12551e-06	-2.3472	0.0233828	0.0233632	0.000957642	-19.9201	54.8657	51.583	18.6933	0.017142	0.00621461	0.0182337	19.9275	9.8818e+07	2.72573e+08	2.89933e+08	-70.0725	0.0000000E+000	0.0000000E+000	0.0000000E+000	70.0725	0.0000000E+000	0.0000000E+000	0.0000000E+000	-70.0725	0.0000000E+000	0.0000000E+000	0.0000000E+000	-19.9275	0.0000000E+000	0.0000000E+000	0.0000000E+000	19.9275	2.75833	70.0725	-0.00015985	1.41269e-08	-1.21677e-11	1.41391e-08	0.262281	4.86115e+06	4186.96	4.86534e+06