File: txt/18726_R302_UA699_SOC00_C01.mpt
EC-Lab ASCII FILE
Nb header lines : 65

Potentio Electrochemical Impedance Spectroscopy

Run on channel : 1 (SN 66354)
User :
CE vs. WE compliance from -10 V to 10 V
Electrode connection : standard
Potential control : Ewe
Ewe ctrl range : min = -10.00 V, max = 10.00 V
Safety Limits :
	Do not start on E overload
Acquisition started on : 10/31/2025 11:23:47.789
Technique started on : 10/31/2025 11:23:49.701
Loaded Setting File :  C:\Users\Celltest\OneDrive - store-dot.com\Documents\EC-Lab\Data\@Biologic Test Protocols\anode half cell EIS SOC00.mps
Saved on :
	File : 18726_R302_UA699_SOC00_C01.mpr
	Directory : C:\Users\Celltest\OneDrive - store-dot.com\Documents\EC-Lab\Data\Charmaine\
	Host : 169.254.61.224
Device : VMP-3e (SN .003165)
Address : USB
EC-LAB for windows v11.62 (software)
Internet server v27.00 (firmware)
Command interpretor v12.03 (firmware)
Electrode material :
Initial state :
Electrolyte :
Comments :
Electrode surface area : 0.001 cm²
Characteristic mass : 0.001 g
Equivalent Weight : 0.000 g/eq.
Density : 0.000 g/cm3
Volume (V) : 0.001 cm³
Record Ece
Cycle Definition : Charge/Discharge alternance
Mode                Single sine
E (V)               0.0000
vs.                 Eoc
tE (h:m:s)          0:00:0.0000
record              0
dI                  0.000
unit dI             mA
dt (s)              0.000
fi                  100.000
unit fi             kHz
ff                  10.000
unit ff             mHz
Nd                  6
Points              per decade
spacing             Logarithmic
Va (mV)             5.0
pw                  0.10
Na                  2
corr                0
E range min (V)     -10.000
E range max (V)     10.000
I Range             Auto
Bandwidth           5
nc cycles           0
goto Ns'            0
nr cycles           0
inc. cycle          0

freq/Hz	Re(Z)/Ohm	-Im(Z)/Ohm	|Z|/Ohm	Phase(Z)/deg	time/s	<Ewe>/V	<I>/mA	Cs/µF	Cp/µF	cycle number	I Range	|Ewe|/V	|I|/A	Ns	(Q-Qo)/mA.h	<Ece>/V	|Ece|/V	Phase(Zce)/deg	|Zce|/Ohm	Re(Zce)/Ohm	-Im(Zce)/Ohm	Phase(Zwe-ce)/deg	|Zwe-ce|/Ohm	Re(Zwe-ce)/Ohm	-Im(Zwe-ce)/Ohm	Re(Y)/Ohm-1	Im(Y)/Ohm-1	|Y|/Ohm-1	Phase(Y)/deg	Re(C)/nF	Im(C)/nF	|C|/nF	Phase(C)/deg	Re(M)	Im(M)	|M|	Phase(M)/deg	Re(Permittivity)	Im(Permittivity)	|Permittivity|	Phase(Permittivity)/deg	Re(Resistivity)/Ohm.cm	Im(Resistivity)/Ohm.cm	|Resistivity|/Ohm.cm	Phase(Resistivity)/deg	Re(Conductivity)/mS/cm	Im(Conductivity)/mS/cm	|Conductivity|/mS/cm	Phase(Conductivity)/deg	Tan(Delta)	Loss Angle(Delta)/deg	dq/mA.h	Pwe/W	Pce/W	Pwe-ce/W	<Ewe-Ece>/V	Rwe/Ohm	Rce/Ohm	Rwe-ce/Ohm		Ewe-Ece/V
100004	1.42063	0.740612	1.60209	-27.5342	1.91154	0.27113	0.0648552	2.14889	0.459219	1	9	0.0047094	0.00293953	0	2.12268e-06	0.00021219	4.28974e-05	91.7955	0.0145933	-0.000457247	-0.0145861	-27.0772	1.59499	1.42017	0.726026	0.553486	0.288547	0.624184	27.5342	459.219	880.867	993.383	-62.4658	0.0000000E+000	0.0000000E+000	0.0000000E+000	62.4658	0.0000000E+000	0.0000000E+000	0.0000000E+000	-62.4658	0.0000000E+000	0.0000000E+000	0.0000000E+000	-27.5342	0.0000000E+000	0.0000000E+000	0.0000000E+000	27.5342	1.91818	62.4658	2.12268e-06	1.75842e-05	1.37616e-08	1.75704e-05	0.270917	4180.54	3.27175	4177.26
31621.1	2.13107	1.03069	2.36723	-25.8106	3.43256	0.271126	0.0704061	4.88333	0.925739	1	9	0.00510232	0.0021554	0	2.1333e-05	4.04943e-05	7.94125e-06	1.50809	0.00368436	0.00368308	-9.69652e-05	-25.7697	2.3705	2.13475	1.03059	0.380292	0.183927	0.422435	25.8106	925.739	1914.08	2126.19	-64.1894	0.0000000E+000	0.0000000E+000	0.0000000E+000	64.1894	0.0000000E+000	0.0000000E+000	0.0000000E+000	-64.1894	0.0000000E+000	0.0000000E+000	0.0000000E+000	-25.8106	0.0000000E+000	0.0000000E+000	0.0000000E+000	25.8106	2.06762	64.1894	4.74672e-06	1.90889e-05	2.85104e-09	1.90861e-05	0.271086	3850.89	0.575153	3850.31
10002.2	2.93573	1.23328	3.18425	-22.7869	4.58156	0.27112	0.0519652	12.9022	1.93539	1	9	0.00494987	0.00155448	0	3.96508e-05	0.000402963	1.06903e-05	-80.969	0.00687708	0.00107948	0.00679183	-22.8919	3.18788	2.93681	1.24007	0.289535	0.121631	0.314045	22.7869	1935.39	4607.06	4997.07	-67.2131	0.0000000E+000	0.0000000E+000	0.0000000E+000	67.2131	0.0000000E+000	0.0000000E+000	0.0000000E+000	-67.2131	0.0000000E+000	0.0000000E+000	0.0000000E+000	-22.7869	0.0000000E+000	0.0000000E+000	0.0000000E+000	22.7869	2.38043	67.2131	7.4683e-06	1.40888e-05	2.09401e-08	1.40678e-05	0.270717	5217.33	7.75448	5209.58
3163.08	3.79216	1.6468	4.1343	-23.4735	5.68968	0.271048	-0.0167828	30.5541	4.84781	1	10	0.00479882	0.00116073	0	4.99432e-05	0.000441118	7.34911e-06	4.38719	0.00633143	0.00631288	-0.000484331	-23.4326	4.1399	3.79848	1.64631	0.221862	0.0963465	0.241879	23.4735	4847.81	11163.3	12170.5	-66.5265	0.0000000E+000	0.0000000E+000	0.0000000E+000	66.5265	0.0000000E+000	0.0000000E+000	0.0000000E+000	-66.5265	0.0000000E+000	0.0000000E+000	0.0000000E+000	-23.4735	0.0000000E+000	0.0000000E+000	0.0000000E+000	23.4735	2.30275	66.5265	3.2642e-06	-4.54895e-06	-7.40321e-09	-4.54155e-06	0.270607	16150.3	26.2839	16124
1000.32	4.83166	2.74918	5.55904	-29.6395	7.04179	0.271038	-0.00958613	57.8733	14.1542	1	10	0.00464462	0.000835508	0	4.63586e-05	2.1417e-05	9.97798e-06	-62.1741	0.0119424	0.00557455	0.0105615	-29.7056	5.56911	4.83723	2.75974	0.15635	0.0889618	0.179887	29.6395	14154.2	24875.9	28620.8	-60.3605	0.0000000E+000	0.0000000E+000	0.0000000E+000	60.3605	0.0000000E+000	0.0000000E+000	0.0000000E+000	-60.3605	0.0000000E+000	0.0000000E+000	0.0000000E+000	-29.6395	0.0000000E+000	0.0000000E+000	0.0000000E+000	29.6395	1.75749	60.3605	-1.56962e-06	-2.59821e-06	-2.05306e-10	-2.598e-06	0.271017	28274	2.23416	28271.8
316.316	6.89887	5.44477	8.78862	-38.2814	8.39204	0.271042	-0.0114794	92.4101	35.468	1	10	0.00458366	0.000521545	0	4.24306e-05	5.95716e-05	1.05543e-05	-32.1524	0.0202366	0.017133	0.0107694	-38.2674	8.80874	6.916	5.45554	0.0893174	0.0704917	0.113783	38.2814	35468	44940.2	57250.4	-51.7186	0.0000000E+000	0.0000000E+000	0.0000000E+000	51.7186	0.0000000E+000	0.0000000E+000	0.0000000E+000	-51.7186	0.0000000E+000	0.0000000E+000	0.0000000E+000	-38.2814	0.0000000E+000	0.0000000E+000	0.0000000E+000	38.2814	1.26706	51.7186	-1.53154e-06	-3.1114e-06	-6.83847e-10	-3.11072e-06	0.270982	23611.1	5.18942	23605.9
100.032	12.6305	9.85435	16.0199	-37.9615	9.73878	0.271037	-0.00958242	161.456	61.0926	1	10	0.00456484	0.000284948	0	3.83263e-05	-0.000131202	1.23774e-05	4.98495	0.0434375	0.0432732	-0.00377446	-37.8558	16.0517	12.6738	9.85058	0.0492153	0.0383979	0.0624223	37.9615	61092.6	78303.5	99316.4	-52.0385	0.0000000E+000	0.0000000E+000	0.0000000E+000	52.0385	0.0000000E+000	0.0000000E+000	0.0000000E+000	-52.0385	0.0000000E+000	0.0000000E+000	0.0000000E+000	-37.9615	0.0000000E+000	0.0000000E+000	0.0000000E+000	37.9615	1.28172	52.0385	-7.43156e-07	-2.59719e-06	1.25723e-09	-2.59845e-06	0.271168	28284.8	13.6919	28298.5
31.6296	22.9301	10.6845	25.2972	-24.9836	11.3076	0.271095	-0.00484113	470.947	84.0111	1	11	0.00456478	0.000180446	0	3.59083e-05	0.000250345	1.2589e-05	-5.26238	0.0697662	0.0694721	0.00639872	-24.9305	25.3629	22.9996	10.6909	0.0358312	0.0166959	0.0395301	24.9836	84011.1	180297	198909	-65.0164	0.0000000E+000	0.0000000E+000	0.0000000E+000	65.0164	0.0000000E+000	0.0000000E+000	0.0000000E+000	-65.0164	0.0000000E+000	0.0000000E+000	0.0000000E+000	-24.9836	0.0000000E+000	0.0000000E+000	0.0000000E+000	24.9836	2.14611	65.0164	-7.87698e-07	-1.31241e-06	-1.21195e-09	-1.31119e-06	0.270845	55998.3	51.712	55946.6
10.0032	29.993	7.51933	30.9212	-14.0742	12.6398	0.271099	-0.00444937	2115.93	125.126	1	11	0.00456729	0.000147708	0	3.53133e-05	5.95716e-05	4.26688e-06	-11.3976	0.0288873	0.0283177	0.00570861	-14.0717	30.95	30.0213	7.52504	0.0313695	0.00786444	0.0323403	14.0742	125126	499101	514547	-75.9258	0.0000000E+000	0.0000000E+000	0.0000000E+000	75.9258	0.0000000E+000	0.0000000E+000	0.0000000E+000	-75.9258	0.0000000E+000	0.0000000E+000	0.0000000E+000	-14.0742	0.0000000E+000	0.0000000E+000	0.0000000E+000	14.0742	3.98878	75.9258	1.75416e-07	-1.20622e-06	-2.65056e-10	-1.20595e-06	0.271039	60929.6	13.3888	60916.2
3.1604	34.1086	5.95227	34.6241	-9.89896	14.1564	0.271119	-0.00279763	8460.49	250.037	1	11	0.00456443	0.000131828	0	3.29844e-05	7.86489e-05	4.14732e-06	-95.0159	0.0314601	-0.0027506	0.0313396	-9.95083	34.6268	34.1059	5.98361	0.0284516	0.00496507	0.0288816	9.89896	250037	1.4328e+06	1.45445e+06	-80.101	0.0000000E+000	0.0000000E+000	0.0000000E+000	80.101	0.0000000E+000	0.0000000E+000	0.0000000E+000	-80.101	0.0000000E+000	0.0000000E+000	0.0000000E+000	-9.89896	0.0000000E+000	0.0000000E+000	0.0000000E+000	9.89896	5.73035	80.101	-3.27731e-08	-7.58491e-07	-2.20031e-10	-7.58271e-07	0.27104	96910.1	28.1126	96882
1.00006	37.9574	5.61494	38.3704	-8.4146	19.4786	0.271103	-0.00247816	28343.1	606.938	1	12	0.00456333	0.000118928	0	3.12143e-05	0.00021219	4.03203e-06	58.1998	0.033903	0.0178655	-0.0288139	-8.36815	38.3839	37.9752	5.58613	0.0257812	0.00381375	0.0260617	8.4146	606938	4.10294e+06	4.14759e+06	-81.5854	0.0000000E+000	0.0000000E+000	0.0000000E+000	81.5854	0.0000000E+000	0.0000000E+000	0.0000000E+000	-81.5854	0.0000000E+000	0.0000000E+000	0.0000000E+000	-8.4146	0.0000000E+000	0.0000000E+000	0.0000000E+000	8.4146	6.76006	81.5854	-3.72071e-06	-6.71835e-07	-5.25841e-10	-6.7131e-07	0.27089	109397	85.624	109311
0.316193	41.9063	5.53323	42.27	-7.52171	33.823	0.271109	-0.00234817	90968.1	1558.77	1	12	0.00456593	0.000108018	0	7.40639e-06	7.86489e-05	2.60571e-06	19.9952	0.0241229	0.0226688	-0.0082486	-7.50661	42.2914	41.929	5.52498	0.0234539	0.0030968	0.0236574	7.52171	1.55877e+06	1.18054e+07	1.19079e+07	-82.4783	0.0000000E+000	0.0000000E+000	0.0000000E+000	82.4783	0.0000000E+000	0.0000000E+000	0.0000000E+000	-82.4783	0.0000000E+000	0.0000000E+000	0.0000000E+000	-7.52171	0.0000000E+000	0.0000000E+000	0.0000000E+000	7.52171	7.57358	82.4783	-7.53168e-06	-6.3661e-07	-1.84681e-10	-6.36425e-07	0.271031	115456	33.4937	115422
0.0999041	45.4884	6.49158	45.9493	-8.12175	79.0308	0.271109	-0.00175402	245407	4898.12	1	12	0.00456147	9.92717e-05	0	3.08552e-05	-9.30469e-05	2.10148e-06	-49.931	0.021169	0.0136267	0.0162	-8.13934	45.9651	45.5021	6.50778	0.0215448	0.00307463	0.0217631	8.12175	4.89812e+06	3.43226e+07	3.46703e+07	-81.8782	0.0000000E+000	0.0000000E+000	0.0000000E+000	81.8782	0.0000000E+000	0.0000000E+000	0.0000000E+000	-81.8782	0.0000000E+000	0.0000000E+000	0.0000000E+000	-8.12175	0.0000000E+000	0.0000000E+000	0.0000000E+000	8.12175	7.0073	81.8782	1.66907e-05	-4.75532e-07	1.63207e-10	-4.75695e-07	0.271202	154564	53.0476	154617
0.0315922	49.8154	9.92651	50.7948	-11.2695	221.914	0.271111	0.00016124	507509	19382	1	12	0.00456759	8.99223e-05	0	9.83478e-06	2.1417e-05	2.33192e-06	26.3296	0.0259326	0.0232423	-0.011502	-11.2516	50.8154	49.8387	9.91501	0.0193075	0.00384731	0.019687	11.2695	1.9382e+07	9.7267e+07	9.91792e+07	-78.7305	0.0000000E+000	0.0000000E+000	0.0000000E+000	78.7305	0.0000000E+000	0.0000000E+000	0.0000000E+000	-78.7305	0.0000000E+000	0.0000000E+000	0.0000000E+000	-11.2695	0.0000000E+000	0.0000000E+000	0.0000000E+000	11.2695	5.01843	78.7305	-4.07036e-05	4.37139e-08	3.45327e-12	4.37105e-08	0.27109	1.68142e+06	132.827	1.68128e+06
0.0100092	56.4395	18.6102	59.4286	-18.2493	673.135	0.271102	-0.000630843	854421	83787.9	1	12	0.00456378	7.67943e-05	0	-0.000405413	0.000135881	2.59458e-06	2.34005	0.0337861	0.0337579	-0.00137949	-18.2378	59.4602	56.4733	18.6088	0.0159806	0.00526937	0.0168269	18.2493	8.37878e+07	2.54106e+08	2.67563e+08	-71.7507	0.0000000E+000	0.0000000E+000	0.0000000E+000	71.7507	0.0000000E+000	0.0000000E+000	0.0000000E+000	-71.7507	0.0000000E+000	0.0000000E+000	0.0000000E+000	-18.2493	0.0000000E+000	0.0000000E+000	0.0000000E+000	18.2493	3.03273	71.7507	-0.000150101	-1.71023e-07	-8.57195e-11	-1.70937e-07	0.270966	429746	215.396	429530