File: txt/18727_R302_UA699_SOC00_C02.mpt
EC-Lab ASCII FILE
Nb header lines : 65

Potentio Electrochemical Impedance Spectroscopy

Run on channel : 2 (SN 66139)
User :
CE vs. WE compliance from -10 V to 10 V
Electrode connection : standard
Potential control : Ewe
Ewe ctrl range : min = -10.00 V, max = 10.00 V
Safety Limits :
	Do not start on E overload
Acquisition started on : 10/31/2025 11:23:56.500
Technique started on : 10/31/2025 11:23:58.412
Loaded Setting File :  C:\Users\Celltest\OneDrive - store-dot.com\Documents\EC-Lab\Data\@Biologic Test Protocols\anode half cell EIS SOC00.mps
Saved on :
	File : 18727_R302_UA699_SOC00_C02.mpr
	Directory : C:\Users\Celltest\OneDrive - store-dot.com\Documents\EC-Lab\Data\Charmaine\
	Host : 169.254.61.224
Device : VMP-3e (SN .003165)
Address : USB
EC-LAB for windows v11.62 (software)
Internet server v27.00 (firmware)
Command interpretor v12.03 (firmware)
Electrode material :
Initial state :
Electrolyte :
Comments :
Electrode surface area : 0.001 cm²
Characteristic mass : 0.001 g
Equivalent Weight : 0.000 g/eq.
Density : 0.000 g/cm3
Volume (V) : 0.001 cm³
Record Ece
Cycle Definition : Charge/Discharge alternance
Mode                Single sine
E (V)               0.0000
vs.                 Eoc
tE (h:m:s)          0:00:0.0000
record              0
dI                  0.000
unit dI             mA
dt (s)              0.000
fi                  100.000
unit fi             kHz
ff                  10.000
unit ff             mHz
Nd                  6
Points              per decade
spacing             Logarithmic
Va (mV)             5.0
pw                  0.10
Na                  2
corr                0
E range min (V)     -10.000
E range max (V)     10.000
I Range             Auto
Bandwidth           5
nc cycles           0
goto Ns'            0
nr cycles           0
inc. cycle          0

freq/Hz	Re(Z)/Ohm	-Im(Z)/Ohm	|Z|/Ohm	Phase(Z)/deg	time/s	<Ewe>/V	<I>/mA	Cs/µF	Cp/µF	cycle number	I Range	|Ewe|/V	|I|/A	Ns	(Q-Qo)/mA.h	<Ece>/V	|Ece|/V	Phase(Zce)/deg	|Zce|/Ohm	Re(Zce)/Ohm	-Im(Zce)/Ohm	Phase(Zwe-ce)/deg	|Zwe-ce|/Ohm	Re(Zwe-ce)/Ohm	-Im(Zwe-ce)/Ohm	Re(Y)/Ohm-1	Im(Y)/Ohm-1	|Y|/Ohm-1	Phase(Y)/deg	Re(C)/nF	Im(C)/nF	|C|/nF	Phase(C)/deg	Re(M)	Im(M)	|M|	Phase(M)/deg	Re(Permittivity)	Im(Permittivity)	|Permittivity|	Phase(Permittivity)/deg	Re(Resistivity)/Ohm.cm	Im(Resistivity)/Ohm.cm	|Resistivity|/Ohm.cm	Phase(Resistivity)/deg	Re(Conductivity)/mS/cm	Im(Conductivity)/mS/cm	|Conductivity|/mS/cm	Phase(Conductivity)/deg	Tan(Delta)	Loss Angle(Delta)/deg	dq/mA.h	Pwe/W	Pce/W	Pwe-ce/W	<Ewe-Ece>/V	Rwe/Ohm	Rce/Ohm	Rwe-ce/Ohm		Ewe-Ece/V
100004	1.65142	0.863629	1.86361	-27.6079	1.91154	0.274179	-0.011246	1.84279	0.395751	1	9	0.00462677	0.00248269	0	-6.37106e-06	-0.000152384	1.9973e-05	67.1526	0.00804491	0.00312367	-0.00741372	-27.3613	1.86296	1.65454	0.856216	0.475497	0.248667	0.536593	27.6079	395.751	756.749	853.983	-62.3921	0.0000000E+000	0.0000000E+000	0.0000000E+000	62.3921	0.0000000E+000	0.0000000E+000	0.0000000E+000	-62.3921	0.0000000E+000	0.0000000E+000	0.0000000E+000	-27.6079	0.0000000E+000	0.0000000E+000	0.0000000E+000	27.6079	1.91218	62.3921	-6.37106e-06	-3.08341e-06	1.71371e-09	-3.08513e-06	0.274332	24380.2	13.5501	24393.8
31621.1	2.50251	1.21844	2.78337	-25.9608	3.30856	0.274179	-0.0067765	4.13084	0.791597	1	9	0.00535508	0.00192396	0	-1.77274e-05	0.000191251	9.74284e-06	-10.3738	0.00506396	0.00498119	0.000911861	-25.9329	2.78825	2.50749	1.21935	0.323023	0.157276	0.359277	25.9608	791.598	1625.83	1808.3	-64.0392	0.0000000E+000	0.0000000E+000	0.0000000E+000	64.0392	0.0000000E+000	0.0000000E+000	0.0000000E+000	-64.0392	0.0000000E+000	0.0000000E+000	0.0000000E+000	-25.9608	0.0000000E+000	0.0000000E+000	0.0000000E+000	25.9608	2.05387	64.0392	-5.73961e-06	-1.85797e-06	-1.29601e-09	-1.85668e-06	0.273988	40460.3	28.2227	40432.1
10002.2	3.44486	1.39405	3.71624	-22.032	4.21156	0.274169	-0.0145609	11.4142	1.60619	1	9	0.0054141	0.00145688	0	-1.95383e-05	0.000363069	9.00373e-06	-125.278	0.00618016	-0.00356932	0.00504522	-22.1248	3.71483	3.44129	1.3991	0.249439	0.100942	0.269089	22.032	1606.18	3969.06	4281.73	-67.968	0.0000000E+000	0.0000000E+000	0.0000000E+000	67.968	0.0000000E+000	0.0000000E+000	0.0000000E+000	-67.968	0.0000000E+000	0.0000000E+000	0.0000000E+000	-22.032	0.0000000E+000	0.0000000E+000	0.0000000E+000	22.032	2.47111	67.968	-6.89365e-07	-3.99215e-06	-5.2866e-09	-3.98686e-06	0.273806	18829.1	24.9345	18804.2
3163.08	4.38427	1.80462	4.74115	-22.3727	5.26961	0.274102	-0.0219301	27.882	4.03952	1	10	0.00529743	0.00111733	0	-2.39867e-05	-0.000152384	1.11767e-05	-46.5371	0.0100031	0.00688096	0.00726044	-22.4221	4.75027	4.39115	1.81188	0.195043	0.0802823	0.210919	22.3727	4039.52	9813.87	10612.7	-67.6273	0.0000000E+000	0.0000000E+000	0.0000000E+000	67.6273	0.0000000E+000	0.0000000E+000	0.0000000E+000	-67.6273	0.0000000E+000	0.0000000E+000	0.0000000E+000	-22.3727	0.0000000E+000	0.0000000E+000	0.0000000E+000	22.3727	2.42947	67.6273	-1.55791e-06	-6.01109e-06	3.3418e-09	-6.01443e-06	0.274255	12498.9	6.94863	12505.9
1000.32	5.53373	2.95975	6.27553	-28.1404	6.62479	0.27411	-0.0144126	53.7559	11.9573	1	10	0.00513827	0.000818779	0	-2.89143e-05	-0.000209657	7.6175e-06	-51.3751	0.00930349	0.00580741	0.00726835	-28.1738	6.28408	5.53954	2.96702	0.140513	0.0751543	0.159349	28.1404	11957.3	22356.2	25353.1	-61.8596	0.0000000E+000	0.0000000E+000	0.0000000E+000	61.8596	0.0000000E+000	0.0000000E+000	0.0000000E+000	-61.8596	0.0000000E+000	0.0000000E+000	0.0000000E+000	-28.1404	0.0000000E+000	0.0000000E+000	0.0000000E+000	28.1404	1.86966	61.8596	-1.83875e-06	-3.95065e-06	3.02171e-09	-3.95367e-06	0.27432	19018.8	14.5467	19033.3
316.316	7.72649	5.80966	9.66699	-36.9401	7.97505	0.274111	-0.0148448	86.606	31.28	1	10	0.00506642	0.000524095	0	-3.36579e-05	0.000133978	9.81763e-06	38.981	0.0187325	0.0145618	-0.0117839	-36.8324	9.67157	7.74105	5.79788	0.0826797	0.0621682	0.103445	36.9401	31280	41600.5	52048.4	-53.0599	0.0000000E+000	0.0000000E+000	0.0000000E+000	53.0599	0.0000000E+000	0.0000000E+000	0.0000000E+000	-53.0599	0.0000000E+000	0.0000000E+000	0.0000000E+000	-36.9401	0.0000000E+000	0.0000000E+000	0.0000000E+000	36.9401	1.32994	53.0599	-1.42524e-06	-4.06911e-06	-1.98888e-09	-4.06712e-06	0.273977	18465.2	9.0253	18456.1
100.032	13.7527	10.5807	17.3519	-37.573	9.32177	0.274103	-0.0142785	150.372	55.9115	1	10	0.00503315	0.000290063	0	-3.8557e-05	9.57967e-05	1.16773e-05	-76.0187	0.0402578	0.0097265	0.0390652	-37.6555	17.3835	13.7625	10.6198	0.0456767	0.0351415	0.0576306	37.573	55911.5	72673.4	91692.5	-52.427	0.0000000E+000	0.0000000E+000	0.0000000E+000	52.427	0.0000000E+000	0.0000000E+000	0.0000000E+000	-52.427	0.0000000E+000	0.0000000E+000	0.0000000E+000	-37.573	0.0000000E+000	0.0000000E+000	0.0000000E+000	37.573	1.29979	52.427	-2.09046e-06	-3.91379e-06	-1.36784e-09	-3.91243e-06	0.274008	19196.9	6.70914	19190.2
31.6296	24.9217	11.9392	27.634	-25.5977	10.9026	0.274144	-0.00836453	421.455	78.6714	1	11	0.00503902	0.000182349	0	-4.21723e-05	-0.000114203	8.76267e-06	113.914	0.0480545	-0.0194795	-0.0439293	-25.5329	27.5974	24.9022	11.8953	0.0326356	0.0156347	0.0361874	25.5977	78671.4	164217	182089	-64.4023	0.0000000E+000	0.0000000E+000	0.0000000E+000	64.4023	0.0000000E+000	0.0000000E+000	0.0000000E+000	-64.4023	0.0000000E+000	0.0000000E+000	0.0000000E+000	-25.5977	0.0000000E+000	0.0000000E+000	0.0000000E+000	25.5977	2.08738	64.4023	-6.14551e-07	-2.29309e-06	9.55251e-10	-2.29404e-06	0.274258	32774.6	13.6532	32788.2
10.0032	33.0019	8.66329	34.1201	-14.7088	12.2348	0.274147	-0.00765052	1836.53	118.398	1	11	0.00503461	0.000147556	0	-4.59826e-05	-9.51117e-05	1.00951e-05	3.22474	0.0684153	0.068307	-0.00384854	-14.6734	34.1852	33.0702	8.65944	0.0283478	0.00744153	0.0293082	14.7088	118398	451025	466306	-75.2912	0.0000000E+000	0.0000000E+000	0.0000000E+000	75.2912	0.0000000E+000	0.0000000E+000	0.0000000E+000	-75.2912	0.0000000E+000	0.0000000E+000	0.0000000E+000	-14.7088	0.0000000E+000	0.0000000E+000	0.0000000E+000	14.7088	3.8094	75.2912	-2.01249e-06	-2.09737e-06	7.27654e-10	-2.0981e-06	0.274242	35833.8	12.4321	35846.2
3.1604	37.8176	6.93117	38.4476	-10.3858	13.7515	0.274152	-0.00640109	7265.6	236.128	1	11	0.00503489	0.000130955	0	-4.83723e-05	0.000153069	8.27687e-06	82.9452	0.0632041	0.00776265	-0.0627256	-10.2918	38.4439	37.8254	6.86845	0.0255833	0.00468888	0.0260095	10.3858	236128	1.28835e+06	1.30981e+06	-79.6142	0.0000000E+000	0.0000000E+000	0.0000000E+000	79.6142	0.0000000E+000	0.0000000E+000	0.0000000E+000	-79.6142	0.0000000E+000	0.0000000E+000	0.0000000E+000	-10.3858	0.0000000E+000	0.0000000E+000	0.0000000E+000	10.3858	5.45617	79.6142	-2.48136e-06	-1.75488e-06	-9.79811e-10	-1.7539e-06	0.273999	42829	23.913	42805.1
1.00006	42.3528	6.65654	42.8727	-8.93205	19.0716	0.274159	-0.00587481	23908	576.341	1	12	0.00503476	0.000117435	0	-5.62659e-05	0.000133978	3.23255e-06	-6.09125	0.0275262	0.0273708	0.00292087	-8.93022	42.9002	42.3801	6.65946	0.023042	0.00362149	0.0233249	8.93205	576341	3.66702e+06	3.71203e+06	-81.068	0.0000000E+000	0.0000000E+000	0.0000000E+000	81.068	0.0000000E+000	0.0000000E+000	0.0000000E+000	-81.068	0.0000000E+000	0.0000000E+000	0.0000000E+000	-8.93205	0.0000000E+000	0.0000000E+000	0.0000000E+000	8.93205	6.36258	81.068	-7.42744e-08	-1.61063e-06	-7.87097e-10	-1.60984e-06	0.274025	46666.9	22.8056	46644.1
0.316193	47.1258	6.63173	47.5901	-8.01029	33.4169	0.274156	-0.00429568	75899.8	1473.88	1	12	0.00503575	0.000105815	0	-6.8374e-05	0.000267614	1.79779e-06	-8.49379	0.01699	0.0168036	0.00250946	-8.01046	47.6071	47.1426	6.63424	0.0208077	0.00292815	0.0210128	8.01029	1.47388e+06	1.04735e+07	1.05767e+07	-81.9897	0.0000000E+000	0.0000000E+000	0.0000000E+000	81.9897	0.0000000E+000	0.0000000E+000	0.0000000E+000	-81.9897	0.0000000E+000	0.0000000E+000	0.0000000E+000	-8.01029	0.0000000E+000	0.0000000E+000	0.0000000E+000	8.01029	7.10611	81.9897	-9.7382e-06	-1.17768e-06	-1.14958e-09	-1.17653e-06	0.273888	63821.3	62.2985	63759
0.0999041	51.6541	7.44111	52.1873	-8.19743	78.625	0.274157	-0.00303827	214091	4352.55	1	12	0.00503549	9.64886e-05	0	-0.000162437	0.000363069	2.12175e-06	26.3048	0.0219896	0.0197126	-0.00974464	-8.18376	52.2055	51.6738	7.43136	0.018966	0.00273217	0.0191617	8.19743	4.35255e+06	3.02142e+07	3.05261e+07	-81.8026	0.0000000E+000	0.0000000E+000	0.0000000E+000	81.8026	0.0000000E+000	0.0000000E+000	0.0000000E+000	-81.8026	0.0000000E+000	0.0000000E+000	0.0000000E+000	-8.19743	0.0000000E+000	0.0000000E+000	0.0000000E+000	8.19743	6.94173	81.8026	-4.03459e-05	-8.32963e-07	-1.1031e-09	-8.3186e-07	0.273794	90234.8	119.499	90115.3
0.0315922	56.5319	11.1591	57.6227	-11.1664	221.51	0.274146	-0.00214725	451451	16931	1	12	0.00503545	8.73865e-05	0	-0.000194741	9.57967e-05	2.18274e-06	1.87846	0.0249779	0.0249645	-0.000818763	-11.1607	57.647	56.5568	11.1583	0.0170257	0.0033608	0.0173543	11.1664	1.6931e+07	8.57721e+07	8.74272e+07	-78.8336	0.0000000E+000	0.0000000E+000	0.0000000E+000	78.8336	0.0000000E+000	0.0000000E+000	0.0000000E+000	-78.8336	0.0000000E+000	0.0000000E+000	0.0000000E+000	-11.1664	0.0000000E+000	0.0000000E+000	0.0000000E+000	11.1664	5.06598	78.8336	2.35269e-05	-5.8866e-07	-2.05699e-10	-5.88454e-07	0.274051	127673	44.6137	127629
0.0100092	63.8681	20.7958	67.1685	-18.0355	672.733	0.274131	-2.88322e-06	764621	73293.8	1	12	0.00503206	7.4917e-05	0	-2.21399e-05	5.7615e-05	1.5144e-06	-32.359	0.0202144	0.0170753	0.0108192	-18.0398	67.1881	63.8852	20.8066	0.0141564	0.00460941	0.0148879	18.0355	7.32938e+07	2.251e+08	2.36732e+08	-71.9645	0.0000000E+000	0.0000000E+000	0.0000000E+000	71.9645	0.0000000E+000	0.0000000E+000	0.0000000E+000	-71.9645	0.0000000E+000	0.0000000E+000	0.0000000E+000	-18.0355	0.0000000E+000	0.0000000E+000	0.0000000E+000	18.0355	3.0712	71.9645	1.75963e-05	-7.90379e-10	-1.66116e-13	-7.90213e-10	0.274073	9.50782e+07	19982.9	9.50582e+07