File: txt/18725_R302_UA698_SOC00_C05.mpt
EC-Lab ASCII FILE
Nb header lines : 65

Potentio Electrochemical Impedance Spectroscopy

Run on channel : 5 (SN 65912)
User :
CE vs. WE compliance from -10 V to 10 V
Electrode connection : standard
Potential control : Ewe
Ewe ctrl range : min = -10.00 V, max = 10.00 V
Safety Limits :
	Do not start on E overload
Acquisition started on : 10/31/2025 10:59:58.272
Technique started on : 10/31/2025 11:00:00.184
Loaded Setting File :  C:\Users\Celltest\OneDrive - store-dot.com\Documents\EC-Lab\Data\@Biologic Test Protocols\anode half cell EIS SOC00.mps
Saved on :
	File : 18725_R302_UA698_SOC00_C05.mpr
	Directory : C:\Users\Celltest\OneDrive - store-dot.com\Documents\EC-Lab\Data\Charmaine\
	Host : 169.254.61.224
Device : VMP-3e (SN .003165)
Address : USB
EC-LAB for windows v11.62 (software)
Internet server v27.00 (firmware)
Command interpretor v12.03 (firmware)
Electrode material :
Initial state :
Electrolyte :
Comments :
Electrode surface area : 0.001 cm²
Characteristic mass : 0.001 g
Equivalent Weight : 0.000 g/eq.
Density : 0.000 g/cm3
Volume (V) : 0.001 cm³
Record Ece
Cycle Definition : Charge/Discharge alternance
Mode                Single sine
E (V)               0.0000
vs.                 Eoc
tE (h:m:s)          0:00:0.0000
record              0
dI                  0.000
unit dI             mA
dt (s)              0.000
fi                  100.000
unit fi             kHz
ff                  10.000
unit ff             mHz
Nd                  6
Points              per decade
spacing             Logarithmic
Va (mV)             5.0
pw                  0.10
Na                  2
corr                0
E range min (V)     -10.000
E range max (V)     10.000
I Range             Auto
Bandwidth           5
nc cycles           0
goto Ns'            0
nr cycles           0
inc. cycle          0

freq/Hz	Re(Z)/Ohm	-Im(Z)/Ohm	|Z|/Ohm	Phase(Z)/deg	time/s	<Ewe>/V	<I>/mA	Cs/µF	Cp/µF	cycle number	I Range	|Ewe|/V	|I|/A	Ns	(Q-Qo)/mA.h	<Ece>/V	|Ece|/V	Phase(Zce)/deg	|Zce|/Ohm	Re(Zce)/Ohm	-Im(Zce)/Ohm	Phase(Zwe-ce)/deg	|Zwe-ce|/Ohm	Re(Zwe-ce)/Ohm	-Im(Zwe-ce)/Ohm	Re(Y)/Ohm-1	Im(Y)/Ohm-1	|Y|/Ohm-1	Phase(Y)/deg	Re(C)/nF	Im(C)/nF	|C|/nF	Phase(C)/deg	Re(M)	Im(M)	|M|	Phase(M)/deg	Re(Permittivity)	Im(Permittivity)	|Permittivity|	Phase(Permittivity)/deg	Re(Resistivity)/Ohm.cm	Im(Resistivity)/Ohm.cm	|Resistivity|/Ohm.cm	Phase(Resistivity)/deg	Re(Conductivity)/mS/cm	Im(Conductivity)/mS/cm	|Conductivity|/mS/cm	Phase(Conductivity)/deg	Tan(Delta)	Loss Angle(Delta)/deg	dq/mA.h	Pwe/W	Pce/W	Pwe-ce/W	<Ewe-Ece>/V	Rwe/Ohm	Rce/Ohm	Rwe-ce/Ohm		Ewe-Ece/V
100004	1.2382	0.559995	1.35895	-24.3356	1.91152	0.268268	-0.0177477	2.84197	0.482595	1	9	0.00463628	0.00341167	0	-5.55284e-07	-0.00023237	4.04204e-05	93.5413	0.0118477	-0.000731815	-0.0118251	-23.8922	1.35345	1.23747	0.54817	0.67048	0.303234	0.735863	24.3356	482.595	1067.06	1171.12	-65.6644	0.0000000E+000	0.0000000E+000	0.0000000E+000	65.6644	0.0000000E+000	0.0000000E+000	0.0000000E+000	-65.6644	0.0000000E+000	0.0000000E+000	0.0000000E+000	-24.3356	0.0000000E+000	0.0000000E+000	0.0000000E+000	24.3356	2.21109	65.6644	-5.55284e-07	-4.76113e-06	4.12402e-09	-4.76525e-06	0.2685	15115.7	13.093	15128.8
31621.1	1.73731	0.756668	1.89494	-23.5351	3.43453	0.268231	-0.0136885	6.65177	1.06062	1	9	0.00513147	0.00270799	0	1.63659e-05	-0.000175096	1.61192e-05	-4.2288	0.00595245	0.00593625	0.000438931	-23.4757	1.90056	1.74324	0.757107	0.483824	0.210725	0.527722	23.5351	1060.62	2435.17	2656.12	-66.4649	0.0000000E+000	0.0000000E+000	0.0000000E+000	66.4649	0.0000000E+000	0.0000000E+000	0.0000000E+000	-66.4649	0.0000000E+000	0.0000000E+000	0.0000000E+000	-23.5351	0.0000000E+000	0.0000000E+000	0.0000000E+000	23.5351	2.296	66.4649	-4.43992e-07	-3.67169e-06	2.39681e-09	-3.67409e-06	0.268406	19595.3	12.7915	19608.1
10002.2	2.30381	0.994466	2.50929	-23.348	4.46152	0.268231	-0.0230357	16.0005	2.51312	1	9	0.00457189	0.00182199	0	1.48875e-05	0.000149454	1.55128e-05	-94.6109	0.00851419	-0.000684447	0.00848664	-23.5319	2.51203	2.30313	1.00295	0.365887	0.157939	0.39852	23.348	2513.12	5821.97	6341.23	-66.652	0.0000000E+000	0.0000000E+000	0.0000000E+000	66.652	0.0000000E+000	0.0000000E+000	0.0000000E+000	-66.652	0.0000000E+000	0.0000000E+000	0.0000000E+000	-23.348	0.0000000E+000	0.0000000E+000	0.0000000E+000	23.348	2.31663	66.652	-9.62716e-08	-6.17889e-06	-3.44279e-09	-6.17545e-06	0.268081	11644.1	6.48793	11637.6
3163.08	2.9381	1.55934	3.32626	-27.9562	5.48368	0.268004	-0.0651167	32.2679	7.0915	1	9	0.00474289	0.00142589	0	-2.05475e-07	-7.96403e-05	1.02183e-05	-83.6442	0.00716623	0.000793311	0.00712218	-28.058	3.3303	2.9389	1.56646	0.265556	0.140938	0.300638	27.9562	7091.5	13361.8	15127	-62.0438	0.0000000E+000	0.0000000E+000	0.0000000E+000	62.0438	0.0000000E+000	0.0000000E+000	0.0000000E+000	-62.0438	0.0000000E+000	0.0000000E+000	0.0000000E+000	-27.9562	0.0000000E+000	0.0000000E+000	0.0000000E+000	27.9562	1.8842	62.0438	-6.24484e-06	-1.74515e-05	5.18592e-09	-1.74567e-05	0.268084	4115.75	1.22304	4116.97
1000.32	3.84954	3.03079	4.89945	-38.2138	7.0818	0.26817	-0.0140431	52.4958	20.0882	1	10	0.0047688	0.000973332	0	-2.30953e-06	0.000130363	1.46827e-05	-47.0788	0.015085	0.0102728	0.0110466	-38.2409	4.91436	3.85981	3.04184	0.160366	0.126259	0.204104	38.2138	20088.2	25514.9	32473.8	-51.7862	0.0000000E+000	0.0000000E+000	0.0000000E+000	51.7862	0.0000000E+000	0.0000000E+000	0.0000000E+000	-51.7862	0.0000000E+000	0.0000000E+000	0.0000000E+000	-38.2138	0.0000000E+000	0.0000000E+000	0.0000000E+000	38.2138	1.27014	51.7862	-2.32427e-06	-3.76593e-06	-1.8307e-09	-3.7641e-06	0.268039	19096.2	9.28306	19086.9
316.316	6.1146	6.61474	9.00795	-47.25	8.43201	0.268163	-0.0143633	76.0652	41.0166	1	10	0.00466751	0.000518154	0	-6.6186e-06	0.000111272	5.7587e-06	11.6326	0.0111139	0.0108856	-0.00224096	-47.1895	9.0137	6.12549	6.6125	0.0753557	0.0815194	0.111013	47.25	41016.6	37915.4	55856.4	-42.75	0.0000000E+000	0.0000000E+000	0.0000000E+000	42.75	0.0000000E+000	0.0000000E+000	0.0000000E+000	-42.75	0.0000000E+000	0.0000000E+000	0.0000000E+000	-47.25	0.0000000E+000	0.0000000E+000	0.0000000E+000	47.25	0.92439	42.75	-1.27712e-06	-3.85172e-06	-1.59824e-09	-3.85013e-06	0.268052	18670	7.74693	18662.2
100.032	13.3026	12.6581	18.3626	-43.5781	9.77984	0.268158	-0.0143373	125.693	59.7284	1	10	0.00463144	0.000252221	0	-1.20066e-05	0.000111272	1.83046e-05	-1.24828	0.0725737	0.0725565	0.00158101	-43.426	18.4164	13.3751	12.6597	0.0394516	0.0375405	0.0544584	43.5781	59728.4	62769.1	86645.5	-46.4219	0.0000000E+000	0.0000000E+000	0.0000000E+000	46.4219	0.0000000E+000	0.0000000E+000	0.0000000E+000	-46.4219	0.0000000E+000	0.0000000E+000	0.0000000E+000	-43.5781	0.0000000E+000	0.0000000E+000	0.0000000E+000	43.5781	1.05091	46.4219	-1.40365e-06	-3.84466e-06	-1.59534e-09	-3.84307e-06	0.268047	18703.6	7.76101	18695.8
31.6296	27.0854	13.9089	30.4479	-27.1815	11.3606	0.268196	-0.00445279	361.77	75.4928	1	11	0.00464365	0.000152511	0	-1.40928e-05	0.000111272	8.28218e-06	17.7233	0.0543054	0.0517279	-0.0165317	-27.1094	30.4864	27.1371	13.8924	0.0292159	0.015003	0.032843	27.1815	75492.8	147010	165261	-62.8185	0.0000000E+000	0.0000000E+000	0.0000000E+000	62.8185	0.0000000E+000	0.0000000E+000	0.0000000E+000	-62.8185	0.0000000E+000	0.0000000E+000	0.0000000E+000	-27.1815	0.0000000E+000	0.0000000E+000	0.0000000E+000	27.1815	1.94734	62.8185	-5.38707e-07	-1.19422e-06	-4.9547e-10	-1.19372e-06	0.268085	60231	24.9892	60206
10.0032	36.0583	8.50806	37.0485	-13.2763	12.6928	0.268208	-0.00387011	1870.04	98.6214	1	11	0.00462714	0.000124894	0	-1.49224e-05	3.4907e-05	6.21973e-06	9.24498	0.0497999	0.0491531	-0.00800066	-13.2468	37.0945	36.1075	8.50006	0.0262703	0.00619855	0.0269917	13.2763	98621.4	417971	429448	-76.7237	0.0000000E+000	0.0000000E+000	0.0000000E+000	76.7237	0.0000000E+000	0.0000000E+000	0.0000000E+000	-76.7237	0.0000000E+000	0.0000000E+000	0.0000000E+000	-13.2763	0.0000000E+000	0.0000000E+000	0.0000000E+000	13.2763	4.23814	76.7237	-4.45982e-07	-1.03799e-06	-1.35094e-10	-1.03786e-06	0.268173	69302.4	9.01964	69293.4
3.1604	39.8037	4.98253	40.1144	-7.13502	14.2094	0.268199	-0.00355792	10107.2	155.93	1	11	0.00463117	0.000115449	0	-1.77752e-05	-9.87315e-05	8.75131e-06	-69.2797	0.0758024	0.0268193	0.0708994	-7.23066	40.1498	39.8305	5.05343	0.0247357	0.00309635	0.0249287	7.13502	155930	1.24567e+06	1.25539e+06	-82.865	0.0000000E+000	0.0000000E+000	0.0000000E+000	82.865	0.0000000E+000	0.0000000E+000	0.0000000E+000	-82.865	0.0000000E+000	0.0000000E+000	0.0000000E+000	-7.13502	0.0000000E+000	0.0000000E+000	0.0000000E+000	7.13502	7.98866	82.865	-1.21305e-06	-9.54231e-07	3.51279e-10	-9.54582e-07	0.268298	75381	27.7498	75408.7
1.00006	42.2106	4.14717	42.4138	-5.61127	19.5288	0.268204	-0.00205153	38374.3	366.885	1	12	0.00463289	0.000109231	0	-1.69522e-05	-0.000156005	1.52531e-06	-12.4608	0.0139641	0.0136351	0.00301304	-5.61352	42.4277	42.2242	4.15018	0.0234643	0.00230535	0.0235772	5.61127	366885	3.73421e+06	3.75219e+06	-84.3887	0.0000000E+000	0.0000000E+000	0.0000000E+000	84.3887	0.0000000E+000	0.0000000E+000	0.0000000E+000	-84.3887	0.0000000E+000	0.0000000E+000	0.0000000E+000	-5.61127	0.0000000E+000	0.0000000E+000	0.0000000E+000	5.61127	10.1782	84.3887	-1.0998e-06	-5.50227e-07	3.20049e-10	-5.50548e-07	0.26836	130733	76.0434	130809
0.316193	44.8743	4.27624	45.0776	-5.44349	33.872	0.268216	-0.00142761	117708	1059.27	1	12	0.0046313	0.000102741	0	-4.08138e-05	-6.05491e-05	2.09207e-06	-3.88327	0.0203627	0.0203159	0.00137904	-5.44278	45.0979	44.8946	4.27762	0.0220839	0.00210446	0.022184	5.44349	1.05927e+06	1.11159e+07	1.11662e+07	-84.5565	0.0000000E+000	0.0000000E+000	0.0000000E+000	84.5565	0.0000000E+000	0.0000000E+000	0.0000000E+000	-84.5565	0.0000000E+000	0.0000000E+000	0.0000000E+000	-5.44349	0.0000000E+000	0.0000000E+000	0.0000000E+000	5.44349	10.4939	84.5565	-1.05985e-05	-3.82907e-07	8.64404e-11	-3.82994e-07	0.268276	187878	42.4129	187920
0.0999041	47.6339	5.48799	47.949	-6.57218	79.0798	0.268212	-0.00129035	290284	3802.69	1	12	0.00463651	9.66967e-05	0	-3.1304e-05	0.000130363	1.67836e-06	26.1152	0.0173569	0.015585	-0.00764012	-6.56098	47.9636	47.6495	5.48035	0.0207184	0.00238701	0.0208555	6.57218	3.80269e+06	3.30061e+07	3.32244e+07	-83.4278	0.0000000E+000	0.0000000E+000	0.0000000E+000	83.4278	0.0000000E+000	0.0000000E+000	0.0000000E+000	-83.4278	0.0000000E+000	0.0000000E+000	0.0000000E+000	-6.57218	0.0000000E+000	0.0000000E+000	0.0000000E+000	6.57218	8.67966	83.4278	1.62031e-05	-3.46087e-07	-1.68214e-10	-3.45919e-07	0.268082	207860	101.029	207759
0.0315922	51.1852	9.16438	51.9991	-10.1509	221.963	0.268209	0.00119562	549714	17074.6	1	12	0.00463526	8.91412e-05	0	6.29698e-05	5.39982e-05	1.27998e-06	2.26367	0.014359	0.0143478	-0.000567154	-10.1475	52.0131	51.1995	9.16382	0.0189301	0.00338931	0.0192311	10.1509	1.70746e+07	9.53658e+07	9.68823e+07	-79.8491	0.0000000E+000	0.0000000E+000	0.0000000E+000	79.8491	0.0000000E+000	0.0000000E+000	0.0000000E+000	-79.8491	0.0000000E+000	0.0000000E+000	0.0000000E+000	-10.1509	0.0000000E+000	0.0000000E+000	0.0000000E+000	10.1509	5.58523	79.8491	2.48128e-05	3.20676e-07	6.45611e-11	3.20611e-07	0.268155	224327	45.1635	224282
0.0100092	56.9894	18.1604	59.813	-17.6751	673.186	0.268206	0.00116628	875583	80715.3	1	12	0.00463065	7.74188e-05	0	-0.00018121	-2.23667e-05	1.36861e-06	-98.0747	0.017678	-0.00248314	0.0175028	-17.6918	59.8159	56.9869	18.1779	0.0159295	0.00507614	0.0167188	17.6751	8.07153e+07	2.53294e+08	2.65844e+08	-72.3249	0.0000000E+000	0.0000000E+000	0.0000000E+000	72.3249	0.0000000E+000	0.0000000E+000	0.0000000E+000	-72.3249	0.0000000E+000	0.0000000E+000	0.0000000E+000	-17.6751	0.0000000E+000	0.0000000E+000	0.0000000E+000	17.6751	3.13812	72.3249	-0.00013125	3.12802e-07	-2.60857e-11	3.12828e-07	0.268228	229968	19.1779	229987