File: txt/18730_R302_UA699_SOC00_C05.mpt
EC-Lab ASCII FILE
Nb header lines : 65

Potentio Electrochemical Impedance Spectroscopy

Run on channel : 5 (SN 65912)
User :
CE vs. WE compliance from -10 V to 10 V
Electrode connection : standard
Potential control : Ewe
Ewe ctrl range : min = -10.00 V, max = 10.00 V
Safety Limits :
	Do not start on E overload
Acquisition started on : 10/31/2025 11:24:16.949
Technique started on : 10/31/2025 11:24:18.872
Loaded Setting File :  C:\Users\Celltest\OneDrive - store-dot.com\Documents\EC-Lab\Data\@Biologic Test Protocols\anode half cell EIS SOC00.mps
Saved on :
	File : 18730_R302_UA699_SOC00_C05.mpr
	Directory : C:\Users\Celltest\OneDrive - store-dot.com\Documents\EC-Lab\Data\Charmaine\
	Host : 169.254.61.224
Device : VMP-3e (SN .003165)
Address : USB
EC-LAB for windows v11.62 (software)
Internet server v27.00 (firmware)
Command interpretor v12.03 (firmware)
Electrode material :
Initial state :
Electrolyte :
Comments :
Electrode surface area : 0.001 cm²
Characteristic mass : 0.001 g
Equivalent Weight : 0.000 g/eq.
Density : 0.000 g/cm3
Volume (V) : 0.001 cm³
Record Ece
Cycle Definition : Charge/Discharge alternance
Mode                Single sine
E (V)               0.0000
vs.                 Eoc
tE (h:m:s)          0:00:0.0000
record              0
dI                  0.000
unit dI             mA
dt (s)              0.000
fi                  100.000
unit fi             kHz
ff                  10.000
unit ff             mHz
Nd                  6
Points              per decade
spacing             Logarithmic
Va (mV)             5.0
pw                  0.10
Na                  2
corr                0
E range min (V)     -10.000
E range max (V)     10.000
I Range             Auto
Bandwidth           5
nc cycles           0
goto Ns'            0
nr cycles           0
inc. cycle          0

freq/Hz	Re(Z)/Ohm	-Im(Z)/Ohm	|Z|/Ohm	Phase(Z)/deg	time/s	<Ewe>/V	<I>/mA	Cs/µF	Cp/µF	cycle number	I Range	|Ewe|/V	|I|/A	Ns	(Q-Qo)/mA.h	<Ece>/V	|Ece|/V	Phase(Zce)/deg	|Zce|/Ohm	Re(Zce)/Ohm	-Im(Zce)/Ohm	Phase(Zwe-ce)/deg	|Zwe-ce|/Ohm	Re(Zwe-ce)/Ohm	-Im(Zwe-ce)/Ohm	Re(Y)/Ohm-1	Im(Y)/Ohm-1	|Y|/Ohm-1	Phase(Y)/deg	Re(C)/nF	Im(C)/nF	|C|/nF	Phase(C)/deg	Re(M)	Im(M)	|M|	Phase(M)/deg	Re(Permittivity)	Im(Permittivity)	|Permittivity|	Phase(Permittivity)/deg	Re(Resistivity)/Ohm.cm	Im(Resistivity)/Ohm.cm	|Resistivity|/Ohm.cm	Phase(Resistivity)/deg	Re(Conductivity)/mS/cm	Im(Conductivity)/mS/cm	|Conductivity|/mS/cm	Phase(Conductivity)/deg	Tan(Delta)	Loss Angle(Delta)/deg	dq/mA.h	Pwe/W	Pce/W	Pwe-ce/W	<Ewe-Ece>/V	Rwe/Ohm	Rce/Ohm	Rwe-ce/Ohm		Ewe-Ece/V
100004	1.89447	0.756327	2.03986	-21.7633	1.92256	0.272077	0.00191497	2.10424	0.289276	1	9	0.00628002	0.00307865	0	-2.52563e-06	0.000130363	2.58362e-05	49.6576	0.00839207	0.00543264	-0.00639634	-21.5402	2.04255	1.8999	0.749931	0.455287	0.181764	0.490229	21.7633	289.276	724.585	780.195	-68.2367	0.0000000E+000	0.0000000E+000	0.0000000E+000	68.2367	0.0000000E+000	0.0000000E+000	0.0000000E+000	-68.2367	0.0000000E+000	0.0000000E+000	0.0000000E+000	-21.7633	0.0000000E+000	0.0000000E+000	0.0000000E+000	21.7633	2.50483	68.2367	-2.52563e-06	5.21018e-07	2.49641e-10	5.20769e-07	0.271946	142079	68.0758	142011
31621.1	2.63447	1.22291	2.90447	-24.9005	3.81552	0.271947	-0.0157367	4.11576	0.72963	1	9	0.00538642	0.00185453	0	8.14456e-06	-9.87315e-05	1.39238e-05	21.2864	0.00750799	0.00699577	-0.00272563	-24.7938	2.90967	2.64146	1.22018	0.312292	0.144964	0.344297	24.9005	729.63	1571.82	1732.91	-65.0995	0.0000000E+000	0.0000000E+000	0.0000000E+000	65.0995	0.0000000E+000	0.0000000E+000	0.0000000E+000	-65.0995	0.0000000E+000	0.0000000E+000	0.0000000E+000	-24.9005	0.0000000E+000	0.0000000E+000	0.0000000E+000	24.9005	2.15427	65.0995	-5.33989e-06	-4.27956e-06	1.55371e-09	-4.28112e-06	0.272046	17281	6.27395	17287.3
10002.2	3.59572	1.43968	3.87322	-21.8206	4.96652	0.271925	-0.00799087	11.0524	1.52702	1	9	0.00481519	0.0012432	0	2.55597e-06	0.000111272	4.99468e-06	-109.358	0.0040176	-0.00133173	0.00379046	-21.8799	3.8734	3.59438	1.44347	0.239685	0.0959669	0.258183	21.8206	1527.02	3813.85	4108.19	-68.1794	0.0000000E+000	0.0000000E+000	0.0000000E+000	68.1794	0.0000000E+000	0.0000000E+000	0.0000000E+000	-68.1794	0.0000000E+000	0.0000000E+000	0.0000000E+000	-21.8206	0.0000000E+000	0.0000000E+000	0.0000000E+000	21.8206	2.49758	68.1794	-3.4221e-07	-2.17292e-06	-8.89159e-10	-2.17203e-06	0.271814	34029.5	13.9249	34015.6
3163.08	4.53073	1.82622	4.88494	-21.9531	6.62361	0.271886	-0.0135628	27.5522	3.85075	1	10	0.00514236	0.0010527	0	3.22644e-06	9.21806e-05	5.27643e-06	-137.095	0.00501229	-0.00367139	0.00341232	-22.0063	4.88281	4.52706	1.82963	0.189867	0.0765306	0.204711	21.9531	3850.75	9553.45	10300.3	-68.0469	0.0000000E+000	0.0000000E+000	0.0000000E+000	68.0469	0.0000000E+000	0.0000000E+000	0.0000000E+000	-68.0469	0.0000000E+000	0.0000000E+000	0.0000000E+000	-21.9531	0.0000000E+000	0.0000000E+000	0.0000000E+000	21.9531	2.48093	68.0469	-5.0668e-07	-3.68753e-06	-1.25023e-09	-3.68628e-06	0.271794	20046.5	6.79659	20039.7
1000.32	5.67688	2.99908	6.4204	-27.8474	7.97784	0.271921	-0.00474948	53.0509	11.5757	1	10	0.00522834	0.000814333	0	5.72757e-07	-3.27544e-06	8.14573e-06	-63.3079	0.0100029	0.00449328	0.00893696	-27.8991	6.42855	5.68138	3.00802	0.137717	0.0727553	0.155754	27.8474	11575.7	21911.3	24781	-62.1526	0.0000000E+000	0.0000000E+000	0.0000000E+000	62.1526	0.0000000E+000	0.0000000E+000	0.0000000E+000	-62.1526	0.0000000E+000	0.0000000E+000	0.0000000E+000	-27.8474	0.0000000E+000	0.0000000E+000	0.0000000E+000	27.8474	1.89287	62.1526	-1.36904e-06	-1.29148e-06	1.55566e-11	-1.2915e-06	0.271924	57252.7	0.689641	57253.4
316.316	7.88008	5.88952	9.83779	-36.7742	9.54108	0.271917	-0.00550907	85.4318	30.6185	1	10	0.00457937	0.000465488	0	-1.29272e-06	-3.27544e-06	9.21203e-06	-12.3099	0.0197901	0.0193351	0.00421922	-36.7265	9.85581	7.89942	5.89374	0.0814209	0.0608534	0.101649	36.7742	30618.5	40967.1	51144.8	-53.2258	0.0000000E+000	0.0000000E+000	0.0000000E+000	53.2258	0.0000000E+000	0.0000000E+000	0.0000000E+000	-53.2258	0.0000000E+000	0.0000000E+000	0.0000000E+000	-36.7742	0.0000000E+000	0.0000000E+000	0.0000000E+000	36.7742	1.33798	53.2258	-7.34709e-07	-1.49801e-06	1.80446e-11	-1.49803e-06	0.27192	49358	0.594554	49358.6
100.032	14.0383	10.8052	17.7151	-37.5851	10.8878	0.271901	-0.00800748	147.248	54.7801	1	10	0.00449579	0.000253783	0	-3.33967e-06	0.000206728	8.63382e-06	-84.3973	0.0340205	0.00332141	0.033858	-37.6652	17.7384	14.0417	10.839	0.0447328	0.0344304	0.0564489	37.5851	54780.1	71171.7	89812.4	-52.4149	0.0000000E+000	0.0000000E+000	0.0000000E+000	52.4149	0.0000000E+000	0.0000000E+000	0.0000000E+000	-52.4149	0.0000000E+000	0.0000000E+000	0.0000000E+000	-37.5851	0.0000000E+000	0.0000000E+000	0.0000000E+000	37.5851	1.29922	52.4149	-1.25148e-06	-2.17724e-06	-1.65537e-09	-2.17559e-06	0.271694	33955.9	25.8168	33930
31.6296	25.4734	12.2644	28.2721	-25.7089	12.6886	0.271918	-0.00527487	410.281	77.2072	1	11	0.00487836	0.00017255	0	-6.32092e-06	-2.23667e-05	8.94686e-06	0.302594	0.0518507	0.0518499	-0.000273836	-25.6629	28.3187	25.5253	12.2641	0.0318693	0.0153437	0.0353706	25.7089	77207.2	160361	177979	-64.2911	0.0000000E+000	0.0000000E+000	0.0000000E+000	64.2911	0.0000000E+000	0.0000000E+000	0.0000000E+000	-64.2911	0.0000000E+000	0.0000000E+000	0.0000000E+000	-25.7089	0.0000000E+000	0.0000000E+000	0.0000000E+000	25.7089	2.07702	64.2911	-5.62452e-07	-1.43433e-06	1.17981e-10	-1.43445e-06	0.271941	51549.8	4.24023	51554
10.0032	33.776	8.91566	34.9329	-14.7868	14.0198	0.271931	-0.00486532	1784.54	116.242	1	11	0.00486863	0.000139371	0	-8.78818e-06	-0.00023237	1.73297e-05	-48.1092	0.124343	0.0830254	0.092563	-14.8985	35.0369	33.8591	9.00823	0.0276782	0.00730607	0.0286263	14.7868	116242	440372	455456	-75.2132	0.0000000E+000	0.0000000E+000	0.0000000E+000	75.2132	0.0000000E+000	0.0000000E+000	0.0000000E+000	-75.2132	0.0000000E+000	0.0000000E+000	0.0000000E+000	-14.7868	0.0000000E+000	0.0000000E+000	0.0000000E+000	14.7868	3.78839	75.2132	-6.00234e-07	-1.32303e-06	1.13055e-09	-1.32416e-06	0.272163	55891.7	47.7605	55939.4
3.1604	38.6973	6.92606	39.3123	-10.1474	15.5375	0.271918	-0.00427947	7270.97	225.688	1	11	0.00486308	0.000123704	0	-9.28264e-06	7.30894e-05	8.85252e-06	-10.0036	0.0715621	0.0704742	0.012431	-10.1471	39.3838	38.7678	6.9385	0.0250395	0.00448157	0.0254374	10.1474	225688	1.26097e+06	1.281e+06	-79.8526	0.0000000E+000	0.0000000E+000	0.0000000E+000	79.8526	0.0000000E+000	0.0000000E+000	0.0000000E+000	-79.8526	0.0000000E+000	0.0000000E+000	0.0000000E+000	-10.1474	0.0000000E+000	0.0000000E+000	0.0000000E+000	10.1474	5.5872	79.8526	-2.29614e-07	-1.16367e-06	-3.12784e-10	-1.16335e-06	0.271845	63540.1	17.0791	63523.1
1.00006	43.3242	6.58905	43.8224	-8.64767	20.857	0.271939	-0.003191	24152.9	546.037	1	12	0.00487369	0.000111214	0	-1.86594e-05	0.000302184	9.45359e-07	-125.719	0.00850033	-0.00496252	0.00690138	-8.65757	43.8186	43.3193	6.59595	0.0225599	0.00343107	0.0228194	8.64767	546037	3.5903e+06	3.63158e+06	-81.3523	0.0000000E+000	0.0000000E+000	0.0000000E+000	81.3523	0.0000000E+000	0.0000000E+000	0.0000000E+000	-81.3523	0.0000000E+000	0.0000000E+000	0.0000000E+000	-8.64767	0.0000000E+000	0.0000000E+000	0.0000000E+000	8.64767	6.57519	81.3523	-2.04907e-06	-8.67756e-07	-9.64268e-10	-8.66792e-07	0.271637	85220.6	94.6989	85125.9
0.316193	47.8797	6.49309	48.318	-7.72292	35.2018	0.271924	-0.00279615	77520.5	1399.92	1	12	0.00486782	0.000100746	0	-1.31465e-05	0.000321275	2.55728e-06	-27.9696	0.0253835	0.0224186	0.0119049	-7.73333	48.3418	47.9021	6.50499	0.0205085	0.00278121	0.0206962	7.72292	1.39992e+06	1.03229e+07	1.04174e+07	-82.2771	0.0000000E+000	0.0000000E+000	0.0000000E+000	82.2771	0.0000000E+000	0.0000000E+000	0.0000000E+000	-82.2771	0.0000000E+000	0.0000000E+000	0.0000000E+000	-7.72292	0.0000000E+000	0.0000000E+000	0.0000000E+000	7.72292	7.37395	82.2771	2.53187e-06	-7.60342e-07	-8.98334e-10	-7.59443e-07	0.271603	97249.6	114.899	97134.7
0.0999041	52.2347	7.47525	52.7669	-8.14424	80.4098	0.271925	-0.00124624	213114	4277.01	1	12	0.00487133	9.2318e-05	0	-6.13694e-05	5.39982e-05	2.4713e-06	-18.8995	0.0267694	0.0253262	0.00867086	-8.14966	52.7932	52.26	7.48392	0.0187602	0.00268474	0.0189513	8.14424	4.277e+06	2.98864e+07	3.01909e+07	-81.8558	0.0000000E+000	0.0000000E+000	0.0000000E+000	81.8558	0.0000000E+000	0.0000000E+000	0.0000000E+000	-81.8558	0.0000000E+000	0.0000000E+000	0.0000000E+000	-8.14424	0.0000000E+000	0.0000000E+000	0.0000000E+000	8.14424	6.98769	81.8558	-3.12201e-05	-3.38882e-07	-6.72945e-11	-3.38815e-07	0.271871	218197	43.3291	218154
0.0315922	57.4501	11.0597	58.5049	-10.8967	223.293	0.271927	-0.00150027	455508	16278	1	12	0.00486861	8.32171e-05	0	-0.000192781	0.000206728	1.69557e-06	-15.2854	0.0203752	0.0196545	0.00537146	-10.8983	58.5253	57.4697	11.0651	0.0167844	0.00323117	0.0170926	10.8967	1.62779e+07	8.45562e+07	8.61088e+07	-79.1033	0.0000000E+000	0.0000000E+000	0.0000000E+000	79.1033	0.0000000E+000	0.0000000E+000	0.0000000E+000	-79.1033	0.0000000E+000	0.0000000E+000	0.0000000E+000	-10.8967	0.0000000E+000	0.0000000E+000	0.0000000E+000	10.8967	5.19453	79.1033	-3.36311e-05	-4.07963e-07	-3.10148e-10	-4.07653e-07	0.27172	181252	137.794	181114
0.0100092	64.3919	20.3148	67.5204	-17.5098	674.516	0.271928	-0.000337901	782725	70854.1	1	12	0.0048739	7.21841e-05	0	9.43199e-05	9.21806e-05	2.04866e-06	-6.83095	0.0283811	0.0281796	0.00337565	-17.5054	67.5483	64.4201	20.3182	0.0141241	0.00445598	0.0148103	17.5098	7.08541e+07	2.24586e+08	2.35498e+08	-72.4902	0.0000000E+000	0.0000000E+000	0.0000000E+000	72.4902	0.0000000E+000	0.0000000E+000	0.0000000E+000	-72.4902	0.0000000E+000	0.0000000E+000	0.0000000E+000	-17.5098	0.0000000E+000	0.0000000E+000	0.0000000E+000	17.5098	3.1697	72.4902	0.000166507	-9.18848e-08	-3.1148e-11	-9.18537e-08	0.271836	804756	272.803	804483