File: txt/18733_R302_UA700_SOC00_C03.mpt
EC-Lab ASCII FILE
Nb header lines : 65

Potentio Electrochemical Impedance Spectroscopy

Run on channel : 3 (SN 65921)
User :
CE vs. WE compliance from -10 V to 10 V
Electrode connection : standard
Potential control : Ewe
Ewe ctrl range : min = -10.00 V, max = 10.00 V
Safety Limits :
	Do not start on E overload
Acquisition started on : 10/31/2025 11:54:21.647
Technique started on : 10/31/2025 11:54:23.558
Loaded Setting File :  C:\Users\Celltest\OneDrive - store-dot.com\Documents\EC-Lab\Data\@Biologic Test Protocols\anode half cell EIS SOC00.mps
Saved on :
	File : 18733_R302_UA700_SOC00_C03.mpr
	Directory : C:\Users\Celltest\OneDrive - store-dot.com\Documents\EC-Lab\Data\Charmaine\
	Host : 169.254.61.224
Device : VMP-3e (SN .003165)
Address : USB
EC-LAB for windows v11.62 (software)
Internet server v27.00 (firmware)
Command interpretor v12.03 (firmware)
Electrode material :
Initial state :
Electrolyte :
Comments :
Electrode surface area : 0.001 cm²
Characteristic mass : 0.001 g
Equivalent Weight : 0.000 g/eq.
Density : 0.000 g/cm3
Volume (V) : 0.001 cm³
Record Ece
Cycle Definition : Charge/Discharge alternance
Mode                Single sine
E (V)               0.0000
vs.                 Eoc
tE (h:m:s)          0:00:0.0000
record              0
dI                  0.000
unit dI             mA
dt (s)              0.000
fi                  100.000
unit fi             kHz
ff                  10.000
unit ff             mHz
Nd                  6
Points              per decade
spacing             Logarithmic
Va (mV)             5.0
pw                  0.10
Na                  2
corr                0
E range min (V)     -10.000
E range max (V)     10.000
I Range             Auto
Bandwidth           5
nc cycles           0
goto Ns'            0
nr cycles           0
inc. cycle          0

freq/Hz	Re(Z)/Ohm	-Im(Z)/Ohm	|Z|/Ohm	Phase(Z)/deg	time/s	<Ewe>/V	<I>/mA	Cs/µF	Cp/µF	cycle number	I Range	|Ewe|/V	|I|/A	Ns	(Q-Qo)/mA.h	<Ece>/V	|Ece|/V	Phase(Zce)/deg	|Zce|/Ohm	Re(Zce)/Ohm	-Im(Zce)/Ohm	Phase(Zwe-ce)/deg	|Zwe-ce|/Ohm	Re(Zwe-ce)/Ohm	-Im(Zwe-ce)/Ohm	Re(Y)/Ohm-1	Im(Y)/Ohm-1	|Y|/Ohm-1	Phase(Y)/deg	Re(C)/nF	Im(C)/nF	|C|/nF	Phase(C)/deg	Re(M)	Im(M)	|M|	Phase(M)/deg	Re(Permittivity)	Im(Permittivity)	|Permittivity|	Phase(Permittivity)/deg	Re(Resistivity)/Ohm.cm	Im(Resistivity)/Ohm.cm	|Resistivity|/Ohm.cm	Phase(Resistivity)/deg	Re(Conductivity)/mS/cm	Im(Conductivity)/mS/cm	|Conductivity|/mS/cm	Phase(Conductivity)/deg	Tan(Delta)	Loss Angle(Delta)/deg	dq/mA.h	Pwe/W	Pce/W	Pwe-ce/W	<Ewe-Ece>/V	Rwe/Ohm	Rce/Ohm	Rwe-ce/Ohm		Ewe-Ece/V
100004	1.36762	0.657701	1.51754	-25.6834	1.91052	0.262695	0.0102121	2.41978	0.454516	1	9	0.00466212	0.00307215	0	4.96619e-06	-8.05151e-05	3.14266e-05	92.7005	0.0102295	-0.000481959	-0.0102182	-25.3425	1.51271	1.36713	0.647483	0.593856	0.285592	0.658959	25.6834	454.516	945.115	1048.73	-64.3166	0.0000000E+000	0.0000000E+000	0.0000000E+000	64.3166	0.0000000E+000	0.0000000E+000	0.0000000E+000	-64.3166	0.0000000E+000	0.0000000E+000	0.0000000E+000	-25.6834	0.0000000E+000	0.0000000E+000	0.0000000E+000	25.6834	2.07939	64.3166	4.96619e-06	2.68266e-06	-8.22224e-10	2.68348e-06	0.262776	25724	7.88432	25731.9
31621.1	1.97645	0.985036	2.20832	-26.491	3.43156	0.262691	0.0107341	5.10965	1.01665	1	9	0.00514612	0.00233034	0	1.48595e-05	7.22374e-05	7.50612e-06	-24.7371	0.00322105	0.00292548	0.00134787	-26.4885	2.21154	1.97938	0.986383	0.405288	0.20199	0.452834	26.491	1016.65	2039.89	2279.19	-63.509	0.0000000E+000	0.0000000E+000	0.0000000E+000	63.509	0.0000000E+000	0.0000000E+000	0.0000000E+000	-63.509	0.0000000E+000	0.0000000E+000	0.0000000E+000	-26.491	0.0000000E+000	0.0000000E+000	0.0000000E+000	26.491	2.00648	63.509	7.64781e-06	2.81976e-06	7.75407e-10	2.81898e-06	0.262619	24472.5	6.72969	24465.7
10002.2	2.76851	1.30888	3.06232	-25.3035	4.58251	0.26268	0.0167011	12.157	2.22086	1	9	0.00505809	0.00165172	0	1.89718e-05	-6.1421e-05	7.91692e-06	-138.427	0.00479315	-0.00358582	0.00318059	-25.386	3.06044	2.76493	1.31206	0.295219	0.139572	0.32655	25.3035	2220.86	4697.52	5196.04	-64.6965	0.0000000E+000	0.0000000E+000	0.0000000E+000	64.6965	0.0000000E+000	0.0000000E+000	0.0000000E+000	-64.6965	0.0000000E+000	0.0000000E+000	0.0000000E+000	-25.3035	0.0000000E+000	0.0000000E+000	0.0000000E+000	25.3035	2.11518	64.6965	6.2297e-07	4.38704e-06	-1.0258e-09	4.38807e-06	0.262741	15728.3	3.67767	15732
3163.08	3.63597	1.88387	4.09502	-27.3896	5.69063	0.262585	-0.028355	26.7091	5.6526	1	10	0.00489353	0.00119499	0	1.8326e-05	-0.000195079	6.18642e-06	-64.9913	0.00517695	0.00218859	0.00469158	-27.4338	4.09913	3.63815	1.88856	0.216824	0.112341	0.244199	27.3896	5652.6	10909.8	12287.2	-62.6104	0.0000000E+000	0.0000000E+000	0.0000000E+000	62.6104	0.0000000E+000	0.0000000E+000	0.0000000E+000	-62.6104	0.0000000E+000	0.0000000E+000	0.0000000E+000	-27.3896	0.0000000E+000	0.0000000E+000	0.0000000E+000	27.3896	1.93005	62.6104	-2.48807e-06	-7.4456e-06	5.53149e-09	-7.45113e-06	0.26278	9260.61	6.87989	9267.49
1000.32	4.81282	3.36229	5.87096	-34.9386	7.04377	0.262628	-0.010173	47.3201	15.5202	1	10	0.00469325	0.0007994	0	1.43503e-05	-0.000233268	6.60794e-06	3.36595	0.00826613	0.00825187	-0.00048533	-34.8886	5.87745	4.82107	3.3618	0.139631	0.0975475	0.17033	34.9386	15520.2	22215.8	27100.1	-55.0614	0.0000000E+000	0.0000000E+000	0.0000000E+000	55.0614	0.0000000E+000	0.0000000E+000	0.0000000E+000	-55.0614	0.0000000E+000	0.0000000E+000	0.0000000E+000	-34.9386	0.0000000E+000	0.0000000E+000	0.0000000E+000	34.9386	1.43141	55.0614	-1.64708e-06	-2.67172e-06	2.37304e-09	-2.67409e-06	0.262861	25816.1	22.93	25839.1
316.316	7.1672	7.06752	10.0657	-44.5988	8.39304	0.262622	-0.0100723	71.1921	35.0976	1	10	0.0046178	0.000458765	0	1.07761e-05	-0.000233268	3.9217e-06	4.31806	0.00854838	0.00852411	-0.000643634	-44.5622	10.0713	7.17572	7.06688	0.0707392	0.0697554	0.0993472	44.5988	35097.6	35592.6	49986.7	-45.4012	0.0000000E+000	0.0000000E+000	0.0000000E+000	45.4012	0.0000000E+000	0.0000000E+000	0.0000000E+000	-45.4012	0.0000000E+000	0.0000000E+000	0.0000000E+000	-44.5988	0.0000000E+000	0.0000000E+000	0.0000000E+000	44.5988	1.0141	45.4012	-1.33911e-06	-2.64522e-06	2.34955e-09	-2.64757e-06	0.262856	26073.6	23.1592	26096.8
100.032	14.4721	13.9949	20.132	-44.0395	9.74084	0.262611	-0.00931166	113.687	54.9383	1	10	0.00460607	0.000228793	0	7.70241e-06	-0.000271456	5.04879e-06	12.361	0.022067	0.0215555	-0.00472391	-43.9872	20.1442	14.4937	13.9901	0.0357073	0.0345298	0.0496721	44.0395	54938.3	56811.8	79030.4	-45.9605	0.0000000E+000	0.0000000E+000	0.0000000E+000	45.9605	0.0000000E+000	0.0000000E+000	0.0000000E+000	-45.9605	0.0000000E+000	0.0000000E+000	0.0000000E+000	-44.0395	0.0000000E+000	0.0000000E+000	0.0000000E+000	44.0395	1.0341	45.9605	-1.40583e-06	-2.44534e-06	2.5277e-09	-2.44787e-06	0.262882	28202.3	29.1522	28231.5
31.6296	30.1628	16.9625	34.6052	-29.3518	11.3206	0.262654	-0.00629278	296.646	71.2744	1	11	0.00459854	0.000132886	0	5.10774e-06	-0.000137797	3.43385e-06	113.906	0.0258406	-0.0104716	-0.0236238	-29.3262	34.5845	30.1523	16.9388	0.0251877	0.0141647	0.0288974	29.3518	71274.4	126741	145407	-60.6482	0.0000000E+000	0.0000000E+000	0.0000000E+000	60.6482	0.0000000E+000	0.0000000E+000	0.0000000E+000	-60.6482	0.0000000E+000	0.0000000E+000	0.0000000E+000	-29.3518	0.0000000E+000	0.0000000E+000	0.0000000E+000	29.3518	1.77821	60.6482	-5.76226e-07	-1.65282e-06	8.67128e-10	-1.65369e-06	0.262792	41738.9	21.8977	41760.8
10.0032	42.4409	11.2377	43.9034	-14.8307	12.6528	0.262667	-0.00564729	1415.81	92.7599	1	11	0.00459744	0.000104717	0	2.29505e-06	-0.000443302	7.36451e-06	-13.9765	0.0703277	0.0682456	0.0169859	-14.8293	43.9738	42.5091	11.2547	0.0220185	0.00583014	0.0227773	14.8307	92760	350323	362395	-75.1693	0.0000000E+000	0.0000000E+000	0.0000000E+000	75.1693	0.0000000E+000	0.0000000E+000	0.0000000E+000	-75.1693	0.0000000E+000	0.0000000E+000	0.0000000E+000	-14.8307	0.0000000E+000	0.0000000E+000	0.0000000E+000	14.8307	3.77666	75.1693	-1.0808e-06	-1.48336e-06	2.50346e-09	-1.48586e-06	0.26311	46512	78.4982	46590.5
3.1604	47.656	6.45497	48.0911	-7.71373	14.1695	0.262665	-0.00508812	7801.61	140.554	1	11	0.00460045	9.5661e-05	0	1.02532e-06	-0.000271456	6.48531e-06	-72.4983	0.0677946	0.0203881	0.0646563	-7.78676	48.1201	47.6764	6.51963	0.0206057	0.00279103	0.0207938	7.71373	140554	1.03769e+06	1.04716e+06	-82.2863	0.0000000E+000	0.0000000E+000	0.0000000E+000	82.2863	0.0000000E+000	0.0000000E+000	0.0000000E+000	-82.2863	0.0000000E+000	0.0000000E+000	0.0000000E+000	-7.71373	0.0000000E+000	0.0000000E+000	0.0000000E+000	7.71373	7.38283	82.2863	-1.05825e-06	-1.33647e-06	1.3812e-09	-1.33785e-06	0.262937	51623.2	53.3508	51676.5
1.00006	50.5266	4.79613	50.7538	-5.42243	19.4907	0.26267	-0.00443693	33181.9	296.31	1	12	0.00460105	9.06543e-05	0	-7.65839e-06	0.00012952	3.69816e-06	33.2696	0.0407941	0.0341079	-0.0223788	-5.39365	50.7856	50.5607	4.77375	0.0196148	0.00186189	0.019703	5.42243	296310	3.12159e+06	3.13563e+06	-84.5776	0.0000000E+000	0.0000000E+000	0.0000000E+000	84.5776	0.0000000E+000	0.0000000E+000	0.0000000E+000	-84.5776	0.0000000E+000	0.0000000E+000	0.0000000E+000	-5.42243	0.0000000E+000	0.0000000E+000	0.0000000E+000	5.42243	10.5349	84.5776	-1.57987e-06	-1.16545e-06	-5.7467e-10	-1.16488e-06	0.262541	59200.9	29.1913	59171.7
0.316193	53.5584	4.86541	53.7789	-5.19068	33.8338	0.262669	-0.00342455	103454	846.765	1	12	0.00460275	8.55865e-05	0	-1.0125e-05	-2.32329e-05	3.09797e-06	19.1081	0.036197	0.0342026	-0.0118491	-5.17482	53.8119	53.5926	4.85356	0.0185184	0.00168227	0.0185946	5.19068	846764	9.32118e+06	9.35956e+06	-84.8093	0.0000000E+000	0.0000000E+000	0.0000000E+000	84.8093	0.0000000E+000	0.0000000E+000	0.0000000E+000	-84.8093	0.0000000E+000	0.0000000E+000	0.0000000E+000	-5.19068	0.0000000E+000	0.0000000E+000	0.0000000E+000	5.19068	11.008	84.8093	-2.44039e-06	-8.99522e-07	7.95621e-11	-8.99602e-07	0.262692	76701.8	6.78422	76708.6
0.0999041	57.1388	6.19594	57.4737	-6.18878	79.0416	0.262678	-0.00178886	257116	2988.17	1	12	0.00460301	8.0089e-05	0	-7.54497e-05	0.00012952	2.08184e-06	-36.7138	0.025994	0.0208376	0.0155397	-6.20194	57.4961	57.1596	6.21148	0.0172979	0.00187572	0.0173993	6.18878	2.98817e+06	2.75568e+07	2.77184e+07	-83.8112	0.0000000E+000	0.0000000E+000	0.0000000E+000	83.8112	0.0000000E+000	0.0000000E+000	0.0000000E+000	-83.8112	0.0000000E+000	0.0000000E+000	0.0000000E+000	-6.18878	0.0000000E+000	0.0000000E+000	0.0000000E+000	6.18878	9.22197	83.8112	-3.4113e-05	-4.69895e-07	-2.31693e-10	-4.69663e-07	0.262549	146841	72.4034	146769
0.0315922	61.9969	10.5779	62.8928	-9.68259	221.926	0.262669	-0.00167761	476255	13472.2	1	12	0.00460115	7.31586e-05	0	-0.000167603	-0.000118703	8.85304e-07	22.3692	0.0121012	0.0111906	-0.00460538	-9.67674	62.9031	62.0081	10.5733	0.0156736	0.00267423	0.0159001	9.68259	1.34722e+07	7.89601e+07	8.01012e+07	-80.3174	0.0000000E+000	0.0000000E+000	0.0000000E+000	80.3174	0.0000000E+000	0.0000000E+000	0.0000000E+000	-80.3174	0.0000000E+000	0.0000000E+000	0.0000000E+000	-9.68259	0.0000000E+000	0.0000000E+000	0.0000000E+000	9.68259	5.86097	80.3174	-1.14423e-05	-4.40656e-07	1.99138e-10	-4.40855e-07	0.262788	156573	70.7573	156644
0.0100092	69.539	20.9258	72.6193	-16.7477	673.148	0.262666	-0.000247104	759870	63095.9	1	12	0.00460291	6.33841e-05	0	7.81297e-05	-6.1421e-05	2.41778e-06	-33.0926	0.0381448	0.0319573	0.0208269	-16.7562	72.6559	69.5709	20.9467	0.0131863	0.00396807	0.0137704	16.7477	6.30959e+07	2.09675e+08	2.18963e+08	-73.2523	0.0000000E+000	0.0000000E+000	0.0000000E+000	73.2523	0.0000000E+000	0.0000000E+000	0.0000000E+000	-73.2523	0.0000000E+000	0.0000000E+000	0.0000000E+000	-16.7477	0.0000000E+000	0.0000000E+000	0.0000000E+000	16.7477	3.32312	73.2523	0.000108537	-6.49058e-08	1.51774e-11	-6.49209e-08	0.262727	1.06298e+06	248.564	1.06323e+06