File: txt/18734_R302_UA700_SOC00_C04.mpt
EC-Lab ASCII FILE
Nb header lines : 65

Potentio Electrochemical Impedance Spectroscopy

Run on channel : 4 (SN 66756)
User :
CE vs. WE compliance from -10 V to 10 V
Electrode connection : standard
Potential control : Ewe
Ewe ctrl range : min = -10.00 V, max = 10.00 V
Safety Limits :
	Do not start on E overload
Acquisition started on : 10/31/2025 11:54:27.375
Technique started on : 10/31/2025 11:54:29.297
Loaded Setting File :  C:\Users\Celltest\OneDrive - store-dot.com\Documents\EC-Lab\Data\@Biologic Test Protocols\anode half cell EIS SOC00.mps
Saved on :
	File : 18734_R302_UA700_SOC00_C04.mpr
	Directory : C:\Users\Celltest\OneDrive - store-dot.com\Documents\EC-Lab\Data\Charmaine\
	Host : 169.254.61.224
Device : VMP-3e (SN .003165)
Address : USB
EC-LAB for windows v11.62 (software)
Internet server v27.00 (firmware)
Command interpretor v12.03 (firmware)
Electrode material :
Initial state :
Electrolyte :
Comments :
Electrode surface area : 0.001 cm²
Characteristic mass : 0.001 g
Equivalent Weight : 0.000 g/eq.
Density : 0.000 g/cm3
Volume (V) : 0.001 cm³
Record Ece
Cycle Definition : Charge/Discharge alternance
Mode                Single sine
E (V)               0.0000
vs.                 Eoc
tE (h:m:s)          0:00:0.0000
record              0
dI                  0.000
unit dI             mA
dt (s)              0.000
fi                  100.000
unit fi             kHz
ff                  10.000
unit ff             mHz
Nd                  6
Points              per decade
spacing             Logarithmic
Va (mV)             5.0
pw                  0.10
Na                  2
corr                0
E range min (V)     -10.000
E range max (V)     10.000
I Range             Auto
Bandwidth           5
nc cycles           0
goto Ns'            0
nr cycles           0
inc. cycle          0

freq/Hz	Re(Z)/Ohm	-Im(Z)/Ohm	|Z|/Ohm	Phase(Z)/deg	time/s	<Ewe>/V	<I>/mA	Cs/µF	Cp/µF	cycle number	I Range	|Ewe|/V	|I|/A	Ns	(Q-Qo)/mA.h	<Ece>/V	|Ece|/V	Phase(Zce)/deg	|Zce|/Ohm	Re(Zce)/Ohm	-Im(Zce)/Ohm	Phase(Zwe-ce)/deg	|Zwe-ce|/Ohm	Re(Zwe-ce)/Ohm	-Im(Zwe-ce)/Ohm	Re(Y)/Ohm-1	Im(Y)/Ohm-1	|Y|/Ohm-1	Phase(Y)/deg	Re(C)/nF	Im(C)/nF	|C|/nF	Phase(C)/deg	Re(M)	Im(M)	|M|	Phase(M)/deg	Re(Permittivity)	Im(Permittivity)	|Permittivity|	Phase(Permittivity)/deg	Re(Resistivity)/Ohm.cm	Im(Resistivity)/Ohm.cm	|Resistivity|/Ohm.cm	Phase(Resistivity)/deg	Re(Conductivity)/mS/cm	Im(Conductivity)/mS/cm	|Conductivity|/mS/cm	Phase(Conductivity)/deg	Tan(Delta)	Loss Angle(Delta)/deg	dq/mA.h	Pwe/W	Pce/W	Pwe-ce/W	<Ewe-Ece>/V	Rwe/Ohm	Rce/Ohm	Rwe-ce/Ohm		Ewe-Ece/V
100004	1.59529	0.566599	1.69293	-19.5535	1.92154	0.259904	-0.00487124	2.80885	0.314632	1	9	0.00482473	0.00284993	0	-5.86318e-06	0.000156488	2.67822e-05	58.304	0.00939748	0.00493756	-0.00799582	-19.2429	1.69493	1.60023	0.558603	0.556628	0.197697	0.590693	19.5535	314.633	885.868	940.082	-70.4465	0.0000000E+000	0.0000000E+000	0.0000000E+000	70.4465	0.0000000E+000	0.0000000E+000	0.0000000E+000	-70.4465	0.0000000E+000	0.0000000E+000	0.0000000E+000	-19.5535	0.0000000E+000	0.0000000E+000	0.0000000E+000	19.5535	2.81556	70.4465	-5.86318e-06	-1.26605e-06	-7.62291e-10	-1.26529e-06	0.259747	53354.7	32.1248	53322.6
31621.1	2.11069	0.91587	2.30083	-23.457	3.44453	0.259873	-0.0217669	5.49552	0.870775	1	9	0.00507533	0.00220587	0	-2.14214e-05	3.60827e-06	1.86087e-05	12.7102	0.008436	0.00822928	-0.00185609	-23.3334	2.30765	2.11892	0.914014	0.398707	0.173007	0.434625	23.457	870.776	2006.77	2187.55	-66.543	0.0000000E+000	0.0000000E+000	0.0000000E+000	66.543	0.0000000E+000	0.0000000E+000	0.0000000E+000	-66.543	0.0000000E+000	0.0000000E+000	0.0000000E+000	-23.457	0.0000000E+000	0.0000000E+000	0.0000000E+000	23.457	2.30457	66.543	-1.70813e-06	-5.65664e-06	-7.8541e-11	-5.65656e-06	0.259869	11938.9	0.165768	11938.7
10002.2	2.81146	1.20577	3.05911	-23.2135	4.71755	0.259878	-0.0178134	13.1965	2.05021	1	9	0.00546078	0.00178509	0	-3.38595e-05	-7.28316e-05	4.25697e-06	-53.7356	0.00238474	0.0014106	0.0019228	-23.2361	3.06117	2.81287	1.2077	0.300428	0.128847	0.326892	23.2135	2050.21	4780.4	5201.49	-66.7865	0.0000000E+000	0.0000000E+000	0.0000000E+000	66.7865	0.0000000E+000	0.0000000E+000	0.0000000E+000	-66.7865	0.0000000E+000	0.0000000E+000	0.0000000E+000	-23.2135	0.0000000E+000	0.0000000E+000	0.0000000E+000	23.2135	2.33166	66.7865	-1.60977e-06	-4.62932e-06	1.29738e-09	-4.63062e-06	0.259951	14588.9	4.08857	14593
3163.08	3.63613	1.7884	4.05214	-26.1898	6.25466	0.259869	-0.0071194	28.135	5.48031	1	10	0.00502042	0.00123895	0	-5.11879e-05	-0.000130161	2.80171e-06	9.81428	0.00226135	0.00222826	-0.000385459	-26.171	4.05397	3.63836	1.78801	0.221448	0.108917	0.246783	26.1898	5480.31	11142.5	12417.3	-63.8102	0.0000000E+000	0.0000000E+000	0.0000000E+000	63.8102	0.0000000E+000	0.0000000E+000	0.0000000E+000	-63.8102	0.0000000E+000	0.0000000E+000	0.0000000E+000	-26.1898	0.0000000E+000	0.0000000E+000	0.0000000E+000	26.1898	2.03318	63.8102	-4.97516e-06	-1.85011e-06	9.26672e-10	-1.85104e-06	0.259999	36501.5	18.2826	36519.8
1000.32	4.73051	3.23484	5.73079	-34.3653	7.82185	0.25988	-0.00632116	49.1845	15.6713	1	10	0.00489669	0.000854453	0	-5.44189e-05	0.000118268	1.02288e-05	83.0257	0.0119711	0.00145359	-0.0118825	-34.259	5.72529	4.73196	3.22296	0.144039	0.0984974	0.174496	34.3653	15671.3	22917.1	27763	-55.6347	0.0000000E+000	0.0000000E+000	0.0000000E+000	55.6347	0.0000000E+000	0.0000000E+000	0.0000000E+000	-55.6347	0.0000000E+000	0.0000000E+000	0.0000000E+000	-34.3653	0.0000000E+000	0.0000000E+000	0.0000000E+000	34.3653	1.46236	55.6347	-1.45311e-06	-1.64274e-06	-7.4759e-10	-1.64199e-06	0.259761	41112.7	18.7099	41094
316.316	7.01278	6.88202	9.82554	-44.4608	9.17203	0.259875	-0.00689189	73.1111	35.8676	1	10	0.00458867	0.000467014	0	-5.65531e-05	-0.000206601	7.01183e-06	-6.86143	0.0150142	0.0149066	0.00179372	-44.4075	9.83744	7.02768	6.88381	0.0726402	0.0712858	0.101776	44.4608	35867.6	36549.1	51208.6	-45.5392	0.0000000E+000	0.0000000E+000	0.0000000E+000	45.5392	0.0000000E+000	0.0000000E+000	0.0000000E+000	-45.5392	0.0000000E+000	0.0000000E+000	0.0000000E+000	-44.4608	0.0000000E+000	0.0000000E+000	0.0000000E+000	44.4608	1.019	45.5392	-5.91747e-07	-1.79103e-06	1.42387e-09	-1.79245e-06	0.260081	37707.3	29.9774	37737.3
100.032	14.1311	13.6084	19.6183	-43.9206	10.7338	0.259883	-0.00705229	116.916	56.2559	1	10	0.00499568	0.000254645	0	-5.99225e-05	-0.000206601	5.06226e-06	23.654	0.0198797	0.0182095	-0.007976	-43.867	19.6258	14.1493	13.6004	0.0367159	0.0353579	0.0509729	43.9206	56255.9	58416.5	81100	-46.0794	0.0000000E+000	0.0000000E+000	0.0000000E+000	46.0794	0.0000000E+000	0.0000000E+000	0.0000000E+000	-46.0794	0.0000000E+000	0.0000000E+000	0.0000000E+000	-43.9206	0.0000000E+000	0.0000000E+000	0.0000000E+000	43.9206	1.03841	46.0794	-9.52229e-07	-1.83277e-06	1.45701e-09	-1.83423e-06	0.26009	36850.8	29.2956	36880.1
31.6296	29.3944	16.2566	33.5903	-28.9448	12.3136	0.259867	-0.00370191	309.527	72.4983	1	11	0.00499151	0.0001486	0	-6.17585e-05	-0.000149271	1.20747e-05	-9.83638	0.0812563	0.0800618	0.0138814	-28.8995	33.6671	29.4745	16.2705	0.0260518	0.0144079	0.0297705	28.9448	72498.3	131088	149800	-61.0552	0.0000000E+000	0.0000000E+000	0.0000000E+000	61.0552	0.0000000E+000	0.0000000E+000	0.0000000E+000	-61.0552	0.0000000E+000	0.0000000E+000	0.0000000E+000	-28.9448	0.0000000E+000	0.0000000E+000	0.0000000E+000	28.9448	1.80816	61.0552	-4.28033e-07	-9.62003e-07	5.52589e-10	-9.62556e-07	0.260016	70198.2	40.3228	70238.5
10.0032	40.8071	10.4927	42.1345	-14.4201	13.6459	0.259885	-0.00319004	1516.33	94.0359	1	11	0.0049835	0.000118276	0	-6.34376e-05	-0.000168381	1.11102e-05	-10.782	0.0939341	0.0922758	0.0175725	-14.412	42.2283	40.8994	10.5103	0.0229858	0.00591034	0.0237335	14.4201	94035.9	365713	377610	-75.5799	0.0000000E+000	0.0000000E+000	0.0000000E+000	75.5799	0.0000000E+000	0.0000000E+000	0.0000000E+000	-75.5799	0.0000000E+000	0.0000000E+000	0.0000000E+000	-14.4201	0.0000000E+000	0.0000000E+000	0.0000000E+000	14.4201	3.88908	75.5799	-2.80372e-07	-8.29043e-07	5.37143e-10	-8.2958e-07	0.260053	81467.5	52.7834	81520.3
3.1604	45.6227	5.96676	46.0112	-7.45113	15.1635	0.259896	-0.00234968	8439.96	141.935	1	11	0.00499656	0.000108594	0	-6.32634e-05	-7.28316e-05	3.48339e-06	-35.2031	0.0320771	0.0262106	0.0184917	-7.46971	46.0396	45.6489	5.98525	0.0215503	0.00281845	0.0217338	7.45113	141935	1.08525e+06	1.0945e+06	-82.5489	0.0000000E+000	0.0000000E+000	0.0000000E+000	82.5489	0.0000000E+000	0.0000000E+000	0.0000000E+000	-82.5489	0.0000000E+000	0.0000000E+000	0.0000000E+000	-7.45113	0.0000000E+000	0.0000000E+000	0.0000000E+000	7.45113	7.64615	82.5489	2.38113e-07	-6.10673e-07	1.71131e-10	-6.10844e-07	0.259969	110609	30.9963	110640
1.00006	48.3273	4.4791	48.5344	-5.2952	20.4828	0.259887	-0.00186927	35530.5	302.611	1	12	0.00498743	0.000102761	0	-7.04821e-05	-0.000206601	3.28445e-06	48.7189	0.0319621	0.0210871	-0.0240189	-5.26468	48.5532	48.3484	4.45508	0.020516	0.00190148	0.0206039	5.2952	302610	3.26502e+06	3.27901e+06	-84.7048	0.0000000E+000	0.0000000E+000	0.0000000E+000	84.7048	0.0000000E+000	0.0000000E+000	0.0000000E+000	-84.7048	0.0000000E+000	0.0000000E+000	0.0000000E+000	-5.2952	0.0000000E+000	0.0000000E+000	0.0000000E+000	5.2952	10.7895	84.7048	-1.78855e-06	-4.85799e-07	3.86194e-10	-4.86185e-07	0.260094	139031	110.525	139142
0.316193	51.0932	4.68211	51.3073	-5.23588	34.826	0.259887	-0.00167732	107504	895.265	1	12	0.00498517	9.71629e-05	0	-6.14152e-05	9.9158e-05	2.033e-06	15.0669	0.0209237	0.0202044	-0.00543905	-5.22778	51.3269	51.1134	4.67667	0.0194091	0.00177862	0.0194904	5.23588	895265	9.76951e+06	9.81044e+06	-84.7641	0.0000000E+000	0.0000000E+000	0.0000000E+000	84.7641	0.0000000E+000	0.0000000E+000	0.0000000E+000	-84.7641	0.0000000E+000	0.0000000E+000	0.0000000E+000	-5.23588	0.0000000E+000	0.0000000E+000	0.0000000E+000	5.23588	10.9124	84.7641	4.92491e-06	-4.35913e-07	-1.6632e-10	-4.35747e-07	0.259788	154941	59.1169	154882
0.0999041	54.5217	6.20265	54.8734	-6.49033	80.034	0.259893	-0.000412342	256838	3281.63	1	12	0.004992	9.09731e-05	0	-9.13772e-05	0.000175598	2.91159e-06	0.803123	0.032005	0.0320019	-0.000448604	-6.48609	54.9052	54.5537	6.2022	0.018107	0.00205993	0.0182238	6.49033	3.28163e+06	2.88458e+07	2.90318e+07	-83.5097	0.0000000E+000	0.0000000E+000	0.0000000E+000	83.5097	0.0000000E+000	0.0000000E+000	0.0000000E+000	-83.5097	0.0000000E+000	0.0000000E+000	0.0000000E+000	-6.49033	0.0000000E+000	0.0000000E+000	0.0000000E+000	6.49033	8.79008	83.5097	-2.39914e-05	-1.07165e-07	-7.24063e-11	-1.07092e-07	0.259717	630285	425.855	629859
0.0315922	59.2331	10.3699	60.134	-9.93012	222.918	0.259897	-0.00107425	485808	14446.9	1	12	0.00498926	8.2969e-05	0	-0.000218258	0.000213818	3.69612e-06	-9.98962	0.0445482	0.0438728	0.00772776	-9.93016	60.1785	59.277	10.3776	0.0163804	0.00286771	0.0166295	9.93012	1.44469e+07	8.2521e+07	8.37761e+07	-80.0699	0.0000000E+000	0.0000000E+000	0.0000000E+000	80.0699	0.0000000E+000	0.0000000E+000	0.0000000E+000	-80.0699	0.0000000E+000	0.0000000E+000	0.0000000E+000	-9.93012	0.0000000E+000	0.0000000E+000	0.0000000E+000	9.93012	5.71201	80.0699	-3.71639e-05	-2.79193e-07	-2.29693e-10	-2.78963e-07	0.259683	241934	199.04	241735
0.0100092	66.1545	20.6856	69.3132	-17.3637	674.142	0.259888	-0.000409814	768695	68463.4	1	12	0.0049917	7.20166e-05	0	6.27021e-05	-0.000340371	2.80689e-06	-2.45045	0.0389757	0.03894	0.00166642	-17.3555	69.3508	66.1935	20.6873	0.0137698	0.00430563	0.0144273	17.3637	6.84634e+07	2.18953e+08	2.29407e+08	-72.6363	0.0000000E+000	0.0000000E+000	0.0000000E+000	72.6363	0.0000000E+000	0.0000000E+000	0.0000000E+000	-72.6363	0.0000000E+000	0.0000000E+000	0.0000000E+000	-17.3637	0.0000000E+000	0.0000000E+000	0.0000000E+000	17.3637	3.1981	72.6363	0.000172746	-1.06506e-07	1.39489e-10	-1.06645e-07	0.260228	634160	830.55	634991