File: txt/18731_R302_UA700_SOC00_C01.mpt
EC-Lab ASCII FILE
Nb header lines : 65

Potentio Electrochemical Impedance Spectroscopy

Run on channel : 1 (SN 66354)
User :
CE vs. WE compliance from -10 V to 10 V
Electrode connection : standard
Potential control : Ewe
Ewe ctrl range : min = -10.00 V, max = 10.00 V
Safety Limits :
	Do not start on E overload
Acquisition started on : 10/31/2025 11:54:10.673
Technique started on : 10/31/2025 11:54:12.585
Loaded Setting File :  C:\Users\Celltest\OneDrive - store-dot.com\Documents\EC-Lab\Data\@Biologic Test Protocols\anode half cell EIS SOC00.mps
Saved on :
	File : 18731_R302_UA700_SOC00_C01.mpr
	Directory : C:\Users\Celltest\OneDrive - store-dot.com\Documents\EC-Lab\Data\Charmaine\
	Host : 169.254.61.224
Device : VMP-3e (SN .003165)
Address : USB
EC-LAB for windows v11.62 (software)
Internet server v27.00 (firmware)
Command interpretor v12.03 (firmware)
Electrode material :
Initial state :
Electrolyte :
Comments :
Electrode surface area : 0.001 cm²
Characteristic mass : 0.001 g
Equivalent Weight : 0.000 g/eq.
Density : 0.000 g/cm3
Volume (V) : 0.001 cm³
Record Ece
Cycle Definition : Charge/Discharge alternance
Mode                Single sine
E (V)               0.0000
vs.                 Eoc
tE (h:m:s)          0:00:0.0000
record              0
dI                  0.000
unit dI             mA
dt (s)              0.000
fi                  100.000
unit fi             kHz
ff                  10.000
unit ff             mHz
Nd                  6
Points              per decade
spacing             Logarithmic
Va (mV)             5.0
pw                  0.10
Na                  2
corr                0
E range min (V)     -10.000
E range max (V)     10.000
I Range             Auto
Bandwidth           5
nc cycles           0
goto Ns'            0
nr cycles           0
inc. cycle          0

freq/Hz	Re(Z)/Ohm	-Im(Z)/Ohm	|Z|/Ohm	Phase(Z)/deg	time/s	<Ewe>/V	<I>/mA	Cs/µF	Cp/µF	cycle number	I Range	|Ewe|/V	|I|/A	Ns	(Q-Qo)/mA.h	<Ece>/V	|Ece|/V	Phase(Zce)/deg	|Zce|/Ohm	Re(Zce)/Ohm	-Im(Zce)/Ohm	Phase(Zwe-ce)/deg	|Zwe-ce|/Ohm	Re(Zwe-ce)/Ohm	-Im(Zwe-ce)/Ohm	Re(Y)/Ohm-1	Im(Y)/Ohm-1	|Y|/Ohm-1	Phase(Y)/deg	Re(C)/nF	Im(C)/nF	|C|/nF	Phase(C)/deg	Re(M)	Im(M)	|M|	Phase(M)/deg	Re(Permittivity)	Im(Permittivity)	|Permittivity|	Phase(Permittivity)/deg	Re(Resistivity)/Ohm.cm	Im(Resistivity)/Ohm.cm	|Resistivity|/Ohm.cm	Phase(Resistivity)/deg	Re(Conductivity)/mS/cm	Im(Conductivity)/mS/cm	|Conductivity|/mS/cm	Phase(Conductivity)/deg	Tan(Delta)	Loss Angle(Delta)/deg	dq/mA.h	Pwe/W	Pce/W	Pwe-ce/W	<Ewe-Ece>/V	Rwe/Ohm	Rce/Ohm	Rwe-ce/Ohm		Ewe-Ece/V
100004	1.63829	0.660042	1.76625	-21.9437	1.91151	0.265854	0.0651533	2.41119	0.33672	1	9	0.00462519	0.00261864	0	2.94356e-06	-5.48923e-05	4.3752e-05	102.89	0.0167079	-0.00372727	-0.0162868	-21.4965	1.75676	1.63456	0.643755	0.525151	0.211575	0.56617	21.9437	336.72	835.774	901.054	-68.0563	0.0000000E+000	0.0000000E+000	0.0000000E+000	68.0563	0.0000000E+000	0.0000000E+000	0.0000000E+000	-68.0563	0.0000000E+000	0.0000000E+000	0.0000000E+000	-21.9437	0.0000000E+000	0.0000000E+000	0.0000000E+000	21.9437	2.4821	68.0563	2.94356e-06	1.73213e-05	-3.57641e-09	1.73249e-05	0.265909	4080.45	0.84251	4081.29
31621.1	2.23304	0.964269	2.43234	-23.3556	3.43457	0.265846	0.0634023	5.21969	0.820334	1	9	0.00512696	0.00210783	0	4.0114e-05	0.000307577	1.12493e-05	-1.40096	0.00533692	0.00533532	0.000130482	-23.3087	2.43729	2.23838	0.964399	0.377439	0.162985	0.411126	23.3556	820.334	1899.72	2069.27	-66.6444	0.0000000E+000	0.0000000E+000	0.0000000E+000	66.6444	0.0000000E+000	0.0000000E+000	0.0000000E+000	-66.6444	0.0000000E+000	0.0000000E+000	0.0000000E+000	-23.3556	0.0000000E+000	0.0000000E+000	0.0000000E+000	23.3556	2.31579	66.6444	3.06905e-06	1.68553e-05	1.95011e-08	1.68358e-05	0.265538	4193	4.85119	4188.15
10002.2	2.98059	1.3191	3.25944	-23.8725	4.46153	0.265854	0.0619121	12.0627	1.97568	1	9	0.00451591	0.00138549	0	5.44439e-05	4.04943e-05	1.06279e-05	-132.351	0.00767089	-0.00516764	0.00566904	-24.0005	3.25702	2.97542	1.32477	0.280554	0.124163	0.306801	23.8725	1975.68	4464.16	4881.8	-66.1275	0.0000000E+000	0.0000000E+000	0.0000000E+000	66.1275	0.0000000E+000	0.0000000E+000	0.0000000E+000	-66.1275	0.0000000E+000	0.0000000E+000	0.0000000E+000	-23.8725	0.0000000E+000	0.0000000E+000	0.0000000E+000	23.8725	2.25956	66.1275	3.56971e-06	1.64596e-05	2.50708e-09	1.64571e-05	0.265813	4294.05	0.65406	4293.4
3163.08	3.95046	1.97186	4.41525	-26.5259	5.64167	0.26576	-0.0153592	25.5172	5.08951	1	10	0.00494234	0.00111938	0	6.2238e-05	9.77262e-05	6.66896e-06	-119.664	0.00595772	-0.00294852	0.00517693	-26.6031	4.41492	3.94752	1.97704	0.202646	0.10115	0.226488	26.5259	5089.51	10196.4	11396.1	-63.4741	0.0000000E+000	0.0000000E+000	0.0000000E+000	63.4741	0.0000000E+000	0.0000000E+000	0.0000000E+000	-63.4741	0.0000000E+000	0.0000000E+000	0.0000000E+000	-26.5259	0.0000000E+000	0.0000000E+000	0.0000000E+000	26.5259	2.00342	63.4741	-1.82794e-06	-4.08185e-06	-1.50099e-09	-4.08035e-06	0.265662	17303	6.36273	17296.7
1000.32	5.17952	3.48345	6.24195	-33.9225	6.9948	0.265769	-0.00602318	45.6742	14.225	1	10	0.00476639	0.000763607	0	6.01798e-05	0.000135881	7.20008e-06	-99.4584	0.00942904	-0.00154948	0.00930086	-34.0013	6.24586	5.17797	3.49275	0.132938	0.0894067	0.160206	33.9225	14225	21151	25489.5	-56.0775	0.0000000E+000	0.0000000E+000	0.0000000E+000	56.0775	0.0000000E+000	0.0000000E+000	0.0000000E+000	-56.0775	0.0000000E+000	0.0000000E+000	0.0000000E+000	-33.9225	0.0000000E+000	0.0000000E+000	0.0000000E+000	33.9225	1.48689	56.0775	-7.33534e-07	-1.60078e-06	-8.18434e-10	-1.59996e-06	0.265633	44124.4	22.5596	44101.9
316.316	7.58567	7.22901	10.4786	-43.6209	8.34505	0.265764	-0.00625798	69.6017	33.1262	1	10	0.00469555	0.000448108	0	5.76073e-05	-5.48923e-05	3.61552e-06	-23.5573	0.0080684	0.00739599	0.00322467	-43.6058	10.4862	7.59307	7.23224	0.0690856	0.0658374	0.0954326	43.6209	33126.2	34760.6	48017.1	-46.3791	0.0000000E+000	0.0000000E+000	0.0000000E+000	46.3791	0.0000000E+000	0.0000000E+000	0.0000000E+000	-46.3791	0.0000000E+000	0.0000000E+000	0.0000000E+000	-43.6209	0.0000000E+000	0.0000000E+000	0.0000000E+000	43.6209	1.04934	46.3791	-1.05033e-06	-1.66315e-06	3.43515e-10	-1.66349e-06	0.265819	42468	8.77156	42476.7
100.032	14.9045	14.4043	20.7274	-44.0224	9.69181	0.265763	-0.00582567	110.456	53.3436	1	10	0.00468613	0.000226083	0	5.49616e-05	9.77262e-05	7.90872e-06	42.6423	0.0349814	0.0257322	-0.0236971	-43.9258	20.7295	14.9302	14.3806	0.0346916	0.0335275	0.0482452	44.0224	53343.6	55195.7	76760	-45.9776	0.0000000E+000	0.0000000E+000	0.0000000E+000	45.9776	0.0000000E+000	0.0000000E+000	0.0000000E+000	-45.9776	0.0000000E+000	0.0000000E+000	0.0000000E+000	-44.0224	0.0000000E+000	0.0000000E+000	0.0000000E+000	44.0224	1.03472	45.9776	-4.2229e-07	-1.54824e-06	-5.6932e-10	-1.54767e-06	0.265665	45619.3	16.7751	45602.5
31.6296	31.2872	17.9334	36.0624	-29.8208	11.2716	0.265803	-0.00230217	280.584	69.3875	1	11	0.0046816	0.000129819	0	5.39995e-05	0.000250345	6.78398e-06	31.2929	0.052257	0.0446548	-0.027143	-29.7481	36.0877	31.3319	17.9063	0.0240579	0.0137897	0.0277297	29.8208	69387.5	121055	139531	-60.1792	0.0000000E+000	0.0000000E+000	0.0000000E+000	60.1792	0.0000000E+000	0.0000000E+000	0.0000000E+000	-60.1792	0.0000000E+000	0.0000000E+000	0.0000000E+000	-29.8208	0.0000000E+000	0.0000000E+000	0.0000000E+000	29.8208	1.74463	60.1792	-4.99901e-07	-6.11923e-07	-5.76335e-10	-6.11346e-07	0.265553	115458	108.743	115349
10.0032	44.5185	12.0428	46.1186	-15.137	12.6038	0.265815	-0.00206905	1321.15	90.086	1	11	0.00468789	0.000101648	0	5.3979e-05	2.33964e-06	3.35193e-06	-130.977	0.0329757	-0.021624	0.0248958	-15.1739	46.1043	44.4969	12.0677	0.0209309	0.00566208	0.0216832	15.137	90086	333019	344989	-74.863	0.0000000E+000	0.0000000E+000	0.0000000E+000	74.863	0.0000000E+000	0.0000000E+000	0.0000000E+000	-74.863	0.0000000E+000	0.0000000E+000	0.0000000E+000	-15.137	0.0000000E+000	0.0000000E+000	0.0000000E+000	15.137	3.69668	74.863	4.1344e-07	-5.49985e-07	-4.84084e-12	-5.49981e-07	0.265813	128472	1.13078	128471
3.1604	50.0133	6.80963	50.4748	-7.7535	14.1204	0.265823	-0.000695484	7395.29	134.602	1	11	0.00468267	9.27724e-05	0	5.30803e-05	9.77262e-05	5.29468e-06	48.3099	0.0570717	0.0379585	-0.0426185	-7.69979	50.5067	50.0513	6.76701	0.0196307	0.00267285	0.0198119	7.7535	134602	988588	997709	-82.2465	0.0000000E+000	0.0000000E+000	0.0000000E+000	82.2465	0.0000000E+000	0.0000000E+000	0.0000000E+000	-82.2465	0.0000000E+000	0.0000000E+000	0.0000000E+000	-7.7535	0.0000000E+000	0.0000000E+000	0.0000000E+000	7.7535	7.3445	82.2465	5.08949e-07	-1.84876e-07	-6.7967e-11	-1.84808e-07	0.265725	382213	140.515	382072
1.00006	52.9708	4.92529	53.1993	-5.31216	19.2218	0.265834	-0.000194483	32311.8	276.957	1	12	0.00468248	8.80177e-05	0	5.16487e-05	0.000116803	5.59929e-06	-7.45237	0.0636155	0.0630782	0.00825106	-5.31472	53.2628	53.0338	4.93354	0.0187165	0.00174029	0.0187973	5.31216	276958	2.97864e+06	2.99148e+06	-84.6878	0.0000000E+000	0.0000000E+000	0.0000000E+000	84.6878	0.0000000E+000	0.0000000E+000	0.0000000E+000	-84.6878	0.0000000E+000	0.0000000E+000	0.0000000E+000	-5.31216	0.0000000E+000	0.0000000E+000	0.0000000E+000	5.31216	10.7549	84.6878	-2.53306e-06	-5.17001e-08	-2.27163e-11	-5.16774e-08	0.265717	1.36688e+06	600.585	1.36628e+06
0.316193	56.0034	5.00626	56.2267	-5.10821	33.5649	0.265838	-0.000568734	100544	797.068	1	12	0.00468356	8.32977e-05	0	4.33642e-05	0.000326654	2.10039e-06	2.09251	0.0252155	0.0251987	-0.000920693	-5.10499	56.2517	56.0286	5.00534	0.0177145	0.00158353	0.0177851	5.10821	797068	8.91655e+06	8.9521e+06	-84.8918	0.0000000E+000	0.0000000E+000	0.0000000E+000	84.8918	0.0000000E+000	0.0000000E+000	0.0000000E+000	-84.8918	0.0000000E+000	0.0000000E+000	0.0000000E+000	-5.10821	0.0000000E+000	0.0000000E+000	0.0000000E+000	5.10821	11.1867	84.8918	-4.59448e-07	-1.51191e-07	-1.85779e-10	-1.51005e-07	0.265511	467420	574.353	466846
0.0999041	59.5666	6.48297	59.9183	-6.21138	78.7728	0.265829	-0.000376794	245732	2876.68	1	12	0.00468399	7.81729e-05	0	7.761e-05	4.04943e-05	2.66979e-06	0.149538	0.0341523	0.0341522	-8.91354e-05	-6.20777	59.9523	59.6007	6.48288	0.0165914	0.00180574	0.0166894	6.21138	2.87668e+06	2.64314e+07	2.65875e+07	-83.7886	0.0000000E+000	0.0000000E+000	0.0000000E+000	83.7886	0.0000000E+000	0.0000000E+000	0.0000000E+000	-83.7886	0.0000000E+000	0.0000000E+000	0.0000000E+000	-6.21138	0.0000000E+000	0.0000000E+000	0.0000000E+000	6.21138	9.18815	83.7886	1.59464e-05	-1.00163e-07	-1.5258e-11	-1.00148e-07	0.265789	705504	107.471	705396
0.0315922	64.3017	10.9528	65.2279	-9.66669	221.656	0.265827	0.000335987	459954	12968.8	1	12	0.00468328	7.17988e-05	0	3.27872e-05	7.86489e-05	2.15294e-06	-9.07307	0.0299858	0.0296106	0.00472857	-9.66641	65.2578	64.3313	10.9575	0.0151132	0.0025743	0.0153309	9.66669	1.29688e+07	7.61371e+07	7.72337e+07	-80.3333	0.0000000E+000	0.0000000E+000	0.0000000E+000	80.3333	0.0000000E+000	0.0000000E+000	0.0000000E+000	-80.3333	0.0000000E+000	0.0000000E+000	0.0000000E+000	-9.66669	0.0000000E+000	0.0000000E+000	0.0000000E+000	9.66669	5.87079	80.3333	-4.67752e-05	8.93147e-08	2.6425e-11	8.92882e-08	0.265749	791183	234.083	790949
0.0100092	72.2609	21.7347	75.4588	-16.7403	672.877	0.265832	-0.000572521	731591	60695.4	1	12	0.00468308	6.20614e-05	0	-0.00021112	0.000383886	1.11887e-06	46.6413	0.0180285	0.0123777	-0.013108	-16.728	75.4669	72.2733	21.7216	0.0126906	0.0038171	0.0132523	16.7403	6.06954e+07	2.01793e+08	2.10723e+08	-73.2597	0.0000000E+000	0.0000000E+000	0.0000000E+000	73.2597	0.0000000E+000	0.0000000E+000	0.0000000E+000	-73.2597	0.0000000E+000	0.0000000E+000	0.0000000E+000	-16.7403	0.0000000E+000	0.0000000E+000	0.0000000E+000	16.7403	3.32468	73.2597	-5.29952e-05	-1.52195e-07	-2.19783e-10	-1.51975e-07	0.265449	464319	670.518	463648