File: txt/18799_R307_UC93_26p5_SOC50_C01.mpt
EC-Lab ASCII FILE
Nb header lines : 65

Potentio Electrochemical Impedance Spectroscopy

Run on channel : 1 (SN 66354)
Grouped channel(s) : 1, 2, 3, 4, 5
User :
CE vs. WE compliance from -10 V to 10 V
Electrode connection : standard
Potential control : Ewe
Ewe ctrl range : min = -10.00 V, max = 10.00 V
Safety Limits :
	Do not start on E overload
Acquisition started on : 11/04/2025 16:29:50.795
Loaded Setting File :  C:\Users\Celltest\OneDrive - store-dot.com\Documents\EC-Lab\Data\@Biologic Test Protocols\cathode half cell EIS SOC50.mps
Saved on :
	File : 18799_R307_UC93_26p5_SOC00_C01.mpr
	Directory : C:\Users\Celltest\OneDrive - store-dot.com\Documents\EC-Lab\Data\Anna\
	Host : 169.254.61.224
Device : VMP-3e (SN .003165)
Address : USB
EC-LAB for windows v11.62 (software)
Internet server v27.00 (firmware)
Command interpretor v12.03 (firmware)
Electrode material :
Initial state :
Electrolyte :
Comments :
Electrode surface area : 0.001 cm²
Characteristic mass : 0.001 g
Equivalent Weight : 0.000 g/eq.
Density : 0.000 g/cm3
Volume (V) : 0.001 cm³
Record Ece
Cycle Definition : Charge/Discharge alternance
Mode                Multi sine
E (V)               0.0000
vs.                 Eoc
tE (h:m:s)          0:00:0.0000
record              0
dI                  0.000
unit dI             mA
dt (s)              0.000
fi                  1.000
unit fi             MHz
ff                  0.100
unit ff             mHz
Nd                  10
Points              per decade
spacing             Logarithmic
Va (mV)             5.0
pw                  0.10
Na                  2
corr                0
E range min (V)     -10.000
E range max (V)     10.000
I Range             Auto
Bandwidth           5
nc cycles           0
goto Ns'            0
nr cycles           0
inc. cycle          0

freq/Hz	Re(Z)/Ohm	-Im(Z)/Ohm	|Z|/Ohm	Phase(Z)/deg	time/s	<Ewe>/V	<I>/mA	Cs/µF	Cp/µF	cycle number	I Range	|Ewe|/V	|I|/A	Ns	(Q-Qo)/mA.h	<Ece>/V	|Ece|/V	Phase(Zce)/deg	|Zce|/Ohm	Re(Zce)/Ohm	-Im(Zce)/Ohm	Phase(Zwe-ce)/deg	|Zwe-ce|/Ohm	Re(Zwe-ce)/Ohm	-Im(Zwe-ce)/Ohm	Re(Y)/Ohm-1	Im(Y)/Ohm-1	|Y|/Ohm-1	Phase(Y)/deg	Re(C)/nF	Im(C)/nF	|C|/nF	Phase(C)/deg	Re(M)	Im(M)	|M|	Phase(M)/deg	Re(Permittivity)	Im(Permittivity)	|Permittivity|	Phase(Permittivity)/deg	Re(Resistivity)/Ohm.cm	Im(Resistivity)/Ohm.cm	|Resistivity|/Ohm.cm	Phase(Resistivity)/deg	Re(Conductivity)/mS/cm	Im(Conductivity)/mS/cm	|Conductivity|/mS/cm	Phase(Conductivity)/deg	Tan(Delta)	Loss Angle(Delta)/deg	dq/mA.h	Pwe/W	Pce/W	Pwe-ce/W	<Ewe-Ece>/V	Rwe/Ohm	Rce/Ohm	Rwe-ce/Ohm		Ewe-Ece/V
1.00002e+06	3.39575	2.67467	4.32261	-38.2258	2.23355	1.04905	0.0244333	0.0595034	0.0227819	1	10	0.000289161	6.6895e-05	0	9.98313e-06	2.34201e-05	0.00019393	-72.0796	2.89902	0.892014	2.75838	-51.7195	6.9212	4.28776	5.43305	0.181737	0.143146	0.231342	38.2258	22.7819	28.9238	36.8185	-51.7742	0.0000000E+000	0.0000000E+000	0.0000000E+000	51.7742	0.0000000E+000	0.0000000E+000	0.0000000E+000	-51.7742	0.0000000E+000	0.0000000E+000	0.0000000E+000	-38.2258	0.0000000E+000	0.0000000E+000	0.0000000E+000	38.2258	1.26959	51.7742	9.98313e-06	2.56319e-05	5.72232e-10	2.56313e-05	1.04903	42935.3	0.95853	42934.4
251206	2.58755	0.672748	2.67357	-14.5739	4.93855	1.04856	0.0933548	0.941754	0.0596291	1	9	0.0051526	0.00192723	0	6.6909e-05	0.00030958	5.97561e-05	116.985	0.0310062	-0.0140693	-0.0276304	-14.0729	2.6531	2.57348	0.645117	0.361997	0.0941171	0.374032	14.5739	59.6291	229.348	236.973	-75.4261	0.0000000E+000	0.0000000E+000	0.0000000E+000	75.4261	0.0000000E+000	0.0000000E+000	0.0000000E+000	-75.4261	0.0000000E+000	0.0000000E+000	0.0000000E+000	-14.5739	0.0000000E+000	0.0000000E+000	0.0000000E+000	14.5739	3.84624	75.4261	8.45e-06	9.78885e-05	2.89007e-08	9.78596e-05	1.04825	11232	3.31616	11228.7
63093.8	3.56828	1.67651	3.9425	-25.1659	7.61251	1.04857	0.150615	1.50462	0.27208	1	9	0.005018	0.0012728	0	0.000169789	-1.47345e-05	1.90996e-05	48.6968	0.015006	0.00990464	-0.0112729	-24.9566	3.9467	3.57818	1.66524	0.22957	0.107861	0.253646	25.1659	272.08	579.093	639.825	-64.8341	0.0000000E+000	0.0000000E+000	0.0000000E+000	64.8341	0.0000000E+000	0.0000000E+000	0.0000000E+000	-64.8341	0.0000000E+000	0.0000000E+000	0.0000000E+000	-25.1659	0.0000000E+000	0.0000000E+000	0.0000000E+000	25.1659	2.12839	64.8341	1.94041e-05	0.000157929	-2.21923e-09	0.000157932	1.04858	6961.9	0.0978291	6962
15847.7	5.73322	2.6754	6.32674	-25.016	10.0675	1.04874	0.167432	3.75375	0.671249	1	10	0.0053816	0.000850613	0	0.000273511	0.000424044	1.23661e-05	-65.7874	0.0145379	0.00596235	0.013259	-25.1019	6.33775	5.73918	2.68866	0.143232	0.0668389	0.158059	25.016	671.249	1438.45	1587.36	-64.984	0.0000000E+000	0.0000000E+000	0.0000000E+000	64.984	0.0000000E+000	0.0000000E+000	0.0000000E+000	-64.984	0.0000000E+000	0.0000000E+000	0.0000000E+000	-25.016	0.0000000E+000	0.0000000E+000	0.0000000E+000	25.016	2.14294	64.984	1.20576e-05	0.000175593	7.09986e-08	0.000175522	1.04832	6263.67	2.53263	6261.14
3983.6	8.55924	2.61548	8.94993	-16.9918	11.7941	1.04857	0.18837	15.2754	1.30453	1	10	0.00489546	0.000546983	0	0.000358284	0.000195116	7.92574e-06	-40.7476	0.0144899	0.0109774	0.00945797	-17.0291	8.9632	8.57022	2.62494	0.106855	0.0326521	0.111733	16.9918	1304.53	4269.13	4464	-73.0082	0.0000000E+000	0.0000000E+000	0.0000000E+000	73.0082	0.0000000E+000	0.0000000E+000	0.0000000E+000	-73.0082	0.0000000E+000	0.0000000E+000	0.0000000E+000	-16.9918	0.0000000E+000	0.0000000E+000	0.0000000E+000	16.9918	3.27253	73.0082	1.56281e-05	0.00019752	3.6754e-08	0.000197483	1.04838	5566.55	1.03581	5565.52
1000.32	10.5761	1.85993	10.7384	-9.97419	14.4228	1.04868	0.2644	85.5428	2.56627	1	10	0.00482283	0.000449121	0	0.000533156	0.000214193	8.31159e-06	-97.3984	0.0185063	-0.00238301	0.0183523	-10.0728	10.7392	10.5737	1.87829	0.0917166	0.0161295	0.0931241	9.97419	2566.27	14592.5	14816.4	-80.0258	0.0000000E+000	0.0000000E+000	0.0000000E+000	80.0258	0.0000000E+000	0.0000000E+000	0.0000000E+000	-80.0258	0.0000000E+000	0.0000000E+000	0.0000000E+000	-9.97419	0.0000000E+000	0.0000000E+000	0.0000000E+000	9.97419	5.68626	80.0258	3.23866e-05	0.00027727	5.66326e-08	0.000277213	1.04846	3966.25	0.810111	3965.44
251.044	11.7622	1.53002	11.8613	-7.4114	17.123	1.04867	0.318929	414.355	6.89452	1	10	0.00481641	0.000406061	0	0.000749747	-9.10437e-05	3.03042e-05	-68.3948	0.0746297	0.0274793	0.0693864	-7.72569	11.8977	11.7897	1.59941	0.0836036	0.0108751	0.0843079	7.4114	6894.52	53002.3	53448.8	-82.5886	0.0000000E+000	0.0000000E+000	0.0000000E+000	82.5886	0.0000000E+000	0.0000000E+000	0.0000000E+000	-82.5886	0.0000000E+000	0.0000000E+000	0.0000000E+000	-7.4114	0.0000000E+000	0.0000000E+000	0.0000000E+000	7.4114	7.68759	82.5886	3.91093e-05	0.000334452	-2.90365e-08	0.000334481	1.04876	3288.11	0.285467	3288.4
63.0823	12.8415	1.90188	12.9816	-8.42448	19.844	1.04868	0.371706	1326.57	28.4734	1	10	0.00480933	0.000370473	0	0.0010085	-5.28891e-05	4.22844e-06	-64.3587	0.0114136	0.00493908	0.0102896	-8.46619	12.988	12.8465	1.91217	0.076201	0.0112857	0.0770322	8.42448	28473.4	192253	194350	-81.5755	0.0000000E+000	0.0000000E+000	0.0000000E+000	81.5755	0.0000000E+000	0.0000000E+000	0.0000000E+000	-81.5755	0.0000000E+000	0.0000000E+000	0.0000000E+000	-8.42448	0.0000000E+000	0.0000000E+000	0.0000000E+000	8.42448	6.75202	81.5755	4.65963e-05	0.000389801	-1.96592e-08	0.000389821	1.04873	2821.27	0.142288	2821.41
15.8576	14.8841	2.98645	15.1807	-11.3456	22.7371	1.04868	0.411026	3360.69	130.063	1	11	0.00481644	0.000317273	0	0.0013169	-7.19664e-05	1.35991e-05	1.79799	0.0428623	0.0428412	-0.00134483	-11.3089	15.2225	14.9269	2.98511	0.0645858	0.012959	0.065873	11.3456	130063	648216	661136	-78.6544	0.0000000E+000	0.0000000E+000	0.0000000E+000	78.6544	0.0000000E+000	0.0000000E+000	0.0000000E+000	-78.6544	0.0000000E+000	0.0000000E+000	0.0000000E+000	-11.3456	0.0000000E+000	0.0000000E+000	0.0000000E+000	11.3456	4.98387	78.6544	7.20475e-05	0.000431037	-2.95801e-08	0.000431066	1.04876	2551.38	0.17509	2551.56
3.97785	18.2613	3.39964	18.575	-10.5458	25.6493	1.04872	0.473326	11769	394.226	1	11	0.00481591	0.000259268	0	0.00167085	0.000290502	3.99713e-06	-32.6317	0.015417	0.0129835	0.0083134	-10.5637	18.5893	18.2743	3.40796	0.0529263	0.00985312	0.0538357	10.5458	394226	2.1176e+06	2.15398e+06	-79.4542	0.0000000E+000	0.0000000E+000	0.0000000E+000	79.4542	0.0000000E+000	0.0000000E+000	0.0000000E+000	-79.4542	0.0000000E+000	0.0000000E+000	0.0000000E+000	-10.5458	0.0000000E+000	0.0000000E+000	0.0000000E+000	10.5458	5.37153	79.4542	7.28797e-05	0.000496387	1.37502e-07	0.00049625	1.04843	2215.65	0.613747	2215.03
1.00469	19.6781	3.83631	20.0486	-11.0316	240.463	1.04875	3.66522	41292.7	1511.93	1	11	0.00501146	0.000249966	0	0.156412	0.000252348	3.21064e-07	-12.039	0.00128443	0.00125618	0.000267904	-11.0317	20.0499	19.6794	3.83658	0.0489571	0.00954433	0.0498788	11.0316	1.51193e+06	7.75536e+06	7.90137e+06	-78.9684	0.0000000E+000	0.0000000E+000	0.0000000E+000	78.9684	0.0000000E+000	0.0000000E+000	0.0000000E+000	-78.9684	0.0000000E+000	0.0000000E+000	0.0000000E+000	-11.0316	0.0000000E+000	0.0000000E+000	0.0000000E+000	11.0316	5.12945	78.9684	0.153921	0.0038439	9.2491e-07	0.00384297	1.0485	286.135	0.0688493	286.067
0.251173	22.83	2.61226	22.979	-6.52752	240.463	1.04875	3.66522	242566	3134.74	1	11	0.00504085	0.000219368	0	0.156412	0.000252348	3.96962e-07	26.3936	0.00180957	0.00162095	-0.000804418	-6.52507	22.9805	22.8316	2.61145	0.043236	0.00494715	0.0435181	6.52752	3.13474e+06	2.73963e+07	2.7575e+07	-83.4725	0.0000000E+000	0.0000000E+000	0.0000000E+000	83.4725	0.0000000E+000	0.0000000E+000	0.0000000E+000	-83.4725	0.0000000E+000	0.0000000E+000	0.0000000E+000	-6.52752	0.0000000E+000	0.0000000E+000	0.0000000E+000	6.52752	8.73956	83.4725	0.000000000000000E+000	0.0038439	9.2491e-07	0.00384297	1.0485	286.135	0.0688493	286.067
0.0602816	26.8194	-12.3799	29.5388	24.7781	240.463	1.04875	3.66522	-213265	-37459.7	1	11	0.00503067	0.000170307	0	0.156412	0.000252348	4.71764e-07	63.8185	0.00277008	0.00122221	-0.00248587	24.7815	29.541	26.8207	-12.3823	0.0307371	-0.0141883	0.0338537	-24.7781	-3.74597e+07	8.11518e+07	8.93803e+07	-114.778	0.0000000E+000	0.0000000E+000	0.0000000E+000	114.778	0.0000000E+000	0.0000000E+000	0.0000000E+000	-114.778	0.0000000E+000	0.0000000E+000	0.0000000E+000	24.7781	0.0000000E+000	0.0000000E+000	0.0000000E+000	-24.7781	2.16638	65.2219	0.000000000000000E+000	0.0038439	9.2491e-07	0.00384297	1.0485	286.135	0.0688493	286.067
0.00796479	28.5104	8.80122	29.8379	-17.1556	20329.4	1.0488	20.0045	2.2704e+06	197538	1	11	0.00502423	0.000168384	0	108.246	0.000137884	6.08167e-07	-21.667	0.00361179	0.0033566	0.00133352	-17.1561	29.8415	28.5137	8.80255	0.0320232	0.00988564	0.0335144	17.1556	1.97538e+08	6.39898e+08	6.69695e+08	-72.8444	0.0000000E+000	0.0000000E+000	0.0000000E+000	72.8444	0.0000000E+000	0.0000000E+000	0.0000000E+000	-72.8444	0.0000000E+000	0.0000000E+000	0.0000000E+000	-17.1556	0.0000000E+000	0.0000000E+000	0.0000000E+000	17.1556	3.23937	72.8444	108.089	0.0209807	2.7583e-06	0.0209779	1.04866	52.4282	0.00689266	52.4213
0.0019912	3.69335	-37.3823	37.5643	84.3575	20329.4	1.0488	20.0045	-2.13816e+06	-2.11749e+06	1	11	0.00503585	0.000134059	0	108.246	0.000137884	8.86128e-07	73.2667	0.00660997	0.00190312	-0.00633008	84.3556	37.5708	3.69525	-37.3887	0.00261739	-0.026492	0.026621	-84.3575	-2.11749e+09	2.09206e+08	2.1278e+09	-174.358	0.0000000E+000	0.0000000E+000	0.0000000E+000	174.358	0.0000000E+000	0.0000000E+000	0.0000000E+000	-174.358	0.0000000E+000	0.0000000E+000	0.0000000E+000	84.3575	0.0000000E+000	0.0000000E+000	0.0000000E+000	-84.3575	0.0987993	5.64247	0.000000000000000E+000	0.0209807	2.7583e-06	0.0209779	1.04866	52.4282	0.00689266	52.4213
0.000497799	9.46211	-3.00363	9.9274	17.6114	20329.4	1.0488	20.0045	-1.06444e+08	-9.7441e+06	1	11	0.0050368	0.000507364	0	108.246	0.000137884	5.28041e-07	14.5622	0.00104076	0.00100732	-0.000261677	17.6111	9.92844	9.46311	-3.00389	0.0960101	-0.0304772	0.100731	-17.6114	-9.74409e+09	3.06961e+10	3.22055e+10	-107.611	0.0000000E+000	0.0000000E+000	0.0000000E+000	107.611	0.0000000E+000	0.0000000E+000	0.0000000E+000	-107.611	0.0000000E+000	0.0000000E+000	0.0000000E+000	17.6114	0.0000000E+000	0.0000000E+000	0.0000000E+000	-17.6114	3.15022	72.3886	0.000000000000000E+000	0.0209807	2.7583e-06	0.0209779	1.04866	52.4282	0.00689266	52.4213
9.95598e-05	9.52295	-1.96203	9.72297	11.6419	20329.4	1.0488	20.0045	-8.14761e+08	-3.31775e+07	1	11	0.00503827	0.000518182	0	108.246	0.000137884	1.57193e-06	14.7169	0.00303354	0.00293402	-0.000770648	11.6428	9.726	9.52588	-1.9628	0.100733	-0.0207543	0.102849	-11.6419	-3.31775e+10	1.61031e+11	1.64413e+11	-101.642	0.0000000E+000	0.0000000E+000	0.0000000E+000	101.642	0.0000000E+000	0.0000000E+000	0.0000000E+000	-101.642	0.0000000E+000	0.0000000E+000	0.0000000E+000	11.6419	0.0000000E+000	0.0000000E+000	0.0000000E+000	-11.6419	4.85362	78.3581	0.000000000000000E+000	0.0209807	2.7583e-06	0.0209779	1.04866	52.4282	0.00689266	52.4213