File: txt/18807_R307_UC93_28_SOC50_C04.mpt
EC-Lab ASCII FILE
Nb header lines : 65

Potentio Electrochemical Impedance Spectroscopy

Run on channel : 4 (SN 66756)
Grouped channel(s) : 1, 2, 3, 4, 5
User :
CE vs. WE compliance from -10 V to 10 V
Electrode connection : standard
Potential control : Ewe
Ewe ctrl range : min = -10.00 V, max = 10.00 V
Safety Limits :
	Do not start on E overload
Acquisition started on : 11/05/2025 08:59:28.513
Loaded Setting File :  C:\Users\Celltest\OneDrive - store-dot.com\Documents\EC-Lab\Data\@Biologic Test Protocols\cathode half cell EIS SOC50.mps
Saved on :
	File : 18804_R307_UC93_28_SOC00_C04.mpr
	Directory : C:\Users\Celltest\OneDrive - store-dot.com\Documents\EC-Lab\Data\Anna\
	Host : 169.254.61.224
Device : VMP-3e (SN .003165)
Address : USB
EC-LAB for windows v11.62 (software)
Internet server v27.00 (firmware)
Command interpretor v12.03 (firmware)
Electrode material :
Initial state :
Electrolyte :
Comments :
Electrode surface area : 0.001 cm²
Characteristic mass : 0.001 g
Equivalent Weight : 0.000 g/eq.
Density : 0.000 g/cm3
Volume (V) : 0.001 cm³
Record Ece
Cycle Definition : Charge/Discharge alternance
Mode                Multi sine
E (V)               0.0000
vs.                 Eoc
tE (h:m:s)          0:00:0.0000
record              0
dI                  0.000
unit dI             mA
dt (s)              0.000
fi                  1.000
unit fi             MHz
ff                  0.100
unit ff             mHz
Nd                  10
Points              per decade
spacing             Logarithmic
Va (mV)             5.0
pw                  0.10
Na                  2
corr                0
E range min (V)     -10.000
E range max (V)     10.000
I Range             Auto
Bandwidth           5
nc cycles           0
goto Ns'            0
nr cycles           0
inc. cycle          0

freq/Hz	Re(Z)/Ohm	-Im(Z)/Ohm	|Z|/Ohm	Phase(Z)/deg	time/s	<Ewe>/V	<I>/mA	Cs/µF	Cp/µF	cycle number	I Range	|Ewe|/V	|I|/A	Ns	(Q-Qo)/mA.h	<Ece>/V	|Ece|/V	Phase(Zce)/deg	|Zce|/Ohm	Re(Zce)/Ohm	-Im(Zce)/Ohm	Phase(Zwe-ce)/deg	|Zwe-ce|/Ohm	Re(Zwe-ce)/Ohm	-Im(Zwe-ce)/Ohm	Re(Y)/Ohm-1	Im(Y)/Ohm-1	|Y|/Ohm-1	Phase(Y)/deg	Re(C)/nF	Im(C)/nF	|C|/nF	Phase(C)/deg	Re(M)	Im(M)	|M|	Phase(M)/deg	Re(Permittivity)	Im(Permittivity)	|Permittivity|	Phase(Permittivity)/deg	Re(Resistivity)/Ohm.cm	Im(Resistivity)/Ohm.cm	|Resistivity|/Ohm.cm	Phase(Resistivity)/deg	Re(Conductivity)/mS/cm	Im(Conductivity)/mS/cm	|Conductivity|/mS/cm	Phase(Conductivity)/deg	Tan(Delta)	Loss Angle(Delta)/deg	dq/mA.h	Pwe/W	Pce/W	Pwe-ce/W	<Ewe-Ece>/V	Rwe/Ohm	Rce/Ohm	Rwe-ce/Ohm		Ewe-Ece/V
1.00002e+06	3.45139	2.15691	4.06993	-32.0029	1.77452	3.97063	0.0328867	0.0737871	0.0207238	1	10	0.000239597	5.887e-05	0	6.01647e-06	-0.000300622	0.000186166	-65.772	3.16232	1.29772	2.88379	-46.7061	6.9255	4.7491	5.04069	0.208363	0.130214	0.245705	32.0029	20.7238	33.1613	39.1044	-57.9971	0.0000000E+000	0.0000000E+000	0.0000000E+000	57.9971	0.0000000E+000	0.0000000E+000	0.0000000E+000	-57.9971	0.0000000E+000	0.0000000E+000	0.0000000E+000	-32.0029	0.0000000E+000	0.0000000E+000	0.0000000E+000	32.0029	1.60015	57.9971	6.01647e-06	0.000130581	-9.88647e-09	0.000130591	3.97093	120737	9.14115	120746
251206	1.84216	0.396477	1.88434	-12.1462	4.48153	3.96924	-0.0286296	1.59798	0.0707439	1	9	0.00434384	0.00230523	0	-9.61519e-06	-5.21927e-05	5.75474e-05	76.1993	0.0249638	0.00595499	-0.0242432	-11.3878	1.88523	1.84811	0.372234	0.518809	0.11166	0.530689	12.1462	70.7439	328.698	336.225	-77.8538	0.0000000E+000	0.0000000E+000	0.0000000E+000	77.8538	0.0000000E+000	0.0000000E+000	0.0000000E+000	-77.8538	0.0000000E+000	0.0000000E+000	0.0000000E+000	-12.1462	0.0000000E+000	0.0000000E+000	0.0000000E+000	12.1462	4.64632	77.8538	-2.07239e-06	-0.000113638	1.49426e-09	-0.000113639	3.9693	138641	1.82303	138643
63093.8	2.42471	1.03209	2.63523	-23.0573	6.78052	3.96915	-0.0232215	2.44407	0.374899	1	9	0.0052528	0.0019933	0	-2.06636e-05	-0.000338842	1.62009e-05	32.133	0.00812769	0.00688265	-0.00432301	-22.9125	2.63988	2.4316	1.02777	0.349158	0.148621	0.379473	23.0573	374.899	880.756	957.226	-66.9427	0.0000000E+000	0.0000000E+000	0.0000000E+000	66.9427	0.0000000E+000	0.0000000E+000	0.0000000E+000	-66.9427	0.0000000E+000	0.0000000E+000	0.0000000E+000	-23.0573	0.0000000E+000	0.0000000E+000	0.0000000E+000	23.0573	2.34932	66.9427	-3.59284e-06	-9.21697e-05	7.86843e-09	-9.21776e-05	3.96949	170925	14.5917	170940
15847.7	3.56538	1.80093	3.9944	-26.7991	9.08255	3.96914	-0.0239675	5.57644	1.13357	1	9	0.00518267	0.00129748	0	-3.8951e-05	-0.000587272	9.61424e-06	-60.611	0.00740991	0.00363632	0.00645631	-26.8582	4.00056	3.56901	1.80739	0.223461	0.112874	0.25035	26.7991	1133.57	2244.17	2514.21	-63.2009	0.0000000E+000	0.0000000E+000	0.0000000E+000	63.2009	0.0000000E+000	0.0000000E+000	0.0000000E+000	-63.2009	0.0000000E+000	0.0000000E+000	0.0000000E+000	-26.7991	0.0000000E+000	0.0000000E+000	0.0000000E+000	26.7991	1.97974	63.2009	-2.58122e-06	-9.51305e-05	1.40754e-08	-9.51445e-05	3.96973	165605	24.5028	165630
3983.6	5.31756	2.91685	6.06502	-28.7461	11.3321	3.96911	-0.0111816	13.6972	3.16806	1	10	0.00520692	0.000858516	0	-4.99589e-05	-0.000281512	6.47235e-06	5.56175	0.007539	0.00750351	-0.000730668	-28.706	6.07125	5.32507	2.91612	0.14456	0.0792956	0.16488	28.7461	3168.06	5775.54	6587.37	-61.2539	0.0000000E+000	0.0000000E+000	0.0000000E+000	61.2539	0.0000000E+000	0.0000000E+000	0.0000000E+000	-61.2539	0.0000000E+000	0.0000000E+000	0.0000000E+000	-28.7461	0.0000000E+000	0.0000000E+000	0.0000000E+000	28.7461	1.82305	61.2539	-1.06486e-06	-4.43809e-05	3.14775e-09	-4.43841e-05	3.96939	354969	25.1764	354994
1000.32	8.33379	5.12773	9.78497	-31.6037	13.9618	3.96908	-0.0127483	31.0282	8.52094	1	10	0.00486181	0.000496865	0	-6.00551e-05	4.3357e-05	8.95615e-06	-33.4431	0.0180253	0.0150409	0.00993392	-31.6071	9.80299	8.34883	5.13766	0.0870409	0.0535558	0.102198	31.6037	8520.94	13848.6	16260	-58.3963	0.0000000E+000	0.0000000E+000	0.0000000E+000	58.3963	0.0000000E+000	0.0000000E+000	0.0000000E+000	-58.3963	0.0000000E+000	0.0000000E+000	0.0000000E+000	-31.6037	0.0000000E+000	0.0000000E+000	0.0000000E+000	31.6037	1.62524	58.3963	-1.01893e-06	-5.05989e-05	-5.52727e-10	-5.05983e-05	3.96904	311343	3.40101	311339
251.044	14.7435	7.85867	16.7071	-28.0588	16.663	3.96909	-0.0140165	80.6716	17.849	1	10	0.00475431	0.000284568	0	-7.01295e-05	-0.000338842	8.17395e-06	-54.6952	0.0287241	0.0166004	0.0234414	-28.1029	16.7328	14.7601	7.88211	0.0528196	0.0281543	0.0598547	28.0588	17849	33486.1	37946.1	-61.9412	0.0000000E+000	0.0000000E+000	0.0000000E+000	61.9412	0.0000000E+000	0.0000000E+000	0.0000000E+000	-61.9412	0.0000000E+000	0.0000000E+000	0.0000000E+000	-28.0588	0.0000000E+000	0.0000000E+000	0.0000000E+000	28.0588	1.87608	61.9412	-1.3998e-06	-5.56328e-05	4.74939e-09	-5.56376e-05	3.96943	283172	24.1745	283196
63.0823	23.3409	6.0816	24.1202	-14.604	19.632	3.96912	-0.00790351	414.853	26.3736	1	11	0.00475206	0.000197016	0	-7.85108e-05	-0.000205072	6.30164e-06	6.08489	0.0319855	0.0318053	-0.00339052	-14.5772	24.1501	23.3727	6.07821	0.0401196	0.0104534	0.041459	14.604	26373.6	101221	104600	-75.396	0.0000000E+000	0.0000000E+000	0.0000000E+000	75.396	0.0000000E+000	0.0000000E+000	0.0000000E+000	-75.396	0.0000000E+000	0.0000000E+000	0.0000000E+000	-14.604	0.0000000E+000	0.0000000E+000	0.0000000E+000	14.604	3.83795	75.396	-6.55202e-07	-3.137e-05	1.62079e-09	-3.13716e-05	3.96932	502197	25.947	502223
15.8576	26.4796	2.62331	26.6092	-5.65779	22.2891	3.96913	-0.00504946	3825.9	37.1852	1	11	0.00474686	0.000178392	0	-8.35727e-05	-0.000357952	7.69453e-06	76.3195	0.0431328	0.0102012	-0.0419091	-5.56584	26.6152	26.4898	2.5814	0.0373979	0.00370498	0.037581	5.65779	37185.2	375345	377183	-84.3422	0.0000000E+000	0.0000000E+000	0.0000000E+000	84.3422	0.0000000E+000	0.0000000E+000	0.0000000E+000	-84.3422	0.0000000E+000	0.0000000E+000	0.0000000E+000	-5.65779	0.0000000E+000	0.0000000E+000	0.0000000E+000	5.65779	10.094	84.3422	-1.14854e-06	-2.0042e-05	1.80747e-09	-2.00438e-05	3.96949	786050	70.8891	786121
3.97785	27.2743	1.24145	27.3026	-2.60615	25.2004	3.96913	-0.00399645	32228.6	66.6338	1	11	0.00474756	0.000173887	0	-8.8773e-05	-0.000166852	7.74127e-06	-0.096029	0.044519	0.0445189	7.46148e-05	-2.60206	27.347	27.3188	1.24153	0.0365887	0.00166542	0.0366266	2.60615	66633.9	1.46393e+06	1.46544e+06	-87.3939	0.0000000E+000	0.0000000E+000	0.0000000E+000	87.3939	0.0000000E+000	0.0000000E+000	0.0000000E+000	-87.3939	0.0000000E+000	0.0000000E+000	0.0000000E+000	-2.60615	0.0000000E+000	0.0000000E+000	0.0000000E+000	2.60615	21.9697	87.3939	-2.36499e-06	-1.58624e-05	6.66817e-10	-1.58631e-05	3.9693	993165	41.7502	993206
1.00469	28.846	1.41184	28.8806	-2.80205	240.923	3.96909	-0.00527728	112202	268.14	1	11	0.00506259	0.000175294	0	-0.00108195	-0.000243292	6.28817e-07	24.3718	0.00358722	0.00326755	-0.00148029	-2.7988	28.8838	28.8493	1.41036	0.0345839	0.00169268	0.0346253	2.80205	268139	5.47849e+06	5.48505e+06	-87.198	0.0000000E+000	0.0000000E+000	0.0000000E+000	87.198	0.0000000E+000	0.0000000E+000	0.0000000E+000	-87.198	0.0000000E+000	0.0000000E+000	0.0000000E+000	-2.80205	0.0000000E+000	0.0000000E+000	0.0000000E+000	2.80205	20.4315	87.198	-0.000988071	-2.0946e-05	1.28392e-09	-2.09473e-05	3.96934	752110	46.1018	752156
0.251173	30.0227	2.19197	30.1026	-4.17578	240.925	3.96909	-0.00527728	289076	1532.75	1	11	0.00509087	0.000169117	0	-0.00108195	-0.000243292	4.40669e-07	-4.56688	0.0026057	0.00259743	0.000207473	-4.17581	30.1053	30.0253	2.19218	0.0331315	0.00241894	0.0332197	4.17578	1.53275e+06	2.09936e+07	2.10495e+07	-85.8242	0.0000000E+000	0.0000000E+000	0.0000000E+000	85.8242	0.0000000E+000	0.0000000E+000	0.0000000E+000	-85.8242	0.0000000E+000	0.0000000E+000	0.0000000E+000	-4.17578	0.0000000E+000	0.0000000E+000	0.0000000E+000	4.17578	13.6967	85.8242	0.000000000000000E+000	-2.0946e-05	1.28392e-09	-2.09473e-05	3.96934	752110	46.1018	752156
0.0602816	31.9844	4.15872	32.2537	-7.40823	240.928	3.96909	-0.00527728	634856	10554.5	1	11	0.00508294	0.000157592	0	-0.00108195	-0.000243292	5.99004e-07	11.8094	0.00380097	0.00372052	-0.000777891	-7.406	32.2573	31.9882	4.15795	0.0307454	0.00399762	0.0310042	7.40823	1.05545e+07	8.11738e+07	8.1857e+07	-82.5918	0.0000000E+000	0.0000000E+000	0.0000000E+000	82.5918	0.0000000E+000	0.0000000E+000	0.0000000E+000	-82.5918	0.0000000E+000	0.0000000E+000	0.0000000E+000	-7.40823	0.0000000E+000	0.0000000E+000	0.0000000E+000	7.40823	7.69093	82.5918	0.000000000000000E+000	-2.0946e-05	1.28392e-09	-2.09473e-05	3.96934	752110	46.1018	752156
0.00796479	40.8948	9.1494	41.9058	-12.6111	20329.8	3.9691	-0.00100774	2.184e+06	104110	1	11	0.00507567	0.000121121	0	-0.0152384	-0.000300622	4.70271e-07	-17.4128	0.00388265	0.00370472	0.0011619	-12.6116	41.9096	40.8985	9.15056	0.0232873	0.00521008	0.0238631	12.6111	1.0411e+08	4.65335e+08	4.76839e+08	-77.3889	0.0000000E+000	0.0000000E+000	0.0000000E+000	77.3889	0.0000000E+000	0.0000000E+000	0.0000000E+000	-77.3889	0.0000000E+000	0.0000000E+000	0.0000000E+000	-12.6111	0.0000000E+000	0.0000000E+000	0.0000000E+000	12.6111	4.46967	77.3889	-0.0141565	-3.99983e-06	3.0295e-10	-4.00013e-06	3.9694	3.9386e+06	298.312	3.9389e+06
0.0019912	50.7405	14.1274	52.6706	-15.5585	20329.8	3.9691	-0.00100774	5.65774e+06	407036	1	11	0.00508857	9.66112e-05	0	-0.0152384	-0.000300622	7.16388e-07	-18.3781	0.00741517	0.00703697	0.0023379	-15.5589	52.678	50.7476	14.1298	0.0182902	0.00509245	0.0189859	15.5585	4.07036e+08	1.46193e+09	1.51753e+09	-74.4415	0.0000000E+000	0.0000000E+000	0.0000000E+000	74.4415	0.0000000E+000	0.0000000E+000	0.0000000E+000	-74.4415	0.0000000E+000	0.0000000E+000	0.0000000E+000	-15.5585	0.0000000E+000	0.0000000E+000	0.0000000E+000	15.5585	3.59164	74.4415	0.000000000000000E+000	-3.99983e-06	3.0295e-10	-4.00013e-06	3.9694	3.9386e+06	298.312	3.9389e+06
0.000497799	58.8312	19.4704	61.9694	-18.3121	20329.8	3.9691	-0.00100774	1.64207e+07	1.62101e+06	1	11	0.00509103	8.21539e-05	0	-0.0152384	-0.000300622	5.16223e-07	-8.55673	0.00628361	0.00621367	0.000934929	-18.3111	61.9756	58.8375	19.4713	0.0153198	0.00507013	0.016137	18.3121	1.62101e+09	4.898e+09	5.15927e+09	-71.6879	0.0000000E+000	0.0000000E+000	0.0000000E+000	71.6879	0.0000000E+000	0.0000000E+000	0.0000000E+000	-71.6879	0.0000000E+000	0.0000000E+000	0.0000000E+000	-18.3121	0.0000000E+000	0.0000000E+000	0.0000000E+000	18.3121	3.02158	71.6879	0.000000000000000E+000	-3.99983e-06	3.0295e-10	-4.00013e-06	3.9694	3.9386e+06	298.312	3.9389e+06
9.95598e-05	69.6719	79.8871	106.001	-48.9074	20329.8	3.9691	-0.00100774	2.00106e+07	1.13657e+07	1	11	0.00508726	4.79928e-05	0	-0.0152384	-0.000300622	1.72243e-06	-98.5028	0.0358894	-0.00530652	0.035495	-48.9222	106.024	69.6666	79.9226	0.0062007	0.00710985	0.00943391	48.9074	1.13657e+10	9.91236e+09	1.50809e+10	-41.0926	0.0000000E+000	0.0000000E+000	0.0000000E+000	41.0926	0.0000000E+000	0.0000000E+000	0.0000000E+000	-41.0926	0.0000000E+000	0.0000000E+000	0.0000000E+000	-48.9074	0.0000000E+000	0.0000000E+000	0.0000000E+000	48.9074	0.872129	41.0926	0.000000000000000E+000	-3.99983e-06	3.0295e-10	-4.00013e-06	3.9694	3.9386e+06	298.312	3.9389e+06