File: txt/18806_R307_UC93_28_SOC50_C03.mpt
EC-Lab ASCII FILE
Nb header lines : 65

Potentio Electrochemical Impedance Spectroscopy

Run on channel : 3 (SN 65921)
Grouped channel(s) : 1, 2, 3, 4, 5
User :
CE vs. WE compliance from -10 V to 10 V
Electrode connection : standard
Potential control : Ewe
Ewe ctrl range : min = -10.00 V, max = 10.00 V
Safety Limits :
	Do not start on E overload
Acquisition started on : 11/05/2025 08:59:28.513
Loaded Setting File :  C:\Users\Celltest\OneDrive - store-dot.com\Documents\EC-Lab\Data\@Biologic Test Protocols\cathode half cell EIS SOC50.mps
Saved on :
	File : 18804_R307_UC93_28_SOC00_C03.mpr
	Directory : C:\Users\Celltest\OneDrive - store-dot.com\Documents\EC-Lab\Data\Anna\
	Host : 169.254.61.224
Device : VMP-3e (SN .003165)
Address : USB
EC-LAB for windows v11.62 (software)
Internet server v27.00 (firmware)
Command interpretor v12.03 (firmware)
Electrode material :
Initial state :
Electrolyte :
Comments :
Electrode surface area : 0.001 cm²
Characteristic mass : 0.001 g
Equivalent Weight : 0.000 g/eq.
Density : 0.000 g/cm3
Volume (V) : 0.001 cm³
Record Ece
Cycle Definition : Charge/Discharge alternance
Mode                Multi sine
E (V)               0.0000
vs.                 Eoc
tE (h:m:s)          0:00:0.0000
record              0
dI                  0.000
unit dI             mA
dt (s)              0.000
fi                  1.000
unit fi             MHz
ff                  0.100
unit ff             mHz
Nd                  10
Points              per decade
spacing             Logarithmic
Va (mV)             5.0
pw                  0.10
Na                  2
corr                0
E range min (V)     -10.000
E range max (V)     10.000
I Range             Auto
Bandwidth           5
nc cycles           0
goto Ns'            0
nr cycles           0
inc. cycle          0

freq/Hz	Re(Z)/Ohm	-Im(Z)/Ohm	|Z|/Ohm	Phase(Z)/deg	time/s	<Ewe>/V	<I>/mA	Cs/µF	Cp/µF	cycle number	I Range	|Ewe|/V	|I|/A	Ns	(Q-Qo)/mA.h	<Ece>/V	|Ece|/V	Phase(Zce)/deg	|Zce|/Ohm	Re(Zce)/Ohm	-Im(Zce)/Ohm	Phase(Zwe-ce)/deg	|Zwe-ce|/Ohm	Re(Zwe-ce)/Ohm	-Im(Zwe-ce)/Ohm	Re(Y)/Ohm-1	Im(Y)/Ohm-1	|Y|/Ohm-1	Phase(Y)/deg	Re(C)/nF	Im(C)/nF	|C|/nF	Phase(C)/deg	Re(M)	Im(M)	|M|	Phase(M)/deg	Re(Permittivity)	Im(Permittivity)	|Permittivity|	Phase(Permittivity)/deg	Re(Resistivity)/Ohm.cm	Im(Resistivity)/Ohm.cm	|Resistivity|/Ohm.cm	Phase(Resistivity)/deg	Re(Conductivity)/mS/cm	Im(Conductivity)/mS/cm	|Conductivity|/mS/cm	Phase(Conductivity)/deg	Tan(Delta)	Loss Angle(Delta)/deg	dq/mA.h	Pwe/W	Pce/W	Pwe-ce/W	<Ewe-Ece>/V	Rwe/Ohm	Rce/Ohm	Rwe-ce/Ohm		Ewe-Ece/V
1.00002e+06	4.06396	2.16631	4.60529	-28.0601	2.69352	3.97081	0.0134942	0.0734668	0.0162562	1	10	0.000253331	5.50087e-05	0	5.2933e-06	0.000123601	0.000189897	-66.2483	3.45213	1.39043	3.15974	-44.318	7.62346	5.45438	5.32605	0.191618	0.102143	0.217142	28.0601	16.2562	30.4964	34.5585	-61.9399	0.0000000E+000	0.0000000E+000	0.0000000E+000	61.9399	0.0000000E+000	0.0000000E+000	0.0000000E+000	-61.9399	0.0000000E+000	0.0000000E+000	0.0000000E+000	-28.0601	0.0000000E+000	0.0000000E+000	0.0000000E+000	28.0601	1.87598	61.9399	5.2933e-06	5.35828e-05	1.66789e-09	5.35811e-05	3.97069	294261	9.15955	294252
251206	2.02925	0.384343	2.06533	-10.7248	5.39452	3.9704	0.0378092	1.64843	0.057086	1	9	0.00395373	0.00191433	0	2.84334e-05	-1.00578e-05	5.98221e-05	86.7741	0.0312496	0.00175851	-0.0312001	-9.86371	2.06149	2.03101	0.353143	0.475726	0.0901031	0.484184	10.7248	57.086	301.402	306.761	-79.2752	0.0000000E+000	0.0000000E+000	0.0000000E+000	79.2752	0.0000000E+000	0.0000000E+000	0.0000000E+000	-79.2752	0.0000000E+000	0.0000000E+000	0.0000000E+000	-10.7248	0.0000000E+000	0.0000000E+000	0.0000000E+000	10.7248	5.2798	79.2752	1.0499e-06	0.000150118	-3.80279e-10	0.000150118	3.97041	105011	0.266015	105012
63093.8	2.63777	1.12556	2.86788	-23.1084	7.69255	3.97034	0.0422472	2.24112	0.345208	1	9	0.00528112	0.00184147	0	4.95467e-05	-0.000430127	1.84234e-05	26.9324	0.0100047	0.00891959	-0.00453151	-22.9555	2.87431	2.64669	1.12103	0.320713	0.136851	0.34869	23.1084	345.208	809.001	879.575	-66.8916	0.0000000E+000	0.0000000E+000	0.0000000E+000	66.8916	0.0000000E+000	0.0000000E+000	0.0000000E+000	-66.8916	0.0000000E+000	0.0000000E+000	0.0000000E+000	-23.1084	0.0000000E+000	0.0000000E+000	0.0000000E+000	23.1084	2.34352	66.8916	-2.52726e-07	0.000167736	-1.81717e-08	0.000167754	3.97077	93978.8	10.1812	93989
15847.7	3.88591	1.88131	4.31736	-25.8333	9.99656	3.97033	0.042098	5.33818	1.01363	1	9	0.00524642	0.00121519	0	7.45756e-05	-2.91519e-05	1.03006e-05	-65.5876	0.00847657	0.00350338	0.00771871	-25.9052	4.32388	3.88941	1.88903	0.208476	0.100931	0.231623	25.8333	1013.63	2093.68	2326.14	-64.1667	0.0000000E+000	0.0000000E+000	0.0000000E+000	64.1667	0.0000000E+000	0.0000000E+000	0.0000000E+000	-64.1667	0.0000000E+000	0.0000000E+000	0.0000000E+000	-25.8333	0.0000000E+000	0.0000000E+000	0.0000000E+000	25.8333	2.06553	64.1667	4.43692e-06	0.000167143	-1.22724e-09	0.000167144	3.97036	94311.6	0.692477	94312.3
3983.6	5.64843	2.90068	6.3497	-27.1822	12.4941	3.97033	0.00132686	13.7735	2.87434	1	10	0.00516501	0.000813426	0	7.43378e-05	-0.000124622	7.73152e-06	-62.1376	0.00950489	0.00444211	0.00840301	-27.2313	6.35749	5.65287	2.90908	0.140095	0.0719438	0.157488	27.1822	2874.34	5597.14	6292.04	-62.8178	0.0000000E+000	0.0000000E+000	0.0000000E+000	62.8178	0.0000000E+000	0.0000000E+000	0.0000000E+000	-62.8178	0.0000000E+000	0.0000000E+000	0.0000000E+000	-27.1822	0.0000000E+000	0.0000000E+000	0.0000000E+000	27.1822	1.94728	62.8178	-3.29032e-07	5.26807e-06	-1.65356e-10	5.26823e-06	3.97046	2.99228e+06	93.9228	2.99237e+06
1000.32	8.60041	5.08498	9.9912	-30.5937	15.1228	3.9703	0.00165126	31.289	8.10467	1	10	0.00487024	0.000487453	0	7.46211e-05	-8.64341e-05	1.19952e-05	-56.9439	0.024608	0.0134227	0.0206249	-30.6562	10.0133	8.61383	5.10561	0.0861557	0.0509395	0.100088	30.5937	8104.67	13707.7	15924.4	-59.4063	0.0000000E+000	0.0000000E+000	0.0000000E+000	59.4063	0.0000000E+000	0.0000000E+000	0.0000000E+000	-59.4063	0.0000000E+000	0.0000000E+000	0.0000000E+000	-30.5937	0.0000000E+000	0.0000000E+000	0.0000000E+000	30.5937	1.69133	59.4063	5.65692e-07	6.556e-06	-1.42725e-10	6.55614e-06	3.97039	2.40441e+06	52.3443	2.40446e+06
251.044	15.0417	7.88337	16.9824	-27.659	17.824	3.97029	0.00187126	80.4189	17.3294	1	10	0.00474246	0.000279257	0	7.54012e-05	-0.000258281	4.28446e-06	24.3575	0.0153423	0.0139767	-0.00632762	-27.6182	16.9918	15.0557	7.87704	0.0521556	0.0273347	0.0588845	27.659	17329.4	33065.1	37331.1	-62.341	0.0000000E+000	0.0000000E+000	0.0000000E+000	62.341	0.0000000E+000	0.0000000E+000	0.0000000E+000	-62.341	0.0000000E+000	0.0000000E+000	0.0000000E+000	-27.659	0.0000000E+000	0.0000000E+000	0.0000000E+000	27.659	1.90804	62.341	3.15485e-07	7.42944e-06	-4.8331e-10	7.42993e-06	3.97055	2.12172e+06	138.025	2.12186e+06
63.0823	23.3534	6.03449	24.1204	-14.4883	20.7899	3.97032	0.000230395	418.092	26.1688	1	11	0.00473246	0.000196202	0	7.63834e-05	-2.91519e-05	1.06638e-05	42.022	0.0543514	0.040377	-0.0363837	-14.3807	24.1504	23.3937	5.99811	0.0401402	0.0103722	0.0414587	14.4883	26168.8	101273	104599	-75.5117	0.0000000E+000	0.0000000E+000	0.0000000E+000	75.5117	0.0000000E+000	0.0000000E+000	0.0000000E+000	-75.5117	0.0000000E+000	0.0000000E+000	0.0000000E+000	-14.4883	0.0000000E+000	0.0000000E+000	0.0000000E+000	14.4883	3.86998	75.5117	1.05164e-07	9.1474e-07	-6.71644e-12	9.14747e-07	3.97035	1.72327e+07	126.53	1.72328e+07
15.8576	26.466	2.68423	26.6018	-5.79124	23.448	3.97031	-0.000246548	3739.07	38.0699	1	11	0.0047118	0.000177124	0	7.49167e-05	8.54125e-05	1.15566e-05	-1.0575	0.065246	0.0652349	0.00120417	-5.77967	26.6668	26.5312	2.68543	0.0373996	0.00379314	0.0375915	5.79124	38069.9	375362	377288	-84.2088	0.0000000E+000	0.0000000E+000	0.0000000E+000	84.2088	0.0000000E+000	0.0000000E+000	0.0000000E+000	-84.2088	0.0000000E+000	0.0000000E+000	0.0000000E+000	-5.79124	0.0000000E+000	0.0000000E+000	0.0000000E+000	5.79124	9.85982	84.2088	-8.02894e-07	-9.78871e-07	-2.10583e-11	-9.7885e-07	3.97022	1.61036e+07	346.434	1.61033e+07
3.97785	27.6069	1.49423	27.6473	-3.09813	26.3613	3.97033	0.00106756	26776.5	78.2138	1	11	0.00472181	0.000170787	0	7.5825e-05	6.63184e-05	8.91468e-06	-5.80331	0.0521976	0.0519301	0.0052779	-3.10322	27.6995	27.6588	1.49951	0.036117	0.00195484	0.0361699	3.09813	78213.8	1.44505e+06	1.44717e+06	-86.9019	0.0000000E+000	0.0000000E+000	0.0000000E+000	86.9019	0.0000000E+000	0.0000000E+000	0.0000000E+000	-86.9019	0.0000000E+000	0.0000000E+000	0.0000000E+000	-3.09813	0.0000000E+000	0.0000000E+000	0.0000000E+000	3.09813	18.4757	86.9019	-8.35128e-07	4.23856e-06	7.07988e-11	4.23849e-06	3.97026	3.71907e+06	62.1216	3.71901e+06
1.00469	29.1376	1.52257	29.1774	-2.99123	242.084	3.9703	-0.00110029	104042	283.315	1	11	0.00503853	0.000172686	0	-0.000611168	8.54125e-05	4.48751e-07	6.39003	0.00259865	0.0025825	-0.000289219	-2.9904	29.1799	29.1402	1.52228	0.0342264	0.00178848	0.0342731	2.99123	283315	5.42186e+06	5.42925e+06	-87.0088	0.0000000E+000	0.0000000E+000	0.0000000E+000	87.0088	0.0000000E+000	0.0000000E+000	0.0000000E+000	-87.0088	0.0000000E+000	0.0000000E+000	0.0000000E+000	-2.99123	0.0000000E+000	0.0000000E+000	0.0000000E+000	2.99123	19.1372	87.0088	-0.000693389	-4.36847e-06	-9.39783e-11	-4.36837e-06	3.97021	3.60842e+06	77.6274	3.60834e+06
0.251173	30.4168	2.31352	30.5047	-4.34957	242.087	3.9703	-0.00110029	273888	1575.38	1	11	0.00506446	0.000166022	0	-0.000611168	8.54125e-05	2.41534e-07	24.9906	0.00145483	0.00131862	-0.000614622	-4.34823	30.5059	30.4181	2.3129	0.0326874	0.00248622	0.0327819	4.34957	1.57538e+06	2.07123e+07	2.07721e+07	-85.6504	0.0000000E+000	0.0000000E+000	0.0000000E+000	85.6504	0.0000000E+000	0.0000000E+000	0.0000000E+000	-85.6504	0.0000000E+000	0.0000000E+000	0.0000000E+000	-4.34957	0.0000000E+000	0.0000000E+000	0.0000000E+000	4.34957	13.1474	85.6504	0.000000000000000E+000	-4.36847e-06	-9.39783e-11	-4.36837e-06	3.97021	3.60842e+06	77.6274	3.60834e+06
0.0602816	32.4489	4.44664	32.7521	-7.80294	242.09	3.9703	-0.00110029	593749	10944.3	1	11	0.00505488	0.000154337	0	-0.000611168	8.54125e-05	5.5352e-07	48.9816	0.00358643	0.00235378	-0.00270595	-7.7977	32.7541	32.4512	4.44393	0.0302497	0.00414527	0.0305324	7.80294	1.09443e+07	7.98649e+07	8.06112e+07	-82.1971	0.0000000E+000	0.0000000E+000	0.0000000E+000	82.1971	0.0000000E+000	0.0000000E+000	0.0000000E+000	-82.1971	0.0000000E+000	0.0000000E+000	0.0000000E+000	-7.80294	0.0000000E+000	0.0000000E+000	0.0000000E+000	7.80294	7.29739	82.1971	0.000000000000000E+000	-4.36847e-06	-9.39783e-11	-4.36837e-06	3.97021	3.60842e+06	77.6274	3.60834e+06
0.00796479	42.5143	10.1154	43.7011	-13.3836	20330.9	3.97031	-0.000363407	1.97543e+06	105839	1	11	0.00505238	0.000115612	0	-0.00995222	-0.000315563	6.86027e-07	-161.386	0.00593386	-0.00562348	0.001894	-13.3877	43.6961	42.5086	10.1173	0.0222613	0.00529664	0.0228827	13.3836	1.05839e+08	4.44832e+08	4.5725e+08	-76.6164	0.0000000E+000	0.0000000E+000	0.0000000E+000	76.6164	0.0000000E+000	0.0000000E+000	0.0000000E+000	-76.6164	0.0000000E+000	0.0000000E+000	0.0000000E+000	-13.3836	0.0000000E+000	0.0000000E+000	0.0000000E+000	13.3836	4.20291	76.6164	-0.00934105	-1.44284e-06	1.14678e-10	-1.44295e-06	3.97062	1.09252e+07	868.345	1.09261e+07
0.0019912	53.357	15.6457	55.6035	-16.3425	20330.9	3.97031	-0.000363407	5.10872e+06	404478	1	11	0.00506675	9.11227e-05	0	-0.00995222	-0.000315563	2.18514e-07	-122.672	0.00239802	-0.00129451	0.0020186	-16.3449	55.6029	53.3557	15.6477	0.0172578	0.00506045	0.0179845	16.3425	4.04478e+08	1.37941e+09	1.43749e+09	-73.6575	0.0000000E+000	0.0000000E+000	0.0000000E+000	73.6575	0.0000000E+000	0.0000000E+000	0.0000000E+000	-73.6575	0.0000000E+000	0.0000000E+000	0.0000000E+000	-16.3425	0.0000000E+000	0.0000000E+000	0.0000000E+000	16.3425	3.41034	73.6575	0.000000000000000E+000	-1.44284e-06	1.14678e-10	-1.44295e-06	3.97062	1.09252e+07	868.345	1.09261e+07
0.000497799	63.3843	21.2326	66.846	-18.52	20330.9	3.97031	-0.000363407	1.50578e+07	1.51921e+06	1	11	0.00506492	7.577e-05	0	-0.00995222	-0.000315563	6.54344e-07	52.9151	0.00863592	0.00520744	-0.00688924	-18.5129	66.8488	63.3895	21.2258	0.014185	0.00475174	0.0149598	18.52	1.51921e+09	4.5352e+09	4.78289e+09	-71.48	0.0000000E+000	0.0000000E+000	0.0000000E+000	71.48	0.0000000E+000	0.0000000E+000	0.0000000E+000	-71.48	0.0000000E+000	0.0000000E+000	0.0000000E+000	-18.52	0.0000000E+000	0.0000000E+000	0.0000000E+000	18.52	2.98523	71.48	0.000000000000000E+000	-1.44284e-06	1.14678e-10	-1.44295e-06	3.97062	1.09252e+07	868.345	1.09261e+07
9.95598e-05	76.1385	80.0812	110.499	-46.4457	20330.9	3.97031	-0.000363407	1.99621e+07	1.04845e+07	1	11	0.00506998	4.58825e-05	0	-0.00995222	-0.000315563	1.12053e-06	46.9537	0.0244217	0.01667	-0.0178475	-46.4331	110.498	76.1552	80.0633	0.00623572	0.00655862	0.00904984	46.4457	1.04845e+10	9.96833e+09	1.44669e+10	-43.5543	0.0000000E+000	0.0000000E+000	0.0000000E+000	43.5543	0.0000000E+000	0.0000000E+000	0.0000000E+000	-43.5543	0.0000000E+000	0.0000000E+000	0.0000000E+000	-46.4457	0.0000000E+000	0.0000000E+000	0.0000000E+000	46.4457	0.950767	43.5543	0.000000000000000E+000	-1.44284e-06	1.14678e-10	-1.44295e-06	3.97062	1.09252e+07	868.345	1.09261e+07