File: txt/18804_R307_UC93_28_SOC50_C01.mpt
EC-Lab ASCII FILE
Nb header lines : 65

Potentio Electrochemical Impedance Spectroscopy

Run on channel : 1 (SN 66354)
Grouped channel(s) : 1, 2, 3, 4, 5
User :
CE vs. WE compliance from -10 V to 10 V
Electrode connection : standard
Potential control : Ewe
Ewe ctrl range : min = -10.00 V, max = 10.00 V
Safety Limits :
	Do not start on E overload
Acquisition started on : 11/05/2025 08:59:28.513
Loaded Setting File :  C:\Users\Celltest\OneDrive - store-dot.com\Documents\EC-Lab\Data\@Biologic Test Protocols\cathode half cell EIS SOC50.mps
Saved on :
	File : 18804_R307_UC93_28_SOC00_C01.mpr
	Directory : C:\Users\Celltest\OneDrive - store-dot.com\Documents\EC-Lab\Data\Anna\
	Host : 169.254.61.224
Device : VMP-3e (SN .003165)
Address : USB
EC-LAB for windows v11.62 (software)
Internet server v27.00 (firmware)
Command interpretor v12.03 (firmware)
Electrode material :
Initial state :
Electrolyte :
Comments :
Electrode surface area : 0.001 cm²
Characteristic mass : 0.001 g
Equivalent Weight : 0.000 g/eq.
Density : 0.000 g/cm3
Volume (V) : 0.001 cm³
Record Ece
Cycle Definition : Charge/Discharge alternance
Mode                Multi sine
E (V)               0.0000
vs.                 Eoc
tE (h:m:s)          0:00:0.0000
record              0
dI                  0.000
unit dI             mA
dt (s)              0.000
fi                  1.000
unit fi             MHz
ff                  0.100
unit ff             mHz
Nd                  10
Points              per decade
spacing             Logarithmic
Va (mV)             5.0
pw                  0.10
Na                  2
corr                0
E range min (V)     -10.000
E range max (V)     10.000
I Range             Auto
Bandwidth           5
nc cycles           0
goto Ns'            0
nr cycles           0
inc. cycle          0

freq/Hz	Re(Z)/Ohm	-Im(Z)/Ohm	|Z|/Ohm	Phase(Z)/deg	time/s	<Ewe>/V	<I>/mA	Cs/µF	Cp/µF	cycle number	I Range	|Ewe|/V	|I|/A	Ns	(Q-Qo)/mA.h	<Ece>/V	|Ece|/V	Phase(Zce)/deg	|Zce|/Ohm	Re(Zce)/Ohm	-Im(Zce)/Ohm	Phase(Zwe-ce)/deg	|Zwe-ce|/Ohm	Re(Zwe-ce)/Ohm	-Im(Zwe-ce)/Ohm	Re(Y)/Ohm-1	Im(Y)/Ohm-1	|Y|/Ohm-1	Phase(Y)/deg	Re(C)/nF	Im(C)/nF	|C|/nF	Phase(C)/deg	Re(M)	Im(M)	|M|	Phase(M)/deg	Re(Permittivity)	Im(Permittivity)	|Permittivity|	Phase(Permittivity)/deg	Re(Resistivity)/Ohm.cm	Im(Resistivity)/Ohm.cm	|Resistivity|/Ohm.cm	Phase(Resistivity)/deg	Re(Conductivity)/mS/cm	Im(Conductivity)/mS/cm	|Conductivity|/mS/cm	Phase(Conductivity)/deg	Tan(Delta)	Loss Angle(Delta)/deg	dq/mA.h	Pwe/W	Pce/W	Pwe-ce/W	<Ewe-Ece>/V	Rwe/Ohm	Rce/Ohm	Rwe-ce/Ohm		Ewe-Ece/V
1.00002e+06	3.57449	2.59915	4.41957	-36.0224	2.69253	3.97261	-0.00790157	0.0612322	0.021178	1	10	0.000290913	6.58239e-05	0	2.55484e-06	0.000462198	0.000190413	-71.1607	2.89277	0.934116	2.7378	-49.8092	6.98646	4.50861	5.33695	0.183001	0.133068	0.226266	36.0224	21.178	29.125	36.0107	-53.9776	0.0000000E+000	0.0000000E+000	0.0000000E+000	53.9776	0.0000000E+000	0.0000000E+000	0.0000000E+000	-53.9776	0.0000000E+000	0.0000000E+000	0.0000000E+000	-36.0224	0.0000000E+000	0.0000000E+000	0.0000000E+000	36.0224	1.37525	53.9776	2.55484e-06	-3.13899e-05	-3.65209e-09	-3.13863e-05	3.97215	502762	58.4945	502704
251206	2.64109	0.405428	2.67203	-8.72723	5.39954	3.97219	0.0202618	1.5627	0.0359767	1	9	0.00513248	0.00192082	0	4.85344e-06	-0.000148276	5.24066e-05	117.794	0.0272835	-0.0127222	-0.0241357	-8.25421	2.65588	2.62837	0.381292	0.369915	0.0567848	0.374248	8.72723	35.9767	234.364	237.11	-81.2728	0.0000000E+000	0.0000000E+000	0.0000000E+000	81.2728	0.0000000E+000	0.0000000E+000	0.0000000E+000	-81.2728	0.0000000E+000	0.0000000E+000	0.0000000E+000	-8.72723	0.0000000E+000	0.0000000E+000	0.0000000E+000	8.72723	6.51433	81.2728	-1.48336e-06	8.04836e-05	-3.00433e-09	8.04866e-05	3.97234	196044	7.318	196051
63093.8	3.25755	1.01916	3.41325	-17.3729	7.82152	3.97218	0.0192931	2.47509	0.220668	1	9	0.00543917	0.00159355	0	2.39352e-05	-1.47345e-05	2.19889e-05	89.1121	0.0137987	0.000213821	-0.0137971	-17.1505	3.40936	3.25776	1.00536	0.279611	0.0874793	0.292976	17.3729	220.668	705.322	739.035	-72.6271	0.0000000E+000	0.0000000E+000	0.0000000E+000	72.6271	0.0000000E+000	0.0000000E+000	0.0000000E+000	-72.6271	0.0000000E+000	0.0000000E+000	0.0000000E+000	-17.3729	0.0000000E+000	0.0000000E+000	0.0000000E+000	17.3729	3.19631	72.6271	2.42219e-06	7.66358e-05	-2.84275e-10	7.66361e-05	3.97219	205885	0.763717	205886
15847.7	4.44777	1.84287	4.81444	-22.506	10.2755	3.97228	-0.0106036	5.44953	0.798469	1	10	0.00491298	0.00102047	0	3.45473e-05	0.00023327	9.93374e-06	-69.1109	0.0097345	0.00347093	0.00909468	-22.5901	4.82114	4.45124	1.85197	0.191889	0.0795067	0.207708	22.506	798.469	1927.1	2085.97	-67.494	0.0000000E+000	0.0000000E+000	0.0000000E+000	67.494	0.0000000E+000	0.0000000E+000	0.0000000E+000	-67.494	0.0000000E+000	0.0000000E+000	0.0000000E+000	-22.506	0.0000000E+000	0.0000000E+000	0.0000000E+000	22.506	2.4135	67.494	-1.13677e-06	-4.21204e-05	-2.4735e-09	-4.21179e-05	3.97204	374617	21.9992	374595
3983.6	6.33497	2.94386	6.98557	-24.9243	12.0021	3.97217	-0.0205881	13.5715	2.41023	1	10	0.00488746	0.000699651	0	2.961e-05	-5.28891e-05	7.04059e-06	-77.9012	0.010063	0.00210919	0.00983948	-24.9901	6.99163	6.33708	2.9537	0.12982	0.0603273	0.143152	24.9243	2410.23	5186.63	5719.29	-65.0757	0.0000000E+000	0.0000000E+000	0.0000000E+000	65.0757	0.0000000E+000	0.0000000E+000	0.0000000E+000	-65.0757	0.0000000E+000	0.0000000E+000	0.0000000E+000	-24.9243	0.0000000E+000	0.0000000E+000	0.0000000E+000	24.9243	2.15193	65.0757	-1.19134e-06	-8.17794e-05	1.08888e-09	-8.17805e-05	3.97223	192936	2.56892	192938
1000.32	9.31931	4.97498	10.5641	-28.0949	14.6318	3.97223	0.00402092	31.9809	7.09265	1	10	0.00472971	0.000447716	0	3.16878e-05	-0.000148276	6.48626e-06	48.5249	0.0144874	0.00959495	-0.0108546	-28.0185	10.5674	9.3289	4.96412	0.0835064	0.0445787	0.0946603	28.0949	7092.65	13286.2	15060.8	-61.9051	0.0000000E+000	0.0000000E+000	0.0000000E+000	61.9051	0.0000000E+000	0.0000000E+000	0.0000000E+000	-61.9051	0.0000000E+000	0.0000000E+000	0.0000000E+000	-28.0949	0.0000000E+000	0.0000000E+000	0.0000000E+000	28.0949	1.87324	61.9051	1.50259e-07	1.5972e-05	-5.96204e-10	1.59726e-05	3.97238	987892	36.8761	987928
251.044	15.3905	7.66005	17.1914	-26.4601	17.3321	3.97224	0.00389792	82.7633	16.4315	1	10	0.00469853	0.000273307	0	3.4429e-05	0.00023327	8.14987e-06	4.72804	0.0298195	0.029718	-0.00245791	-26.4087	17.2169	15.4203	7.6576	0.0520751	0.0259184	0.0581685	26.4601	16431.5	33014.1	36877.2	-63.5399	0.0000000E+000	0.0000000E+000	0.0000000E+000	63.5399	0.0000000E+000	0.0000000E+000	0.0000000E+000	-63.5399	0.0000000E+000	0.0000000E+000	0.0000000E+000	-26.4601	0.0000000E+000	0.0000000E+000	0.0000000E+000	26.4601	2.00919	63.5399	7.06677e-07	1.54835e-05	9.0927e-10	1.54826e-05	3.97201	1.01907e+06	59.8448	1.01901e+06
63.0823	24.0093	6.56734	24.8912	-15.2981	20.297	3.97227	-0.00134065	384.17	26.7429	1	11	0.00469049	0.000188439	0	3.55727e-05	4.24974e-05	7.38322e-06	-107.191	0.0391809	-0.01158	0.0374306	-15.3882	24.89	23.9977	6.60477	0.0387512	0.0105998	0.0401748	15.2981	26742.9	97768.3	101360	-74.7019	0.0000000E+000	0.0000000E+000	0.0000000E+000	74.7019	0.0000000E+000	0.0000000E+000	0.0000000E+000	-74.7019	0.0000000E+000	0.0000000E+000	0.0000000E+000	-15.2981	0.0000000E+000	0.0000000E+000	0.0000000E+000	15.2981	3.65586	74.7019	-1.53775e-07	-5.32542e-06	-5.69741e-11	-5.32536e-06	3.97223	2.96294e+06	31.6991	2.96291e+06
15.8576	27.8331	2.81603	27.9752	-5.77728	22.954	3.97228	-0.00181619	3564.07	36.1139	1	11	0.0046906	0.00016767	0	3.29366e-05	0.000271425	5.21429e-06	-111.538	0.0310985	-0.0114168	0.0289271	-5.83859	27.9668	27.8217	2.84496	0.0355644	0.00359825	0.0357459	5.77728	36113.9	356943	358765	-84.2227	0.0000000E+000	0.0000000E+000	0.0000000E+000	84.2227	0.0000000E+000	0.0000000E+000	0.0000000E+000	-84.2227	0.0000000E+000	0.0000000E+000	0.0000000E+000	-5.77728	0.0000000E+000	0.0000000E+000	0.0000000E+000	5.77728	9.8838	84.2227	-9.19706e-07	-7.21443e-06	-4.92961e-10	-7.21393e-06	3.97201	2.18714e+06	149.447	2.18699e+06
3.97785	28.8598	1.41039	28.8943	-2.79784	25.8654	3.97229	0.000173492	28368.2	67.5908	1	11	0.0046826	0.00016206	0	3.42237e-05	0.000118807	5.85176e-06	50.2912	0.0361087	0.0230693	-0.0277785	-2.74063	28.916	28.8829	1.38261	0.0345677	0.00168933	0.0346089	2.79784	67590.7	1.38306e+06	1.38471e+06	-87.2022	0.0000000E+000	0.0000000E+000	0.0000000E+000	87.2022	0.0000000E+000	0.0000000E+000	0.0000000E+000	-87.2022	0.0000000E+000	0.0000000E+000	0.0000000E+000	-2.79784	0.0000000E+000	0.0000000E+000	0.0000000E+000	2.79784	20.4623	87.2022	3.03479e-07	6.89161e-07	2.0612e-11	6.89141e-07	3.97217	2.2896e+07	684.795	2.28954e+07
1.00469	30.9562	1.42484	30.989	-2.63533	241.59	3.97225	-0.0024131	111178	235.038	1	11	0.00500566	0.00016153	0	-0.000701471	9.97293e-05	9.36151e-08	-54.9666	0.000579551	0.000332693	0.000474547	-2.63617	30.9894	30.9566	1.42531	0.0322354	0.00148372	0.0322695	2.63533	235037	5.10645e+06	5.11186e+06	-87.3647	0.0000000E+000	0.0000000E+000	0.0000000E+000	87.3647	0.0000000E+000	0.0000000E+000	0.0000000E+000	-87.3647	0.0000000E+000	0.0000000E+000	0.0000000E+000	-2.63533	0.0000000E+000	0.0000000E+000	0.0000000E+000	2.63533	21.7261	87.3647	-0.000740488	-9.58543e-06	-2.40657e-10	-9.58519e-06	3.97215	1.64612e+06	41.3283	1.64608e+06
0.251173	32.0844	2.17743	32.1582	-3.88246	241.592	3.97225	-0.0024131	291007	1334.16	1	11	0.00503224	0.000156484	0	-0.000701471	9.97293e-05	2.35577e-07	-19.9947	0.00150544	0.00141469	0.000514758	-3.88321	32.1596	32.0858	2.17794	0.0310249	0.00210553	0.0310963	3.88246	1.33416e+06	1.96588e+07	1.9704e+07	-86.1175	0.0000000E+000	0.0000000E+000	0.0000000E+000	86.1175	0.0000000E+000	0.0000000E+000	0.0000000E+000	-86.1175	0.0000000E+000	0.0000000E+000	0.0000000E+000	-3.88246	0.0000000E+000	0.0000000E+000	0.0000000E+000	3.88246	14.735	86.1175	0.000000000000000E+000	-9.58543e-06	-2.40657e-10	-9.58519e-06	3.97215	1.64612e+06	41.3283	1.64608e+06
0.0602816	33.8289	4.65099	34.1472	-7.82827	241.594	3.97225	-0.0024131	567661	10531	1	11	0.00502626	0.000147194	0	-0.000701471	9.97293e-05	5.6574e-07	44.5481	0.0038435	0.00273912	-0.00269625	-7.82316	34.1495	33.8317	4.6483	0.0290121	0.00398874	0.029285	7.82827	1.0531e+07	7.65974e+07	7.7318e+07	-82.1717	0.0000000E+000	0.0000000E+000	0.0000000E+000	82.1717	0.0000000E+000	0.0000000E+000	0.0000000E+000	-82.1717	0.0000000E+000	0.0000000E+000	0.0000000E+000	-7.82827	0.0000000E+000	0.0000000E+000	0.0000000E+000	7.82827	7.27349	82.1717	0.000000000000000E+000	-9.58543e-06	-2.40657e-10	-9.58519e-06	3.97215	1.64612e+06	41.3283	1.64608e+06
0.00796479	44.414	11.4685	45.8708	-14.4786	20330.5	3.97226	0.000173385	1.74236e+06	108913	1	11	0.00502006	0.000109439	0	-0.00806978	0.000156961	5.90896e-07	-8.52402	0.0053993	0.00533966	0.000800306	-14.4779	45.8761	44.4193	11.4693	0.021108	0.00545048	0.0218004	14.4786	1.08913e+08	4.21787e+08	4.35622e+08	-75.5214	0.0000000E+000	0.0000000E+000	0.0000000E+000	75.5214	0.0000000E+000	0.0000000E+000	0.0000000E+000	-75.5214	0.0000000E+000	0.0000000E+000	0.0000000E+000	-14.4786	0.0000000E+000	0.0000000E+000	0.0000000E+000	14.4786	3.87269	75.5214	-0.00736831	6.8873e-07	2.72147e-11	6.88702e-07	3.9721	2.29101e+07	905.276	2.29092e+07
0.0019912	56.9338	17.9828	59.7063	-17.529	20330.5	3.97226	0.000173385	4.44476e+06	403203	1	11	0.00503381	8.43096e-05	0	-0.00806978	0.000156961	8.00724e-07	-11.6007	0.00949742	0.00930342	0.00190984	-17.528	59.7158	56.9431	17.9847	0.0159709	0.00504449	0.0167486	17.529	4.03203e+08	1.27654e+09	1.33871e+09	-72.471	0.0000000E+000	0.0000000E+000	0.0000000E+000	72.471	0.0000000E+000	0.0000000E+000	0.0000000E+000	-72.471	0.0000000E+000	0.0000000E+000	0.0000000E+000	-17.529	0.0000000E+000	0.0000000E+000	0.0000000E+000	17.529	3.16601	72.471	0.000000000000000E+000	6.8873e-07	2.72147e-11	6.88702e-07	3.9721	2.29101e+07	905.276	2.29092e+07
0.000497799	68.928	23.0904	72.6927	-18.5205	20330.5	3.97226	0.000173385	1.38463e+07	1.39706e+06	1	11	0.00503437	6.92556e-05	0	-0.00806978	0.000156961	7.11457e-07	-32.0917	0.0102729	0.0087032	0.00545776	-18.5224	72.7027	68.9367	23.0959	0.0130441	0.00436968	0.0137565	18.5205	1.39706e+09	4.17042e+09	4.3982e+09	-71.4795	0.0000000E+000	0.0000000E+000	0.0000000E+000	71.4795	0.0000000E+000	0.0000000E+000	0.0000000E+000	-71.4795	0.0000000E+000	0.0000000E+000	0.0000000E+000	-18.5205	0.0000000E+000	0.0000000E+000	0.0000000E+000	18.5205	2.98513	71.4795	0.000000000000000E+000	6.8873e-07	2.72147e-11	6.88702e-07	3.9721	2.29101e+07	905.276	2.29092e+07
9.95598e-05	85.7017	81.4765	118.251	-43.5522	20330.5	3.97226	0.000173385	1.96202e+07	9.31455e+06	1	11	0.00503562	4.25843e-05	0	-0.00806978	0.000156961	9.04686e-07	43.1177	0.0212446	0.0155075	-0.0145206	-43.542	118.252	85.7172	81.462	0.00612891	0.00582674	0.00845662	43.5522	9.31455e+09	9.79758e+09	1.35186e+10	-46.4478	0.0000000E+000	0.0000000E+000	0.0000000E+000	46.4478	0.0000000E+000	0.0000000E+000	0.0000000E+000	-46.4478	0.0000000E+000	0.0000000E+000	0.0000000E+000	-43.5522	0.0000000E+000	0.0000000E+000	0.0000000E+000	43.5522	1.05186	46.4478	0.000000000000000E+000	6.8873e-07	2.72147e-11	6.88702e-07	3.9721	2.29101e+07	905.276	2.29092e+07