File: txt/18808_R307_UC93_28_SOC50_C05.mpt
EC-Lab ASCII FILE
Nb header lines : 65

Potentio Electrochemical Impedance Spectroscopy

Run on channel : 5 (SN 65912)
Grouped channel(s) : 1, 2, 3, 4, 5
User :
CE vs. WE compliance from -10 V to 10 V
Electrode connection : standard
Potential control : Ewe
Ewe ctrl range : min = -10.00 V, max = 10.00 V
Safety Limits :
	Do not start on E overload
Acquisition started on : 11/05/2025 08:59:28.513
Loaded Setting File :  C:\Users\Celltest\OneDrive - store-dot.com\Documents\EC-Lab\Data\@Biologic Test Protocols\cathode half cell EIS SOC50.mps
Saved on :
	File : 18804_R307_UC93_28_SOC00_C05.mpr
	Directory : C:\Users\Celltest\OneDrive - store-dot.com\Documents\EC-Lab\Data\Anna\
	Host : 169.254.61.224
Device : VMP-3e (SN .003165)
Address : USB
EC-LAB for windows v11.62 (software)
Internet server v27.00 (firmware)
Command interpretor v12.03 (firmware)
Electrode material :
Initial state :
Electrolyte :
Comments :
Electrode surface area : 0.001 cm²
Characteristic mass : 0.001 g
Equivalent Weight : 0.000 g/eq.
Density : 0.000 g/cm3
Volume (V) : 0.001 cm³
Record Ece
Cycle Definition : Charge/Discharge alternance
Mode                Multi sine
E (V)               0.0000
vs.                 Eoc
tE (h:m:s)          0:00:0.0000
record              0
dI                  0.000
unit dI             mA
dt (s)              0.000
fi                  1.000
unit fi             MHz
ff                  0.100
unit ff             mHz
Nd                  10
Points              per decade
spacing             Logarithmic
Va (mV)             5.0
pw                  0.10
Na                  2
corr                0
E range min (V)     -10.000
E range max (V)     10.000
I Range             Auto
Bandwidth           5
nc cycles           0
goto Ns'            0
nr cycles           0
inc. cycle          0

freq/Hz	Re(Z)/Ohm	-Im(Z)/Ohm	|Z|/Ohm	Phase(Z)/deg	time/s	<Ewe>/V	<I>/mA	Cs/µF	Cp/µF	cycle number	I Range	|Ewe|/V	|I|/A	Ns	(Q-Qo)/mA.h	<Ece>/V	|Ece|/V	Phase(Zce)/deg	|Zce|/Ohm	Re(Zce)/Ohm	-Im(Zce)/Ohm	Phase(Zwe-ce)/deg	|Zwe-ce|/Ohm	Re(Zwe-ce)/Ohm	-Im(Zwe-ce)/Ohm	Re(Y)/Ohm-1	Im(Y)/Ohm-1	|Y|/Ohm-1	Phase(Y)/deg	Re(C)/nF	Im(C)/nF	|C|/nF	Phase(C)/deg	Re(M)	Im(M)	|M|	Phase(M)/deg	Re(Permittivity)	Im(Permittivity)	|Permittivity|	Phase(Permittivity)/deg	Re(Resistivity)/Ohm.cm	Im(Resistivity)/Ohm.cm	|Resistivity|/Ohm.cm	Phase(Resistivity)/deg	Re(Conductivity)/mS/cm	Im(Conductivity)/mS/cm	|Conductivity|/mS/cm	Phase(Conductivity)/deg	Tan(Delta)	Loss Angle(Delta)/deg	dq/mA.h	Pwe/W	Pce/W	Pwe-ce/W	<Ewe-Ece>/V	Rwe/Ohm	Rce/Ohm	Rwe-ce/Ohm		Ewe-Ece/V
1.00002e+06	2.09896	2.61184	3.35072	-51.2136	2.40952	3.97177	0.0444293	0.0609347	0.0370239	1	10	0.000217671	6.49624e-05	0	1.38513e-05	-5.94036e-05	0.00019412	-69.8581	2.98819	1.02897	2.80544	-59.998	6.25547	3.12793	5.41729	0.18695	0.232632	0.298443	51.2136	37.0239	29.7535	47.4978	-38.7864	0.0000000E+000	0.0000000E+000	0.0000000E+000	38.7864	0.0000000E+000	0.0000000E+000	0.0000000E+000	-38.7864	0.0000000E+000	0.0000000E+000	0.0000000E+000	-51.2136	0.0000000E+000	0.0000000E+000	0.0000000E+000	51.2136	0.803629	38.7864	1.38513e-05	0.000176463	-2.63926e-09	0.000176466	3.97183	89395.3	1.33704	89396.7
251206	1.49709	0.441684	1.56088	-16.4376	5.23652	3.97018	1.57067e-05	1.43443	0.114858	1	9	0.00354278	0.00226973	0	1.59898e-05	5.51437e-05	5.38836e-05	85.3096	0.0237401	0.00194127	-0.0236606	-15.5818	1.55622	1.49903	0.418023	0.614479	0.181289	0.640664	16.4376	114.858	389.311	405.901	-73.5624	0.0000000E+000	0.0000000E+000	0.0000000E+000	73.5624	0.0000000E+000	0.0000000E+000	0.0000000E+000	-73.5624	0.0000000E+000	0.0000000E+000	0.0000000E+000	-16.4376	0.0000000E+000	0.0000000E+000	0.0000000E+000	16.4376	3.3895	73.5624	6.4711e-07	6.23584e-08	8.66125e-13	6.23575e-08	3.97012	2.5277e+08	3510.84	2.52766e+08
0.0000000E+000	0.0000000E+000	0.0000000E+000	0.0000000E+000	0.0000000E+000	0.000000000000000E+000	0.0000000E+000	0.0000000E+000	0.0000000E+000	0.0000000E+000	0.000000000000000E+000	0	0.0000000E+000	0.0000000E+000	0	0.000000000000000E+000	0.0000000E+000	0.0000000E+000	0.0000000E+000	0.0000000E+000	0.0000000E+000	0.0000000E+000	0.0000000E+000	0.0000000E+000	0.0000000E+000	0.0000000E+000	0.0000000E+000	0.0000000E+000	0.0000000E+000	0.0000000E+000	0.0000000E+000	0.0000000E+000	0.0000000E+000	-90	0.0000000E+000	0.0000000E+000	0.0000000E+000	90	0.0000000E+000	0.0000000E+000	0.0000000E+000	-90	0.0000000E+000	0.0000000E+000	0.0000000E+000	0.0000000E+000	0.0000000E+000	0.0000000E+000	0.0000000E+000	0.0000000E+000	0.0000000E+000	90	0.000000000000000E+000	0.0000000E+000	0.0000000E+000	0.0000000E+000	0.0000000E+000	0.0000000E+000	0.0000000E+000	0.0000000E+000
15847.7	3.70112	1.77775	4.10593	-25.6563	9.83654	3.96988	0.0091022	5.64915	1.05901	1	9	0.00516028	0.00125679	0	1.36687e-06	-7.84948e-05	1.31468e-05	10.6732	0.0104606	0.0102797	-0.00193739	-25.57	4.11436	3.7114	1.77581	0.219538	0.10545	0.24355	25.6563	1059.01	2204.77	2445.92	-64.3437	0.0000000E+000	0.0000000E+000	0.0000000E+000	64.3437	0.0000000E+000	0.0000000E+000	0.0000000E+000	-64.3437	0.0000000E+000	0.0000000E+000	0.0000000E+000	-25.6563	0.0000000E+000	0.0000000E+000	0.0000000E+000	25.6563	2.08191	64.3437	1.36687e-06	3.61347e-05	-7.14476e-10	3.61354e-05	3.96996	436145	8.62372	436154
12590.9	3.96038	1.81021	4.35448	-24.5642	10.4985	3.96989	-0.00654043	6.98284	1.20676	1	10	0.00489813	0.00112485	0	8.35398e-07	5.51437e-05	1.30991e-05	-80.5927	0.0116452	0.00190343	0.0114886	-24.6911	4.361	3.96229	1.8217	0.208864	0.0954679	0.229649	24.5642	1206.76	2640.14	2902.86	-65.4358	0.0000000E+000	0.0000000E+000	0.0000000E+000	65.4358	0.0000000E+000	0.0000000E+000	0.0000000E+000	-65.4358	0.0000000E+000	0.0000000E+000	0.0000000E+000	-24.5642	0.0000000E+000	0.0000000E+000	0.0000000E+000	24.5642	2.1878	65.4358	-5.31476e-07	-2.59648e-05	-3.60663e-10	-2.59644e-05	3.96983	606977	8.4312	606968
3163.08	5.63034	1.95785	5.96103	-19.1743	12.5837	3.96982	-0.00983193	25.6998	2.77235	1	10	0.00535599	0.000898501	0	-3.181e-06	-7.84948e-05	5.89785e-06	-76.6779	0.0065641	0.00151253	0.00638746	-19.2274	5.96456	5.63185	1.96424	0.15845	0.0550983	0.167756	19.1743	2772.35	7972.63	8440.9	-70.8257	0.0000000E+000	0.0000000E+000	0.0000000E+000	70.8257	0.0000000E+000	0.0000000E+000	0.0000000E+000	-70.8257	0.0000000E+000	0.0000000E+000	0.0000000E+000	-19.1743	0.0000000E+000	0.0000000E+000	0.0000000E+000	19.1743	2.87577	70.8257	-3.20219e-07	-3.9031e-05	7.71756e-10	-3.90318e-05	3.9699	403768	7.98366	403776
794.238	7.48382	2.23653	7.81086	-16.6387	15.2901	3.96985	-0.00344258	89.5973	7.34592	1	10	0.0052042	0.000666277	0	-5.61689e-06	0.000112417	1.21049e-05	7.78355	0.0181679	0.0180005	-0.0024605	-16.5837	7.82741	7.50182	2.23407	0.122666	0.0366586	0.128027	16.6387	7345.91	24580.7	25654.9	-73.3613	0.0000000E+000	0.0000000E+000	0.0000000E+000	73.3613	0.0000000E+000	0.0000000E+000	0.0000000E+000	-73.3613	0.0000000E+000	0.0000000E+000	0.0000000E+000	-16.6387	0.0000000E+000	0.0000000E+000	0.0000000E+000	16.6387	3.34618	73.3613	-8.22189e-07	-1.36665e-05	-3.87005e-10	-1.36661e-05	3.96974	1.15316e+06	32.655	1.15313e+06
199.553	9.58115	2.31665	9.85725	-13.5928	17.9913	3.96986	-0.00259364	344.272	19.0156	1	10	0.00514471	0.000521921	0	-8.75352e-06	-2.12997e-06	8.00814e-06	-21.7245	0.0153436	0.0142538	0.00567934	-13.6054	9.87244	9.59541	2.32233	0.0986067	0.0238423	0.101448	13.5928	19015.6	78644.5	80910.7	-76.4072	0.0000000E+000	0.0000000E+000	0.0000000E+000	76.4072	0.0000000E+000	0.0000000E+000	0.0000000E+000	-76.4072	0.0000000E+000	0.0000000E+000	0.0000000E+000	-13.5928	0.0000000E+000	0.0000000E+000	0.0000000E+000	13.5928	4.13578	76.4072	-1.08237e-06	-1.02964e-05	5.52437e-12	-1.02964e-05	3.96986	1.53061e+06	0.821226	1.53061e+06
50.1444	11.5382	2.30572	11.7664	-11.3007	20.7093	3.96985	-0.00330109	1376.55	52.859	1	10	0.00513201	0.000436159	0	-1.09112e-05	-5.94036e-05	8.71636e-06	69.4331	0.0199844	0.00702051	-0.0187106	-11.2047	11.7696	11.5453	2.28701	0.0833402	0.0166541	0.084988	11.3007	52859	264516	269746	-78.6993	0.0000000E+000	0.0000000E+000	0.0000000E+000	78.6993	0.0000000E+000	0.0000000E+000	0.0000000E+000	-78.6993	0.0000000E+000	0.0000000E+000	0.0000000E+000	-11.3007	0.0000000E+000	0.0000000E+000	0.0000000E+000	11.3007	5.00418	78.6993	-1.93148e-07	-1.31048e-05	1.96097e-10	-1.3105e-05	3.96991	1.20259e+06	17.9952	1.20261e+06
12.6008	13.3495	2.72615	13.6251	-11.5418	23.732	3.96988	7.90992e-05	4633.1	185.479	1	11	0.00512873	0.000376419	0	-1.52784e-05	-2.12212e-05	8.13898e-06	-39.9174	0.0216221	0.0165835	0.0138746	-11.585	13.6441	13.3661	2.74002	0.0719101	0.014685	0.0733942	11.5418	185479	908263	927008	-78.4582	0.0000000E+000	0.0000000E+000	0.0000000E+000	78.4582	0.0000000E+000	0.0000000E+000	0.0000000E+000	-78.4582	0.0000000E+000	0.0000000E+000	0.0000000E+000	-11.5418	0.0000000E+000	0.0000000E+000	0.0000000E+000	11.5418	4.89685	78.4582	-1.21827e-06	3.14014e-07	-1.67858e-12	3.14016e-07	3.9699	5.01886e+07	268.286	5.01889e+07
3.1604	15.7175	4.67125	16.3969	-16.552	26.8084	3.96988	0.000441922	10780.7	874.958	1	11	0.00513209	0.000312991	0	-1.42583e-05	9.33261e-05	7.16601e-06	51.1697	0.0228952	0.0143557	-0.0178355	-16.478	16.4056	15.7318	4.65341	0.0584599	0.0173743	0.0609871	16.552	874958	2.94399e+06	3.07126e+06	-73.448	0.0000000E+000	0.0000000E+000	0.0000000E+000	73.448	0.0000000E+000	0.0000000E+000	0.0000000E+000	-73.448	0.0000000E+000	0.0000000E+000	0.0000000E+000	-16.552	0.0000000E+000	0.0000000E+000	0.0000000E+000	16.552	3.36472	73.448	-9.35605e-07	1.75438e-06	4.12429e-11	1.75433e-06	3.96978	8.98321e+06	211.182	8.983e+06
0.793708	20.2489	9.20635	22.2436	-24.4493	240.928	3.96985	-0.0012869	21780.7	3731.11	1	11	0.00508484	0.000228598	0	-0.000321713	-0.000135768	5.78419e-07	-35.0688	0.00253029	0.00207095	0.0014538	-24.4505	22.2461	20.251	9.20781	0.0409254	0.0186071	0.0449568	24.4493	3.73111e+06	8.2064e+06	9.01477e+06	-65.5507	0.0000000E+000	0.0000000E+000	0.0000000E+000	65.5507	0.0000000E+000	0.0000000E+000	0.0000000E+000	-65.5507	0.0000000E+000	0.0000000E+000	0.0000000E+000	-24.4493	0.0000000E+000	0.0000000E+000	0.0000000E+000	24.4493	2.19945	65.5507	0.000000000000000E+000	-5.10879e-06	1.7472e-10	-5.10897e-06	3.96999	3.08482e+06	105.501	3.08493e+06
0.200939	29.6444	18.3914	34.8861	-31.8155	240.929	3.96985	-0.0012869	43066.7	11969.3	1	11	0.00509602	0.000146076	0	-0.000321713	-0.000135768	6.52941e-07	-34.2745	0.00446987	0.00369367	0.00251724	-31.8158	34.8905	29.6481	18.3939	0.0243579	0.0151116	0.0286647	31.8155	1.19693e+07	1.92928e+07	2.27041e+07	-58.1845	0.0000000E+000	0.0000000E+000	0.0000000E+000	58.1845	0.0000000E+000	0.0000000E+000	0.0000000E+000	-58.1845	0.0000000E+000	0.0000000E+000	0.0000000E+000	-31.8155	0.0000000E+000	0.0000000E+000	0.0000000E+000	31.8155	1.61186	58.1845	0.000000000000000E+000	-5.10879e-06	1.7472e-10	-5.10897e-06	3.96999	3.08482e+06	105.501	3.08493e+06
0.0502347	49.0853	35.3355	60.4811	-35.7493	240.93	3.96985	-0.0012869	89661.3	30604.7	1	11	0.00510505	8.44073e-05	0	-0.000321713	-0.000135768	6.65743e-07	-48.5314	0.00788726	0.00522302	0.00591007	-35.751	60.4888	49.0905	35.3414	0.0134187	0.00965988	0.0165341	35.7493	3.06047e+07	4.25136e+07	5.23837e+07	-54.2507	0.0000000E+000	0.0000000E+000	0.0000000E+000	54.2507	0.0000000E+000	0.0000000E+000	0.0000000E+000	-54.2507	0.0000000E+000	0.0000000E+000	0.0000000E+000	-35.7493	0.0000000E+000	0.0000000E+000	0.0000000E+000	35.7493	1.38912	54.2507	0.000000000000000E+000	-5.10879e-06	1.7472e-10	-5.10897e-06	3.96999	3.08482e+06	105.501	3.08493e+06
0.0100469	98.6102	70.0694	120.97	-35.3964	240.931	3.96985	-0.0012869	226078	75850.9	1	11	0.00510419	4.21939e-05	0	-0.000321713	-0.000135768	1.67221e-06	17.322	0.0396315	0.0378341	-0.0118	-35.3815	120.994	98.6481	70.0576	0.00673857	0.00478822	0.00826652	35.3964	7.58509e+07	1.06747e+08	1.30951e+08	-54.6036	0.0000000E+000	0.0000000E+000	0.0000000E+000	54.6036	0.0000000E+000	0.0000000E+000	0.0000000E+000	-54.6036	0.0000000E+000	0.0000000E+000	0.0000000E+000	-35.3964	0.0000000E+000	0.0000000E+000	0.0000000E+000	35.3964	1.40732	54.6036	0.000000000000000E+000	-5.10879e-06	1.7472e-10	-5.10897e-06	3.96999	3.08482e+06	105.501	3.08493e+06