File: txt/18801_R307_UC93_26p5_SOC50_C03.mpt
EC-Lab ASCII FILE
Nb header lines : 65

Potentio Electrochemical Impedance Spectroscopy

Run on channel : 3 (SN 65921)
Grouped channel(s) : 1, 2, 3, 4, 5
User :
CE vs. WE compliance from -10 V to 10 V
Electrode connection : standard
Potential control : Ewe
Ewe ctrl range : min = -10.00 V, max = 10.00 V
Safety Limits :
	Do not start on E overload
Acquisition started on : 11/04/2025 16:29:50.795
Loaded Setting File :  C:\Users\Celltest\OneDrive - store-dot.com\Documents\EC-Lab\Data\@Biologic Test Protocols\cathode half cell EIS SOC50.mps
Saved on :
	File : 18799_R307_UC93_26p5_SOC00_C03.mpr
	Directory : C:\Users\Celltest\OneDrive - store-dot.com\Documents\EC-Lab\Data\Anna\
	Host : 169.254.61.224
Device : VMP-3e (SN .003165)
Address : USB
EC-LAB for windows v11.62 (software)
Internet server v27.00 (firmware)
Command interpretor v12.03 (firmware)
Electrode material :
Initial state :
Electrolyte :
Comments :
Electrode surface area : 0.001 cm²
Characteristic mass : 0.001 g
Equivalent Weight : 0.000 g/eq.
Density : 0.000 g/cm3
Volume (V) : 0.001 cm³
Record Ece
Cycle Definition : Charge/Discharge alternance
Mode                Multi sine
E (V)               0.0000
vs.                 Eoc
tE (h:m:s)          0:00:0.0000
record              0
dI                  0.000
unit dI             mA
dt (s)              0.000
fi                  1.000
unit fi             MHz
ff                  0.100
unit ff             mHz
Nd                  10
Points              per decade
spacing             Logarithmic
Va (mV)             5.0
pw                  0.10
Na                  2
corr                0
E range min (V)     -10.000
E range max (V)     10.000
I Range             Auto
Bandwidth           5
nc cycles           0
goto Ns'            0
nr cycles           0
inc. cycle          0

freq/Hz	Re(Z)/Ohm	-Im(Z)/Ohm	|Z|/Ohm	Phase(Z)/deg	time/s	<Ewe>/V	<I>/mA	Cs/µF	Cp/µF	cycle number	I Range	|Ewe|/V	|I|/A	Ns	(Q-Qo)/mA.h	<Ece>/V	|Ece|/V	Phase(Zce)/deg	|Zce|/Ohm	Re(Zce)/Ohm	-Im(Zce)/Ohm	Phase(Zwe-ce)/deg	|Zwe-ce|/Ohm	Re(Zwe-ce)/Ohm	-Im(Zwe-ce)/Ohm	Re(Y)/Ohm-1	Im(Y)/Ohm-1	|Y|/Ohm-1	Phase(Y)/deg	Re(C)/nF	Im(C)/nF	|C|/nF	Phase(C)/deg	Re(M)	Im(M)	|M|	Phase(M)/deg	Re(Permittivity)	Im(Permittivity)	|Permittivity|	Phase(Permittivity)/deg	Re(Resistivity)/Ohm.cm	Im(Resistivity)/Ohm.cm	|Resistivity|/Ohm.cm	Phase(Resistivity)/deg	Re(Conductivity)/mS/cm	Im(Conductivity)/mS/cm	|Conductivity|/mS/cm	Phase(Conductivity)/deg	Tan(Delta)	Loss Angle(Delta)/deg	dq/mA.h	Pwe/W	Pce/W	Pwe-ce/W	<Ewe-Ece>/V	Rwe/Ohm	Rce/Ohm	Rwe-ce/Ohm		Ewe-Ece/V
1.00002e+06	5.93193	5.6994	8.22624	-43.8547	2.23353	3.96861	-0.000548792	0.0279243	0.0134041	1	10	0.000196572	2.38958e-05	0	-7.97508e-06	0.000199977	0.000191783	-59.5259	8.02581	4.07028	6.91711	-51.5931	16.1003	10.0022	12.6165	0.0876584	0.0842223	0.121562	43.8547	13.4041	13.951	19.3469	-46.1453	0.0000000E+000	0.0000000E+000	0.0000000E+000	46.1453	0.0000000E+000	0.0000000E+000	0.0000000E+000	-46.1453	0.0000000E+000	0.0000000E+000	0.0000000E+000	-43.8547	0.0000000E+000	0.0000000E+000	0.0000000E+000	43.8547	1.0408	46.1453	-7.97508e-06	-2.17794e-06	-1.09746e-10	-2.17783e-06	3.96841	7.23153e+06	364.395	7.23117e+06
251206	1.4961	0.276741	1.52148	-10.4798	4.93456	3.96824	0.0350868	2.28937	0.0757405	1	9	0.00285484	0.00187635	0	1.11328e-05	-0.000220093	5.70713e-05	89.403	0.0304161	0.000316917	-0.0304145	-9.34764	1.51656	1.49642	0.246326	0.646289	0.119547	0.657253	10.4798	75.7405	409.465	416.411	-79.5202	0.0000000E+000	0.0000000E+000	0.0000000E+000	79.5202	0.0000000E+000	0.0000000E+000	0.0000000E+000	-79.5202	0.0000000E+000	0.0000000E+000	0.0000000E+000	-10.4798	0.0000000E+000	0.0000000E+000	0.0000000E+000	10.4798	5.40616	79.5202	9.00372e-07	0.000139233	-7.72235e-09	0.00013924	3.96846	113098	6.2728	113104
63093.8	1.92422	0.955278	2.1483	-26.4021	7.48053	3.96816	0.0371007	2.64061	0.522124	1	9	0.00523976	0.00243903	0	3.69863e-05	-0.000124622	2.53105e-05	39.107	0.0103773	0.00805244	-0.00654568	-26.1507	2.15262	1.93227	0.948732	0.416933	0.206986	0.465485	26.4021	522.124	1051.72	1174.19	-63.5979	0.0000000E+000	0.0000000E+000	0.0000000E+000	63.5979	0.0000000E+000	0.0000000E+000	0.0000000E+000	-63.5979	0.0000000E+000	0.0000000E+000	0.0000000E+000	-26.4021	0.0000000E+000	0.0000000E+000	0.0000000E+000	26.4021	2.01431	63.5979	1.27801e-05	0.000147222	-4.62357e-09	0.000147226	3.96829	106956	3.35903	106960
15847.7	3.08691	1.72235	3.53489	-29.1594	10.5276	3.96813	0.0259126	5.83088	1.38427	1	9	0.00488419	0.00138171	0	5.37296e-05	-6.734e-05	1.18472e-05	-16.7494	0.00857436	0.00821059	0.00247101	-29.1296	3.54327	3.09512	1.72482	0.247042	0.137838	0.282894	29.1594	1384.27	2480.99	2841.04	-60.8406	0.0000000E+000	0.0000000E+000	0.0000000E+000	60.8406	0.0000000E+000	0.0000000E+000	0.0000000E+000	-60.8406	0.0000000E+000	0.0000000E+000	0.0000000E+000	-29.1594	0.0000000E+000	0.0000000E+000	0.0000000E+000	29.1594	1.79227	60.8406	4.31881e-06	0.000102824	-1.74495e-09	0.000102826	3.96819	153135	2.59874	153138
3983.6	4.80723	3.06141	5.69927	-32.4904	13.049	3.96815	-0.0091774	13.0504	3.76554	1	10	0.00501927	0.000880686	0	5.82875e-05	-6.734e-05	6.54351e-06	-80.7213	0.00743001	0.00119799	0.0073328	-32.5461	5.70422	4.80842	3.06875	0.147998	0.0942505	0.175461	32.4904	3765.54	5912.9	7010.11	-57.5096	0.0000000E+000	0.0000000E+000	0.0000000E+000	57.5096	0.0000000E+000	0.0000000E+000	0.0000000E+000	-57.5096	0.0000000E+000	0.0000000E+000	0.0000000E+000	-32.4904	0.0000000E+000	0.0000000E+000	0.0000000E+000	32.4904	1.57026	57.5096	-3.97507e-06	-3.64173e-05	6.18006e-10	-3.64179e-05	3.96822	432383	7.3376	432390
1000.32	8.08066	5.53021	9.79185	-34.3868	16.2828	3.96814	-0.0119778	28.7699	9.17684	1	10	0.00538352	0.000549796	0	4.9135e-05	-0.000124622	9.43015e-06	-15.2786	0.0171521	0.0165459	0.0045198	-34.354	9.80806	8.09721	5.53473	0.0842786	0.0576783	0.102126	34.3868	9176.84	13409.1	16248.6	-55.6132	0.0000000E+000	0.0000000E+000	0.0000000E+000	55.6132	0.0000000E+000	0.0000000E+000	0.0000000E+000	-55.6132	0.0000000E+000	0.0000000E+000	0.0000000E+000	-34.3868	0.0000000E+000	0.0000000E+000	0.0000000E+000	34.3868	1.46118	55.6132	-1.34056e-06	-4.75296e-05	1.4927e-09	-4.75311e-05	3.96827	331291	10.4044	331302
251.044	15.0482	8.06335	17.0724	-28.184	18.985	3.96814	-0.0109337	78.6238	17.5387	1	10	0.00482678	0.000282725	0	4.09497e-05	8.54125e-05	1.89676e-05	13.9032	0.0670885	0.065123	-0.0161201	-28.0335	17.1222	15.1133	8.04723	0.0516294	0.0276648	0.0585742	28.184	17538.7	32731.6	37134.4	-61.816	0.0000000E+000	0.0000000E+000	0.0000000E+000	61.816	0.0000000E+000	0.0000000E+000	0.0000000E+000	-61.816	0.0000000E+000	0.0000000E+000	0.0000000E+000	-28.184	0.0000000E+000	0.0000000E+000	0.0000000E+000	28.184	1.86625	61.816	-1.35672e-06	-4.33865e-05	-9.33876e-10	-4.33856e-05	3.96805	362927	7.81184	362919
63.0823	23.3377	5.9972	24.096	-14.4117	21.95	3.96815	-0.0165573	420.692	26.0599	1	11	0.00461131	0.000191373	0	2.97192e-05	-0.000124622	7.61383e-06	-3.67047	0.0397854	0.0397038	0.00254698	-14.3941	24.135	23.3774	5.99974	0.0401948	0.010329	0.0415007	14.4117	26059.9	101410	104705	-75.5883	0.0000000E+000	0.0000000E+000	0.0000000E+000	75.5883	0.0000000E+000	0.0000000E+000	0.0000000E+000	-75.5883	0.0000000E+000	0.0000000E+000	0.0000000E+000	-14.4117	0.0000000E+000	0.0000000E+000	0.0000000E+000	14.4117	3.89144	75.5883	-2.0301e-06	-6.57018e-05	2.06341e-09	-6.57038e-05	3.96827	239662	7.52673	239669
15.8576	26.4003	2.60539	26.5285	-5.63615	24.608	3.96813	-0.0167952	3852.22	37.1561	1	11	0.00459028	0.000173032	0	1.88861e-05	-8.64341e-05	8.72494e-06	-124.179	0.0504239	-0.0283269	0.0417152	-5.73191	26.5045	26.3719	2.6471	0.037513	0.00370209	0.0376953	5.63615	37156.1	376500	378330	-84.3638	0.0000000E+000	0.0000000E+000	0.0000000E+000	84.3638	0.0000000E+000	0.0000000E+000	0.0000000E+000	-84.3638	0.0000000E+000	0.0000000E+000	0.0000000E+000	-5.63615	0.0000000E+000	0.0000000E+000	0.0000000E+000	5.63615	10.133	84.3638	-1.43491e-06	-6.66455e-05	1.45168e-09	-6.6647e-05	3.96822	236266	5.14636	236271
3.97785	27.5004	1.37502	27.5347	-2.86242	27.5193	3.96816	-0.0153987	29097.9	72.564	1	11	0.00460283	0.000167165	0	4.1326e-06	-8.64341e-05	2.54858e-06	16.4121	0.0152459	0.0146247	-0.00430765	-2.85195	27.5491	27.515	1.37072	0.0362725	0.00181363	0.0363178	2.86242	72564	1.45127e+06	1.45309e+06	-87.1376	0.0000000E+000	0.0000000E+000	0.0000000E+000	87.1376	0.0000000E+000	0.0000000E+000	0.0000000E+000	-87.1376	0.0000000E+000	0.0000000E+000	0.0000000E+000	-2.86242	0.0000000E+000	0.0000000E+000	0.0000000E+000	2.86242	19.9999	87.1376	-3.3114e-06	-6.11044e-05	1.33097e-09	-6.11057e-05	3.96824	257695	5.61309	257700
1.00469	28.2122	1.32622	28.2434	-2.69142	243.244	3.96811	-0.0132843	119446	263.371	1	11	0.00503765	0.000178366	0	-0.0015167	-4.8246e-05	3.15827e-07	-30.6697	0.00177067	0.001523	0.000903199	-2.6931	28.2449	28.2138	1.32712	0.0353675	0.00166258	0.0354065	2.69142	263371	5.60261e+06	5.6088e+06	-87.3086	0.0000000E+000	0.0000000E+000	0.0000000E+000	87.3086	0.0000000E+000	0.0000000E+000	0.0000000E+000	-87.3086	0.0000000E+000	0.0000000E+000	0.0000000E+000	-2.69142	0.0000000E+000	0.0000000E+000	0.0000000E+000	2.69142	21.2727	87.3086	-0.00149087	-5.27134e-05	6.40912e-10	-5.27141e-05	3.96816	298708	3.63181	298711
0.251173	29.3304	2.11424	29.4065	-4.12295	243.25	3.96811	-0.0132843	299704	1549.22	1	11	0.00506516	0.000172246	0	-0.0015167	-4.8246e-05	3.34699e-07	27.099	0.00194314	0.00172982	-0.000885158	-4.12099	29.4082	29.3321	2.11335	0.0339181	0.00244494	0.0340061	4.12295	1.54922e+06	2.1492e+07	2.15478e+07	-85.877	0.0000000E+000	0.0000000E+000	0.0000000E+000	85.877	0.0000000E+000	0.0000000E+000	0.0000000E+000	-85.877	0.0000000E+000	0.0000000E+000	0.0000000E+000	-4.12295	0.0000000E+000	0.0000000E+000	0.0000000E+000	4.12295	13.8728	85.877	0.000000000000000E+000	-5.27134e-05	6.40912e-10	-5.27141e-05	3.96816	298708	3.63181	298711
0.0602816	31.3352	4.07708	31.5993	-7.41322	243.255	3.96811	-0.0132843	647568	10780.3	1	11	0.00505457	0.000159958	0	-0.0015167	-4.8246e-05	6.08406e-07	28.6018	0.00380353	0.00333937	-0.00182082	-7.40917	31.6024	31.3385	4.07526	0.0313818	0.00408314	0.0316463	7.41322	1.07803e+07	8.28538e+07	8.35522e+07	-82.5868	0.0000000E+000	0.0000000E+000	0.0000000E+000	82.5868	0.0000000E+000	0.0000000E+000	0.0000000E+000	-82.5868	0.0000000E+000	0.0000000E+000	0.0000000E+000	-7.41322	0.0000000E+000	0.0000000E+000	0.0000000E+000	7.41322	7.68569	82.5868	0.000000000000000E+000	-5.27134e-05	6.40912e-10	-5.27141e-05	3.96816	298708	3.63181	298711
0.00796479	39.8463	8.78051	40.8022	-12.4271	20332.1	3.96812	-0.000156911	2.27576e+06	105390	1	11	0.00505321	0.000123846	0	-0.0117425	9.03623e-06	4.10573e-07	-163.989	0.00331518	-0.00318658	0.000914384	-12.4293	40.7993	39.8431	8.78143	0.0239342	0.00527414	0.0245085	12.4271	1.0539e+08	4.78262e+08	4.89736e+08	-77.5729	0.0000000E+000	0.0000000E+000	0.0000000E+000	77.5729	0.0000000E+000	0.0000000E+000	0.0000000E+000	-77.5729	0.0000000E+000	0.0000000E+000	0.0000000E+000	-12.4271	0.0000000E+000	0.0000000E+000	0.0000000E+000	12.4271	4.53804	77.5729	-0.0102258	-6.2264e-07	-1.41788e-12	-6.22639e-07	3.96811	2.52891e+07	57.5884	2.5289e+07
0.0019912	48.5815	12.2647	50.1057	-14.1687	20332.1	3.96812	-0.000156911	6.517e+06	390472	1	11	0.00506748	0.000101136	0	-0.0117425	9.03623e-06	3.63261e-07	-76.2076	0.00359181	0.000856303	0.00348824	-14.1723	50.1074	48.5823	12.2682	0.0193507	0.00488522	0.0199578	14.1687	3.90472e+08	1.54669e+09	1.59521e+09	-75.8313	0.0000000E+000	0.0000000E+000	0.0000000E+000	75.8313	0.0000000E+000	0.0000000E+000	0.0000000E+000	-75.8313	0.0000000E+000	0.0000000E+000	0.0000000E+000	-14.1687	0.0000000E+000	0.0000000E+000	0.0000000E+000	14.1687	3.96107	75.8313	0.000000000000000E+000	-6.2264e-07	-1.41788e-12	-6.22639e-07	3.96811	2.52891e+07	57.5884	2.5289e+07
0.000497799	54.5599	18.9161	57.746	-19.1216	20332.1	3.96812	-0.000156911	1.69019e+07	1.81365e+06	1	11	0.00506754	8.77556e-05	0	-0.0117425	9.03623e-06	1.02126e-06	-129.62	0.0116376	-0.00742113	0.00896434	-19.1324	57.742	54.5525	18.925	0.0163617	0.00567266	0.0173172	19.1216	1.81365e+09	5.23113e+09	5.53661e+09	-70.8784	0.0000000E+000	0.0000000E+000	0.0000000E+000	70.8784	0.0000000E+000	0.0000000E+000	0.0000000E+000	-70.8784	0.0000000E+000	0.0000000E+000	0.0000000E+000	-19.1216	0.0000000E+000	0.0000000E+000	0.0000000E+000	19.1216	2.88432	70.8784	0.000000000000000E+000	-6.2264e-07	-1.41788e-12	-6.22639e-07	3.96811	2.52891e+07	57.5884	2.5289e+07
9.95598e-05	65.3043	84.9768	107.171	-52.4579	20332.1	3.96812	-0.000156911	1.8812e+07	1.18271e+07	1	11	0.00506797	4.72885e-05	0	-0.0117425	9.03623e-06	1.87894e-06	74.089	0.0397334	0.0108927	-0.0382112	-52.4408	107.148	65.3151	84.9386	0.0056857	0.00739849	0.00933085	52.4579	1.18271e+10	9.08908e+09	1.49162e+10	-37.5421	0.0000000E+000	0.0000000E+000	0.0000000E+000	37.5421	0.0000000E+000	0.0000000E+000	0.0000000E+000	-37.5421	0.0000000E+000	0.0000000E+000	0.0000000E+000	-52.4579	0.0000000E+000	0.0000000E+000	0.0000000E+000	52.4579	0.768495	37.5421	0.000000000000000E+000	-6.2264e-07	-1.41788e-12	-6.22639e-07	3.96811	2.52891e+07	57.5884	2.5289e+07