File: txt/18805_R307_UC93_28_SOC50_C02.mpt
EC-Lab ASCII FILE
Nb header lines : 65

Potentio Electrochemical Impedance Spectroscopy

Run on channel : 2 (SN 66139)
Grouped channel(s) : 1, 2, 3, 4, 5
User :
CE vs. WE compliance from -10 V to 10 V
Electrode connection : standard
Potential control : Ewe
Ewe ctrl range : min = -10.00 V, max = 10.00 V
Safety Limits :
	Do not start on E overload
Acquisition started on : 11/05/2025 08:59:28.513
Loaded Setting File :  C:\Users\Celltest\OneDrive - store-dot.com\Documents\EC-Lab\Data\@Biologic Test Protocols\cathode half cell EIS SOC50.mps
Saved on :
	File : 18804_R307_UC93_28_SOC00_C02.mpr
	Directory : C:\Users\Celltest\OneDrive - store-dot.com\Documents\EC-Lab\Data\Anna\
	Host : 169.254.61.224
Device : VMP-3e (SN .003165)
Address : USB
EC-LAB for windows v11.62 (software)
Internet server v27.00 (firmware)
Command interpretor v12.03 (firmware)
Electrode material :
Initial state :
Electrolyte :
Comments :
Electrode surface area : 0.001 cm²
Characteristic mass : 0.001 g
Equivalent Weight : 0.000 g/eq.
Density : 0.000 g/cm3
Volume (V) : 0.001 cm³
Record Ece
Cycle Definition : Charge/Discharge alternance
Mode                Multi sine
E (V)               0.0000
vs.                 Eoc
tE (h:m:s)          0:00:0.0000
record              0
dI                  0.000
unit dI             mA
dt (s)              0.000
fi                  1.000
unit fi             MHz
ff                  0.100
unit ff             mHz
Nd                  10
Points              per decade
spacing             Logarithmic
Va (mV)             5.0
pw                  0.10
Na                  2
corr                0
E range min (V)     -10.000
E range max (V)     10.000
I Range             Auto
Bandwidth           5
nc cycles           0
goto Ns'            0
nr cycles           0
inc. cycle          0

freq/Hz	Re(Z)/Ohm	-Im(Z)/Ohm	|Z|/Ohm	Phase(Z)/deg	time/s	<Ewe>/V	<I>/mA	Cs/µF	Cp/µF	cycle number	I Range	|Ewe|/V	|I|/A	Ns	(Q-Qo)/mA.h	<Ece>/V	|Ece|/V	Phase(Zce)/deg	|Zce|/Ohm	Re(Zce)/Ohm	-Im(Zce)/Ohm	Phase(Zwe-ce)/deg	|Zwe-ce|/Ohm	Re(Zwe-ce)/Ohm	-Im(Zwe-ce)/Ohm	Re(Y)/Ohm-1	Im(Y)/Ohm-1	|Y|/Ohm-1	Phase(Y)/deg	Re(C)/nF	Im(C)/nF	|C|/nF	Phase(C)/deg	Re(M)	Im(M)	|M|	Phase(M)/deg	Re(Permittivity)	Im(Permittivity)	|Permittivity|	Phase(Permittivity)/deg	Re(Resistivity)/Ohm.cm	Im(Resistivity)/Ohm.cm	|Resistivity|/Ohm.cm	Phase(Resistivity)/deg	Re(Conductivity)/mS/cm	Im(Conductivity)/mS/cm	|Conductivity|/mS/cm	Phase(Conductivity)/deg	Tan(Delta)	Loss Angle(Delta)/deg	dq/mA.h	Pwe/W	Pce/W	Pwe-ce/W	<Ewe-Ece>/V	Rwe/Ohm	Rce/Ohm	Rwe-ce/Ohm		Ewe-Ece/V
1.00002e+06	2.83063	2.37224	3.69324	-39.965	2.23455	3.9713	-0.041875	0.0670894	0.0276794	1	10	0.000245417	6.64504e-05	0	-1.36003e-05	0.000121951	0.000179248	-66.2655	2.69747	1.08573	2.46932	-51.0304	6.22724	3.91636	4.84156	0.207525	0.173918	0.270765	39.965	27.6794	33.0279	43.0928	-50.035	0.0000000E+000	0.0000000E+000	0.0000000E+000	50.035	0.0000000E+000	0.0000000E+000	0.0000000E+000	-50.035	0.0000000E+000	0.0000000E+000	0.0000000E+000	-39.965	0.0000000E+000	0.0000000E+000	0.0000000E+000	39.965	1.19323	50.035	-1.36003e-05	-0.000166298	-5.1067e-09	-0.000166293	3.97117	94837	2.91227	94834.1
251206	1.95804	0.511575	2.02377	-14.6423	4.81353	3.97123	-0.0451398	1.23846	0.0791366	1	9	0.00524169	0.00259006	0	-4.96371e-05	8.37695e-05	2.4089e-05	103.595	0.00930053	-0.00218621	-0.00903993	-14.4098	2.01938	1.95586	0.502535	0.47808	0.124907	0.494128	14.6423	79.1366	302.894	313.061	-75.3577	0.0000000E+000	0.0000000E+000	0.0000000E+000	75.3577	0.0000000E+000	0.0000000E+000	0.0000000E+000	-75.3577	0.0000000E+000	0.0000000E+000	0.0000000E+000	-14.6423	0.0000000E+000	0.0000000E+000	0.0000000E+000	14.6423	3.82748	75.3577	-5.33362e-06	-0.000179261	-3.78133e-09	-0.000179257	3.97115	87976.4	1.85578	87974.6
63093.8	2.67455	1.16706	2.91809	-23.5745	7.23554	3.97115	-0.0189559	2.16142	0.345725	1	9	0.00548447	0.00187948	0	-4.83089e-05	7.4061e-06	1.00242e-05	77.3008	0.00533352	0.00117248	-0.00520305	-23.4716	2.91709	2.67572	1.16186	0.31409	0.137056	0.34269	23.5745	345.725	792.295	864.44	-66.4255	0.0000000E+000	0.0000000E+000	0.0000000E+000	66.4255	0.0000000E+000	0.0000000E+000	0.0000000E+000	-66.4255	0.0000000E+000	0.0000000E+000	0.0000000E+000	-23.5745	0.0000000E+000	0.0000000E+000	0.0000000E+000	23.5745	2.29169	66.4255	2.45295e-06	-7.52767e-05	-1.40389e-10	-7.52766e-05	3.97114	209494	0.390701	209494
15847.7	3.96808	1.97769	4.43362	-26.4917	9.41356	3.97113	-0.0373554	5.07803	1.01041	1	9	0.00457495	0.00103188	0	-6.36383e-05	0.000293769	6.54627e-06	-53.0519	0.00634405	0.00381335	0.00507004	-26.5283	4.43929	3.9719	1.98276	0.201867	0.10061	0.225549	26.4917	1010.41	2027.3	2265.15	-63.5083	0.0000000E+000	0.0000000E+000	0.0000000E+000	63.5083	0.0000000E+000	0.0000000E+000	0.0000000E+000	-63.5083	0.0000000E+000	0.0000000E+000	0.0000000E+000	-26.4917	0.0000000E+000	0.0000000E+000	0.0000000E+000	26.4917	2.00642	63.5083	-2.80105e-06	-0.000148343	-1.09739e-08	-0.000148332	3.97084	106307	7.86416	106299
3983.6	5.92993	3.04991	6.66829	-27.2179	11.2911	3.97109	-0.042769	13.0996	2.74033	1	10	0.00476871	0.000715133	0	-8.01138e-05	0.000160133	4.91344e-06	8.40808	0.00687067	0.00679682	-0.00100465	-27.1835	6.67387	5.93673	3.04891	0.133359	0.0685896	0.149964	27.2179	2740.33	5328.02	5991.42	-62.7821	0.0000000E+000	0.0000000E+000	0.0000000E+000	62.7821	0.0000000E+000	0.0000000E+000	0.0000000E+000	-62.7821	0.0000000E+000	0.0000000E+000	0.0000000E+000	-27.2179	0.0000000E+000	0.0000000E+000	0.0000000E+000	27.2179	1.9443	62.7821	-2.64183e-06	-0.00016984	-6.84872e-09	-0.000169833	3.97093	92849.8	3.74413	92846.1
1000.32	9.04671	5.15648	10.4131	-29.6824	13.9198	3.97112	-0.0174189	30.8552	7.56616	1	10	0.00459036	0.000440826	0	-9.27853e-05	-0.000145321	8.68414e-06	4.10425	0.0196997	0.0196492	-0.00140994	-29.6222	10.4295	9.06636	5.15507	0.0834319	0.0475548	0.0960331	29.6824	7566.16	13274.4	15279.2	-60.3176	0.0000000E+000	0.0000000E+000	0.0000000E+000	60.3176	0.0000000E+000	0.0000000E+000	0.0000000E+000	-60.3176	0.0000000E+000	0.0000000E+000	0.0000000E+000	-29.6824	0.0000000E+000	0.0000000E+000	0.0000000E+000	29.6824	1.75444	60.3176	-2.41606e-06	-6.91726e-05	2.53132e-09	-6.91751e-05	3.97127	227978	8.34271	227986
251.044	15.3132	8.07085	17.3099	-27.7916	16.621	3.97112	-0.0153626	78.5507	17.0766	1	10	0.00455487	0.000263137	0	-0.000104388	-6.89573e-05	5.84621e-06	-12.5724	0.0222174	0.0216846	0.00483612	-27.7723	17.3313	15.3348	8.07569	0.0511066	0.0269359	0.0577705	27.7916	17076.6	32400.1	36624.8	-62.2084	0.0000000E+000	0.0000000E+000	0.0000000E+000	62.2084	0.0000000E+000	0.0000000E+000	0.0000000E+000	-62.2084	0.0000000E+000	0.0000000E+000	0.0000000E+000	-27.7916	0.0000000E+000	0.0000000E+000	0.0000000E+000	27.7916	1.89734	62.2084	-2.06996e-06	-6.10066e-05	1.05936e-09	-6.10077e-05	3.97119	258493	4.48866	258498
63.0823	24.3802	7.03899	25.376	-16.1044	19.586	3.97118	-0.0168857	358.428	27.5789	1	11	0.00454406	0.000179069	0	-0.000117337	-0.000259866	3.58197e-06	-36.6194	0.0200033	0.0160549	0.0119319	-16.1202	25.3947	24.3962	7.05092	0.0378609	0.0109311	0.0394074	16.1044	27578.9	95522.1	99423.7	-73.8956	0.0000000E+000	0.0000000E+000	0.0000000E+000	73.8956	0.0000000E+000	0.0000000E+000	0.0000000E+000	-73.8956	0.0000000E+000	0.0000000E+000	0.0000000E+000	-16.1044	0.0000000E+000	0.0000000E+000	0.0000000E+000	16.1044	3.46359	73.8956	-2.1315e-06	-6.7056e-05	4.38801e-09	-6.70604e-05	3.97144	235180	15.3897	235195
15.8576	28.5057	3.13542	28.6776	-6.2769	22.2441	3.97118	-0.0173637	3201.01	38.2644	1	11	0.00454106	0.000158349	0	-0.000128258	0.000236496	1.05587e-05	-18.4473	0.06668	0.0632536	0.0210997	-6.30493	28.7428	28.5689	3.15652	0.0346614	0.00381251	0.0348705	6.2769	38264.4	347880	349978	-83.7231	0.0000000E+000	0.0000000E+000	0.0000000E+000	83.7231	0.0000000E+000	0.0000000E+000	0.0000000E+000	-83.7231	0.0000000E+000	0.0000000E+000	0.0000000E+000	-6.2769	0.0000000E+000	0.0000000E+000	0.0000000E+000	6.2769	9.09149	83.7231	-1.3495e-06	-6.89542e-05	-4.10644e-09	-6.89501e-05	3.97094	228706	13.6202	228692
3.97785	29.7765	1.64425	29.8218	-3.16065	25.1553	3.97119	-0.0147556	24333.4	73.9726	1	11	0.004543	0.000152338	0	-0.000142342	0.000236496	6.74031e-06	-28.6236	0.0442458	0.0388383	0.0211961	-3.19715	29.8618	29.8153	1.66545	0.0334815	0.00184884	0.0335325	3.16065	73972.6	1.3396e+06	1.34164e+06	-86.8393	0.0000000E+000	0.0000000E+000	0.0000000E+000	86.8393	0.0000000E+000	0.0000000E+000	0.0000000E+000	-86.8393	0.0000000E+000	0.0000000E+000	0.0000000E+000	-3.16065	0.0000000E+000	0.0000000E+000	0.0000000E+000	3.16065	18.1094	86.8393	-2.53597e-06	-5.85972e-05	-3.48964e-09	-5.85938e-05	3.97096	269132	16.0276	269115
1.00469	31.8737	1.5728	31.9124	-2.82497	240.879	3.97114	-0.0114564	100719	244.648	1	11	0.00497729	0.000155967	0	-0.00148979	4.55878e-05	1.71864e-07	2.26455	0.00110192	0.00110106	-4.35409e-05	-2.82479	31.9135	31.8748	1.57276	0.0312977	0.00154438	0.0313357	2.82497	244648	4.95791e+06	4.96394e+06	-87.175	0.0000000E+000	0.0000000E+000	0.0000000E+000	87.175	0.0000000E+000	0.0000000E+000	0.0000000E+000	-87.175	0.0000000E+000	0.0000000E+000	0.0000000E+000	-2.82497	0.0000000E+000	0.0000000E+000	0.0000000E+000	2.82497	20.2655	87.175	-0.00131878	-4.5495e-05	-5.22272e-10	-4.54944e-05	3.97109	346631	3.97924	346627
0.251173	33.1287	2.28742	33.2076	-3.94979	240.884	3.97114	-0.0114564	277014	1314.37	1	11	0.00500305	0.00015066	0	-0.00148979	4.55878e-05	2.81276e-07	-3.70599	0.00186696	0.00186306	0.000120674	-3.94978	33.2095	33.1306	2.28754	0.0300421	0.00207429	0.0301136	3.94979	1.31437e+06	1.9036e+07	1.90813e+07	-86.0502	0.0000000E+000	0.0000000E+000	0.0000000E+000	86.0502	0.0000000E+000	0.0000000E+000	0.0000000E+000	-86.0502	0.0000000E+000	0.0000000E+000	0.0000000E+000	-3.94979	0.0000000E+000	0.0000000E+000	0.0000000E+000	3.94979	14.483	86.0502	0.000000000000000E+000	-4.5495e-05	-5.22272e-10	-4.54944e-05	3.97109	346631	3.97924	346627
0.0602816	34.9641	4.69712	35.2781	-7.65139	240.889	3.97114	-0.0114564	562087	9964.49	1	11	0.00499823	0.000141681	0	-0.00148979	4.55878e-05	5.69991e-07	76.9179	0.00402306	0.000910606	-0.00391865	-7.64488	35.2785	34.965	4.6932	0.0280938	0.00377416	0.0283462	7.65139	9.96449e+06	7.41729e+07	7.48392e+07	-82.3486	0.0000000E+000	0.0000000E+000	0.0000000E+000	82.3486	0.0000000E+000	0.0000000E+000	0.0000000E+000	-82.3486	0.0000000E+000	0.0000000E+000	0.0000000E+000	-7.65139	0.0000000E+000	0.0000000E+000	0.0000000E+000	7.65139	7.44372	82.3486	0.000000000000000E+000	-4.5495e-05	-5.22272e-10	-4.54944e-05	3.97109	346631	3.97924	346627
0.00796479	45.4609	11.2058	46.8216	-13.847	20329.8	3.97116	-0.000889687	1.78321e+06	102140	1	11	0.00499369	0.000106654	0	-0.0181369	-8.80481e-05	8.54806e-08	-28.5038	0.000801479	0.000704328	0.00038248	-13.8472	46.8224	45.4616	11.2062	0.020737	0.00511152	0.0213577	13.847	1.0214e+08	4.14373e+08	4.26776e+08	-76.153	0.0000000E+000	0.0000000E+000	0.0000000E+000	76.153	0.0000000E+000	0.0000000E+000	0.0000000E+000	-76.153	0.0000000E+000	0.0000000E+000	0.0000000E+000	-13.847	0.0000000E+000	0.0000000E+000	0.0000000E+000	13.847	4.05691	76.153	-0.0166471	-3.53309e-06	7.83353e-11	-3.53317e-06	3.97125	4.46354e+06	98.9653	4.46364e+06
0.0019912	57.7011	17.2226	60.2165	-16.6193	20329.8	3.97116	-0.000889687	4.64095e+06	379641	1	11	0.00500662	8.31436e-05	0	-0.0181369	-8.80481e-05	4.96964e-07	9.73457	0.00597717	0.00589111	-0.00101065	-16.6168	60.2219	57.7069	17.2216	0.015913	0.00474972	0.0166067	16.6193	3.79641e+08	1.27192e+09	1.32736e+09	-73.3807	0.0000000E+000	0.0000000E+000	0.0000000E+000	73.3807	0.0000000E+000	0.0000000E+000	0.0000000E+000	-73.3807	0.0000000E+000	0.0000000E+000	0.0000000E+000	-16.6193	0.0000000E+000	0.0000000E+000	0.0000000E+000	16.6193	3.35031	73.3807	0.000000000000000E+000	-3.53309e-06	7.83353e-11	-3.53317e-06	3.97125	4.46354e+06	98.9653	4.46364e+06
0.000497799	68.7009	22.0283	72.1461	-17.778	20329.8	3.97116	-0.000889687	1.45139e+07	1.35307e+06	1	11	0.00500648	6.93936e-05	0	-0.0181369	-8.80481e-05	7.75975e-07	-18.3264	0.0111822	0.0106151	0.00351603	-17.778	72.1573	68.7115	22.0318	0.0131989	0.00423209	0.0138608	17.778	1.35307e+09	4.21991e+09	4.43152e+09	-72.222	0.0000000E+000	0.0000000E+000	0.0000000E+000	72.222	0.0000000E+000	0.0000000E+000	0.0000000E+000	-72.222	0.0000000E+000	0.0000000E+000	0.0000000E+000	-17.778	0.0000000E+000	0.0000000E+000	0.0000000E+000	17.778	3.11876	72.222	0.000000000000000E+000	-3.53309e-06	7.83353e-11	-3.53317e-06	3.97125	4.46354e+06	98.9653	4.46364e+06
9.95598e-05	84.8304	83.9908	119.376	-44.7151	20329.8	3.97116	-0.000889687	1.90329e+07	9.42178e+06	1	11	0.00500958	4.19647e-05	0	-0.0181369	-8.80481e-05	4.40016e-07	4.07654	0.0104854	0.0104589	-0.000745398	-44.7113	119.383	84.8409	83.9901	0.00595273	0.00589382	0.00837688	44.7151	9.42178e+09	9.51596e+09	1.33912e+10	-45.2849	0.0000000E+000	0.0000000E+000	0.0000000E+000	45.2849	0.0000000E+000	0.0000000E+000	0.0000000E+000	-45.2849	0.0000000E+000	0.0000000E+000	0.0000000E+000	-44.7151	0.0000000E+000	0.0000000E+000	0.0000000E+000	44.7151	1.01	45.2849	0.000000000000000E+000	-3.53309e-06	7.83353e-11	-3.53317e-06	3.97125	4.46354e+06	98.9653	4.46364e+06