File: txt/18802_R307_UC93_26p5_SOC50_C04.mpt
EC-Lab ASCII FILE
Nb header lines : 65

Potentio Electrochemical Impedance Spectroscopy

Run on channel : 4 (SN 66756)
Grouped channel(s) : 1, 2, 3, 4, 5
User :
CE vs. WE compliance from -10 V to 10 V
Electrode connection : standard
Potential control : Ewe
Ewe ctrl range : min = -10.00 V, max = 10.00 V
Safety Limits :
	Do not start on E overload
Acquisition started on : 11/04/2025 16:29:50.795
Loaded Setting File :  C:\Users\Celltest\OneDrive - store-dot.com\Documents\EC-Lab\Data\@Biologic Test Protocols\cathode half cell EIS SOC50.mps
Saved on :
	File : 18799_R307_UC93_26p5_SOC00_C04.mpr
	Directory : C:\Users\Celltest\OneDrive - store-dot.com\Documents\EC-Lab\Data\Anna\
	Host : 169.254.61.224
Device : VMP-3e (SN .003165)
Address : USB
EC-LAB for windows v11.62 (software)
Internet server v27.00 (firmware)
Command interpretor v12.03 (firmware)
Electrode material :
Initial state :
Electrolyte :
Comments :
Electrode surface area : 0.001 cm²
Characteristic mass : 0.001 g
Equivalent Weight : 0.000 g/eq.
Density : 0.000 g/cm3
Volume (V) : 0.001 cm³
Record Ece
Cycle Definition : Charge/Discharge alternance
Mode                Multi sine
E (V)               0.0000
vs.                 Eoc
tE (h:m:s)          0:00:0.0000
record              0
dI                  0.000
unit dI             mA
dt (s)              0.000
fi                  1.000
unit fi             MHz
ff                  0.100
unit ff             mHz
Nd                  10
Points              per decade
spacing             Logarithmic
Va (mV)             5.0
pw                  0.10
Na                  2
corr                0
E range min (V)     -10.000
E range max (V)     10.000
I Range             Auto
Bandwidth           5
nc cycles           0
goto Ns'            0
nr cycles           0
inc. cycle          0

freq/Hz	Re(Z)/Ohm	-Im(Z)/Ohm	|Z|/Ohm	Phase(Z)/deg	time/s	<Ewe>/V	<I>/mA	Cs/µF	Cp/µF	cycle number	I Range	|Ewe|/V	|I|/A	Ns	(Q-Qo)/mA.h	<Ece>/V	|Ece|/V	Phase(Zce)/deg	|Zce|/Ohm	Re(Zce)/Ohm	-Im(Zce)/Ohm	Phase(Zwe-ce)/deg	|Zwe-ce|/Ohm	Re(Zwe-ce)/Ohm	-Im(Zwe-ce)/Ohm	Re(Y)/Ohm-1	Im(Y)/Ohm-1	|Y|/Ohm-1	Phase(Y)/deg	Re(C)/nF	Im(C)/nF	|C|/nF	Phase(C)/deg	Re(M)	Im(M)	|M|	Phase(M)/deg	Re(Permittivity)	Im(Permittivity)	|Permittivity|	Phase(Permittivity)/deg	Re(Resistivity)/Ohm.cm	Im(Resistivity)/Ohm.cm	|Resistivity|/Ohm.cm	Phase(Resistivity)/deg	Re(Conductivity)/mS/cm	Im(Conductivity)/mS/cm	|Conductivity|/mS/cm	Phase(Conductivity)/deg	Tan(Delta)	Loss Angle(Delta)/deg	dq/mA.h	Pwe/W	Pce/W	Pwe-ce/W	<Ewe-Ece>/V	Rwe/Ohm	Rce/Ohm	Rwe-ce/Ohm		Ewe-Ece/V
1.00002e+06	3.50212	1.75527	3.91737	-26.6201	2.23453	3.96664	0.0119865	0.090671	0.0182039	1	10	0.000251731	6.42602e-05	0	-2.14967e-06	-0.000568162	0.000178425	-68.1126	2.77661	1.03508	2.57647	-43.6729	6.27297	4.5372	4.33174	0.228213	0.114381	0.255273	26.6201	18.2039	36.3206	40.6272	-63.3799	0.0000000E+000	0.0000000E+000	0.0000000E+000	63.3799	0.0000000E+000	0.0000000E+000	0.0000000E+000	-63.3799	0.0000000E+000	0.0000000E+000	0.0000000E+000	-26.6201	0.0000000E+000	0.0000000E+000	0.0000000E+000	26.6201	1.9952	63.3799	-2.14967e-06	4.75462e-05	-6.81028e-09	4.75531e-05	3.96721	330925	47.4	330973
199544	1.49599	0.435298	1.55804	-16.2237	5.32254	3.96518	-0.0795777	1.8323	0.143026	1	9	0.00510671	0.00327766	0	-5.23868e-05	-0.000147743	4.91475e-05	75.9753	0.0149947	0.00363383	-0.0145477	-15.6725	1.55753	1.49963	0.42075	0.616275	0.179321	0.641834	16.2237	143.026	491.538	511.923	-73.7763	0.0000000E+000	0.0000000E+000	0.0000000E+000	73.7763	0.0000000E+000	0.0000000E+000	0.0000000E+000	-73.7763	0.0000000E+000	0.0000000E+000	0.0000000E+000	-16.2237	0.0000000E+000	0.0000000E+000	0.0000000E+000	16.2237	3.43671	73.7763	-9.43525e-06	-0.00031554	1.1757e-08	-0.000315552	3.96533	49827.8	1.85658	49829.6
39814.1	2.22837	1.12906	2.49808	-26.8702	8.25554	3.96513	-0.0550734	3.54052	0.723247	1	9	0.0050032	0.00200282	0	-9.77371e-05	-0.000166852	1.35305e-05	14.3196	0.00675572	0.00654583	-0.0016709	-26.7683	2.50317	2.23492	1.12739	0.357087	0.180927	0.400307	26.8702	723.247	1427.44	1600.21	-63.1298	0.0000000E+000	0.0000000E+000	0.0000000E+000	63.1298	0.0000000E+000	0.0000000E+000	0.0000000E+000	-63.1298	0.0000000E+000	0.0000000E+000	0.0000000E+000	-26.8702	0.0000000E+000	0.0000000E+000	0.0000000E+000	26.8702	1.97365	63.1298	-1.57124e-05	-0.000218373	9.18914e-09	-0.000218383	3.9653	71997.2	3.02964	72000.2
0.0000000E+000	0.0000000E+000	0.0000000E+000	0.0000000E+000	0.0000000E+000	0.000000000000000E+000	0.0000000E+000	0.0000000E+000	0.0000000E+000	0.0000000E+000	0.000000000000000E+000	0	0.0000000E+000	0.0000000E+000	0	0.000000000000000E+000	0.0000000E+000	0.0000000E+000	0.0000000E+000	0.0000000E+000	0.0000000E+000	0.0000000E+000	0.0000000E+000	0.0000000E+000	0.0000000E+000	0.0000000E+000	0.0000000E+000	0.0000000E+000	0.0000000E+000	0.0000000E+000	0.0000000E+000	0.0000000E+000	0.0000000E+000	-90	0.0000000E+000	0.0000000E+000	0.0000000E+000	90	0.0000000E+000	0.0000000E+000	0.0000000E+000	-90	0.0000000E+000	0.0000000E+000	0.0000000E+000	0.0000000E+000	0.0000000E+000	0.0000000E+000	0.0000000E+000	0.0000000E+000	0.0000000E+000	90	0.000000000000000E+000	0.0000000E+000	0.0000000E+000	0.0000000E+000	0.0000000E+000	0.0000000E+000	0.0000000E+000	0.0000000E+000
1585.51	6.13972	4.06834	7.36529	-33.5295	13.3948	3.96505	-0.0246214	24.6737	7.52817	1	10	0.00473001	0.000642203	0	-0.0001608	-0.000396172	8.0918e-06	-4.26771	0.0126001	0.0125651	0.000937656	-33.4817	7.37629	6.15228	4.06928	0.11318	0.0749959	0.135772	33.5295	7528.17	11361.1	13628.9	-56.4705	0.0000000E+000	0.0000000E+000	0.0000000E+000	56.4705	0.0000000E+000	0.0000000E+000	0.0000000E+000	-56.4705	0.0000000E+000	0.0000000E+000	0.0000000E+000	-33.5295	0.0000000E+000	0.0000000E+000	0.0000000E+000	33.5295	1.50914	56.4705	-2.79374e-06	-9.76252e-05	9.75431e-09	-9.7635e-05	3.96545	161041	16.0905	161057
1000.32	7.38428	5.0081	8.92237	-34.1456	14.2968	3.96505	-0.0239388	31.7693	10.0091	1	10	0.00468589	0.000525184	0	-0.00016668	-0.000109523	4.9911e-06	94.837	0.00950352	-0.000801351	-0.00946967	-34.0981	8.91639	7.38348	4.99863	0.0927572	0.062909	0.112078	34.1456	10009.1	14758	17832	-55.8544	0.0000000E+000	0.0000000E+000	0.0000000E+000	55.8544	0.0000000E+000	0.0000000E+000	0.0000000E+000	-55.8544	0.0000000E+000	0.0000000E+000	0.0000000E+000	-34.1456	0.0000000E+000	0.0000000E+000	0.0000000E+000	34.1456	1.47447	55.8544	-2.68339e-06	-9.49186e-05	2.62184e-09	-9.49212e-05	3.96516	165633	4.57511	165637
199.553	15.1634	7.61792	16.9694	-26.6744	17.4483	3.96504	-0.0236217	104.695	21.0991	1	10	0.00462091	0.000272308	0	-0.000187268	-0.000396172	5.89859e-06	-35.1728	0.0216615	0.0177065	0.012478	-26.6852	16.9908	15.1811	7.6304	0.0526578	0.0264547	0.0589295	26.6744	21099.1	41997.6	46999.7	-63.3256	0.0000000E+000	0.0000000E+000	0.0000000E+000	63.3256	0.0000000E+000	0.0000000E+000	0.0000000E+000	-63.3256	0.0000000E+000	0.0000000E+000	0.0000000E+000	-26.6744	0.0000000E+000	0.0000000E+000	0.0000000E+000	26.6744	1.99049	63.3256	-3.17857e-06	-9.36612e-05	9.35827e-09	-9.36706e-05	3.96544	167856	16.7715	167872
39.8089	23.0317	4.46439	23.4603	-10.97	20.8648	3.9651	-0.0165686	895.524	32.429	1	11	0.00462572	0.000197172	0	-0.000205982	-9.04127e-05	3.56301e-06	50.516	0.0180706	0.0114904	-0.0139469	-10.9313	23.469	23.0431	4.45045	0.0418462	0.00811136	0.0426251	10.97	32429	167300	170414	-79.03	0.0000000E+000	0.0000000E+000	0.0000000E+000	79.03	0.0000000E+000	0.0000000E+000	0.0000000E+000	-79.03	0.0000000E+000	0.0000000E+000	0.0000000E+000	-10.97	0.0000000E+000	0.0000000E+000	0.0000000E+000	10.97	5.15897	79.03	-1.90015e-06	-6.56962e-05	1.49801e-09	-6.56977e-05	3.96519	239314	5.45686	239319
7.93953	25.6609	1.60275	25.7109	-3.574	24.1628	3.96512	-0.0159577	12507.1	48.6025	1	11	0.0046208	0.000179722	0	-0.000219179	-0.000109523	5.34644e-06	-39.176	0.0297485	0.0230613	0.0187923	-3.61256	25.7351	25.6839	1.62155	0.0388184	0.00242456	0.0388941	3.574	48602.5	778150	779666	-86.426	0.0000000E+000	0.0000000E+000	0.0000000E+000	86.426	0.0000000E+000	0.0000000E+000	0.0000000E+000	-86.426	0.0000000E+000	0.0000000E+000	0.0000000E+000	-3.574	0.0000000E+000	0.0000000E+000	0.0000000E+000	3.574	16.0105	86.426	-8.44225e-07	-6.32742e-05	1.74773e-09	-6.32759e-05	3.96523	248477	6.8633	248483
1.58469	25.8922	1.27724	25.9237	-2.82405	29.5284	3.96512	-0.0155436	78633.1	190.877	1	11	0.00462504	0.000178409	0	-0.000247091	-0.000357952	5.99947e-06	-32.5791	0.0336275	0.0283362	0.0181072	-2.8609	25.9529	25.9206	1.29534	0.0385279	0.00190054	0.0385747	2.82405	190877	3.86947e+06	3.87418e+06	-87.1759	0.0000000E+000	0.0000000E+000	0.0000000E+000	87.1759	0.0000000E+000	0.0000000E+000	0.0000000E+000	-87.1759	0.0000000E+000	0.0000000E+000	0.0000000E+000	-2.82405	0.0000000E+000	0.0000000E+000	0.0000000E+000	2.82405	20.2721	87.1759	-8.24882e-06	-6.16324e-05	5.56387e-09	-6.16379e-05	3.96548	255096	23.0289	255119
0.311455	27.2348	1.8306	27.2962	-3.84537	241.262	3.96508	-0.013448	279147	1255.48	1	11	0.00508052	0.000186125	0	-0.00180538	-0.000243292	3.05149e-07	-32.6414	0.00163948	0.00138054	0.000884302	-3.84703	27.2977	27.2362	1.83148	0.0365526	0.0024569	0.0366351	3.84537	1.25548e+06	1.86785e+07	1.87207e+07	-86.1546	0.0000000E+000	0.0000000E+000	0.0000000E+000	86.1546	0.0000000E+000	0.0000000E+000	0.0000000E+000	-86.1546	0.0000000E+000	0.0000000E+000	0.0000000E+000	-3.84537	0.0000000E+000	0.0000000E+000	0.0000000E+000	3.84537	14.8776	86.1546	0.000000000000000E+000	-5.33224e-05	3.2718e-09	-5.33257e-05	3.96532	294845	18.0913	294863
0.0602816	29.4618	3.8028	29.7062	-7.35483	241.266	3.96508	-0.013448	694275	11377.4	1	11	0.00508241	0.000171089	0	-0.00180538	-0.000243292	9.38888e-07	58.4413	0.00548771	0.00287211	-0.0046761	-7.34517	29.7085	29.4647	3.79813	0.033386	0.00430933	0.033663	7.35483	1.13774e+07	8.81455e+07	8.88767e+07	-82.6452	0.0000000E+000	0.0000000E+000	0.0000000E+000	82.6452	0.0000000E+000	0.0000000E+000	0.0000000E+000	-82.6452	0.0000000E+000	0.0000000E+000	0.0000000E+000	-7.35483	0.0000000E+000	0.0000000E+000	0.0000000E+000	7.35483	7.74739	82.6452	0.000000000000000E+000	-5.33224e-05	3.2718e-09	-5.33257e-05	3.96532	294845	18.0913	294863
0.00627227	38.1582	8.9514	39.1941	-13.2021	20330.2	3.96509	-0.000721878	2.83468e+06	147858	1	11	0.00507947	0.000129598	0	-0.0144063	-1.39728e-05	2.80807e-07	-16.4187	0.00216676	0.0020784	0.000612442	-13.2023	39.1963	38.1603	8.95201	0.0248397	0.00582706	0.025514	13.2021	1.47858e+08	6.30293e+08	6.47403e+08	-76.7979	0.0000000E+000	0.0000000E+000	0.0000000E+000	76.7979	0.0000000E+000	0.0000000E+000	0.0000000E+000	-76.7979	0.0000000E+000	0.0000000E+000	0.0000000E+000	-13.2021	0.0000000E+000	0.0000000E+000	0.0000000E+000	13.2021	4.26282	76.7979	0.000000000000000E+000	-2.86231e-06	1.00867e-11	-2.86232e-06	3.9651	5.49274e+06	19.3562	5.49276e+06
0.00129428	45.9814	12.7307	47.7112	-15.4756	20330.2	3.96509	-0.000721878	9.65919e+06	687709	1	11	0.00508974	0.000106678	0	-0.0144063	-1.39728e-05	1.58158e-06	0.783399	0.0148257	0.0148243	-0.000202704	-15.4706	47.7254	45.9962	12.7305	0.0201995	0.00559257	0.0209595	15.4756	6.87708e+08	2.4839e+09	2.57734e+09	-74.5244	0.0000000E+000	0.0000000E+000	0.0000000E+000	74.5244	0.0000000E+000	0.0000000E+000	0.0000000E+000	-74.5244	0.0000000E+000	0.0000000E+000	0.0000000E+000	-15.4756	0.0000000E+000	0.0000000E+000	0.0000000E+000	15.4756	3.61185	74.5244	0.000000000000000E+000	-2.86231e-06	1.00867e-11	-2.86232e-06	3.9651	5.49274e+06	19.3562	5.49276e+06
0.00019912	51.5366	41.4782	66.1548	-38.8282	20330.2	3.96509	-0.000721878	1.92702e+07	7.57536e+06	1	11	0.00509285	7.69838e-05	0	-0.0144063	-1.39728e-05	2.81108e-06	-0.623038	0.0365151	0.036513	0.00039706	-38.8086	66.1835	51.5731	41.4786	0.0117759	0.00947757	0.0151161	38.8282	7.57536e+09	9.41236e+09	1.20822e+10	-51.1718	0.0000000E+000	0.0000000E+000	0.0000000E+000	51.1718	0.0000000E+000	0.0000000E+000	0.0000000E+000	-51.1718	0.0000000E+000	0.0000000E+000	0.0000000E+000	-38.8282	0.0000000E+000	0.0000000E+000	0.0000000E+000	38.8282	1.2425	51.1718	0.000000000000000E+000	-2.86231e-06	1.00867e-11	-2.86232e-06	3.9651	5.49274e+06	19.3562	5.49276e+06
9.95598e-05	60.8273	85.2282	104.708	-54.4846	20330.2	3.96509	-0.000721878	1.87565e+07	1.24268e+07	1	11	0.00508642	4.85772e-05	0	-0.0144063	-1.39728e-05	3.46623e-06	-15.4439	0.0713551	0.0687786	0.0190015	-54.46	104.764	60.896	85.2472	0.00554801	0.0077736	0.00955036	54.4846	1.24268e+10	8.86897e+09	1.52671e+10	-35.5154	0.0000000E+000	0.0000000E+000	0.0000000E+000	35.5154	0.0000000E+000	0.0000000E+000	0.0000000E+000	-35.5154	0.0000000E+000	0.0000000E+000	0.0000000E+000	-54.4846	0.0000000E+000	0.0000000E+000	0.0000000E+000	54.4846	0.713699	35.5154	0.000000000000000E+000	-2.86231e-06	1.00867e-11	-2.86232e-06	3.9651	5.49274e+06	19.3562	5.49276e+06