File: txt/18803_R307_UC93_26p5_SOC50_C05.mpt
EC-Lab ASCII FILE
Nb header lines : 65

Potentio Electrochemical Impedance Spectroscopy

Run on channel : 5 (SN 65912)
Grouped channel(s) : 1, 2, 3, 4, 5
User :
CE vs. WE compliance from -10 V to 10 V
Electrode connection : standard
Potential control : Ewe
Ewe ctrl range : min = -10.00 V, max = 10.00 V
Safety Limits :
	Do not start on E overload
Acquisition started on : 11/04/2025 16:29:50.795
Loaded Setting File :  C:\Users\Celltest\OneDrive - store-dot.com\Documents\EC-Lab\Data\@Biologic Test Protocols\cathode half cell EIS SOC50.mps
Saved on :
	File : 18799_R307_UC93_26p5_SOC00_C05.mpr
	Directory : C:\Users\Celltest\OneDrive - store-dot.com\Documents\EC-Lab\Data\Anna\
	Host : 169.254.61.224
Device : VMP-3e (SN .003165)
Address : USB
EC-LAB for windows v11.62 (software)
Internet server v27.00 (firmware)
Command interpretor v12.03 (firmware)
Electrode material :
Initial state :
Electrolyte :
Comments :
Electrode surface area : 0.001 cm²
Characteristic mass : 0.001 g
Equivalent Weight : 0.000 g/eq.
Density : 0.000 g/cm3
Volume (V) : 0.001 cm³
Record Ece
Cycle Definition : Charge/Discharge alternance
Mode                Multi sine
E (V)               0.0000
vs.                 Eoc
tE (h:m:s)          0:00:0.0000
record              0
dI                  0.000
unit dI             mA
dt (s)              0.000
fi                  1.000
unit fi             MHz
ff                  0.100
unit ff             mHz
Nd                  10
Points              per decade
spacing             Logarithmic
Va (mV)             5.0
pw                  0.10
Na                  2
corr                0
E range min (V)     -10.000
E range max (V)     10.000
I Range             Auto
Bandwidth           5
nc cycles           0
goto Ns'            0
nr cycles           0
inc. cycle          0

freq/Hz	Re(Z)/Ohm	-Im(Z)/Ohm	|Z|/Ohm	Phase(Z)/deg	time/s	<Ewe>/V	<I>/mA	Cs/µF	Cp/µF	cycle number	I Range	|Ewe|/V	|I|/A	Ns	(Q-Qo)/mA.h	<Ece>/V	|Ece|/V	Phase(Zce)/deg	|Zce|/Ohm	Re(Zce)/Ohm	-Im(Zce)/Ohm	Phase(Zwe-ce)/deg	|Zwe-ce|/Ohm	Re(Zwe-ce)/Ohm	-Im(Zwe-ce)/Ohm	Re(Y)/Ohm-1	Im(Y)/Ohm-1	|Y|/Ohm-1	Phase(Y)/deg	Re(C)/nF	Im(C)/nF	|C|/nF	Phase(C)/deg	Re(M)	Im(M)	|M|	Phase(M)/deg	Re(Permittivity)	Im(Permittivity)	|Permittivity|	Phase(Permittivity)/deg	Re(Resistivity)/Ohm.cm	Im(Resistivity)/Ohm.cm	|Resistivity|/Ohm.cm	Phase(Resistivity)/deg	Re(Conductivity)/mS/cm	Im(Conductivity)/mS/cm	|Conductivity|/mS/cm	Phase(Conductivity)/deg	Tan(Delta)	Loss Angle(Delta)/deg	dq/mA.h	Pwe/W	Pce/W	Pwe-ce/W	<Ewe-Ece>/V	Rwe/Ohm	Rce/Ohm	Rwe-ce/Ohm		Ewe-Ece/V
1.00002e+06	0.925626	-0.465288	1.03599	26.6875	2.69456	3.96311	-0.0101136	-0.34205	-0.0689958	1	9	0.0002278	0.000219886	0	4.50901e-06	0.000131509	0.000188149	-1.59551	0.855665	0.855334	0.0238245	13.9219	1.83486	1.78096	-0.441464	0.86243	-0.433522	0.96526	-26.6875	-68.9958	137.258	153.623	-116.688	0.0000000E+000	0.0000000E+000	0.0000000E+000	116.688	0.0000000E+000	0.0000000E+000	0.0000000E+000	-116.688	0.0000000E+000	0.0000000E+000	0.0000000E+000	26.6875	0.0000000E+000	0.0000000E+000	0.0000000E+000	-26.6875	1.98936	63.3125	4.50901e-06	-4.00812e-05	-1.33002e-09	-4.00799e-05	3.96298	391860	13.0032	391847
251206	1.51478	0.304367	1.54506	-11.3612	4.99453	3.96152	-0.0449327	2.08157	0.0807788	1	9	0.00423205	0.00273909	0	-2.09401e-05	0.0001506	4.26285e-05	99.9289	0.015563	-0.00268348	-0.0153299	-10.8215	1.53948	1.5121	0.289037	0.634542	0.127499	0.647224	11.3612	80.7788	402.022	410.057	-78.6388	0.0000000E+000	0.0000000E+000	0.0000000E+000	78.6388	0.0000000E+000	0.0000000E+000	0.0000000E+000	-78.6388	0.0000000E+000	0.0000000E+000	0.0000000E+000	-11.3612	0.0000000E+000	0.0000000E+000	0.0000000E+000	11.3612	4.97683	78.6388	-6.46992e-06	-0.000178002	-6.76686e-09	-0.000177995	3.96136	88165.5	3.35167	88162.1
63093.8	1.96973	0.834163	2.13908	-22.9522	7.29255	3.96126	-0.0357717	3.024	0.459866	1	9	0.00547402	0.00255906	0	-3.81167e-05	-4.03124e-05	2.16624e-05	85.982	0.00846501	0.000593136	-0.00844421	-22.7375	2.13635	1.97032	0.825719	0.43048	0.182305	0.467491	22.9522	459.866	1085.89	1179.25	-67.0478	0.0000000E+000	0.0000000E+000	0.0000000E+000	67.0478	0.0000000E+000	0.0000000E+000	0.0000000E+000	-67.0478	0.0000000E+000	0.0000000E+000	0.0000000E+000	-22.9522	0.0000000E+000	0.0000000E+000	0.0000000E+000	22.9522	2.36132	67.0478	-1.28916e-06	-0.000141701	1.44204e-09	-0.000141703	3.9613	110737	1.12693	110738
15847.7	2.91593	1.61257	3.33212	-28.9435	9.71556	3.96116	-0.0877213	6.22783	1.45858	1	9	0.00503032	0.00150965	0	-6.11472e-05	-5.94036e-05	1.00315e-05	-2.54364	0.00664491	0.00663836	0.000294904	-28.8927	3.33807	2.92257	1.61286	0.262625	0.145237	0.300109	28.9435	1458.58	2637.49	3013.94	-61.0565	0.0000000E+000	0.0000000E+000	0.0000000E+000	61.0565	0.0000000E+000	0.0000000E+000	0.0000000E+000	-61.0565	0.0000000E+000	0.0000000E+000	0.0000000E+000	-28.9435	0.0000000E+000	0.0000000E+000	0.0000000E+000	28.9435	1.80825	61.0565	-5.37183e-06	-0.000347478	5.21096e-09	-0.000347483	3.96122	45156.2	0.677186	45156.9
3983.6	4.43193	2.88959	5.29073	-33.1041	11.5951	3.96117	-0.0418049	13.8264	4.1243	1	10	0.00499271	0.000943671	0	-7.68548e-05	0.000226965	8.57449e-06	-62.6847	0.00908631	0.00416959	0.00807314	-33.1526	5.29863	4.4361	2.89767	0.15833	0.10323	0.18901	33.1041	4124.3	6325.68	7551.43	-56.8959	0.0000000E+000	0.0000000E+000	0.0000000E+000	56.8959	0.0000000E+000	0.0000000E+000	0.0000000E+000	-56.8959	0.0000000E+000	0.0000000E+000	0.0000000E+000	-33.1041	0.0000000E+000	0.0000000E+000	0.0000000E+000	33.1041	1.53376	56.8959	-3.82006e-06	-0.000165596	-9.48823e-09	-0.000165587	3.96094	94753.8	5.42914	94748.4
1000.32	7.56266	5.65834	9.44514	-36.8036	14.2238	3.96118	-0.0164038	28.1185	10.0915	1	10	0.0046906	0.000496616	0	-9.11763e-05	-4.03124e-05	1.0059e-05	27.2622	0.0202551	0.0180052	-0.00927811	-36.6933	9.45401	7.58066	5.64906	0.0847731	0.0634268	0.105875	36.8036	10091.5	13487.7	16845.1	-53.1964	0.0000000E+000	0.0000000E+000	0.0000000E+000	53.1964	0.0000000E+000	0.0000000E+000	0.0000000E+000	-53.1964	0.0000000E+000	0.0000000E+000	0.0000000E+000	-36.8036	0.0000000E+000	0.0000000E+000	0.0000000E+000	36.8036	1.33655	53.1964	-1.71582e-06	-6.49783e-05	6.61275e-10	-6.4979e-05	3.96122	241480	2.45751	241482
251.044	15.0301	8.63917	17.3361	-29.8899	16.9231	3.96118	-0.017383	73.3834	18.2239	1	10	0.00463831	0.000267552	0	-0.000102821	-2.12997e-06	1.54057e-05	8.30591	0.0575801	0.0569761	-0.00831792	-29.7725	17.3814	15.0871	8.63085	0.0500105	0.0287455	0.0576832	29.8899	18223.9	31705.2	36569.5	-60.1101	0.0000000E+000	0.0000000E+000	0.0000000E+000	60.1101	0.0000000E+000	0.0000000E+000	0.0000000E+000	-60.1101	0.0000000E+000	0.0000000E+000	0.0000000E+000	-29.8899	0.0000000E+000	0.0000000E+000	0.0000000E+000	29.8899	1.73976	60.1101	-2.07439e-06	-6.88573e-05	3.70253e-11	-6.88573e-05	3.96118	227876	0.122531	227876
63.0823	23.7017	6.23704	24.5086	-14.743	19.8869	3.96123	-0.014329	404.514	26.1971	1	11	0.00463399	0.000189076	0	-0.000114353	9.33261e-05	3.77553e-06	17.8466	0.0199683	0.0190075	-0.00611969	-14.7179	24.5255	23.7207	6.23092	0.0394586	0.0103834	0.0408019	14.743	26197.1	99553.1	102942	-75.257	0.0000000E+000	0.0000000E+000	0.0000000E+000	75.257	0.0000000E+000	0.0000000E+000	0.0000000E+000	-75.257	0.0000000E+000	0.0000000E+000	0.0000000E+000	-14.743	0.0000000E+000	0.0000000E+000	0.0000000E+000	14.743	3.80016	75.257	-1.69522e-06	-5.67603e-05	-1.33727e-09	-5.67589e-05	3.96114	276449	6.51312	276443
15.8576	26.8397	2.63758	26.969	-5.61253	22.5471	3.96121	-0.0148398	3805.2	36.3965	1	11	0.00462112	0.000171349	0	-0.000124123	-0.00015486	1.35624e-05	50.4022	0.0791509	0.0504504	-0.0609888	-5.47332	27.0133	26.8902	2.5766	0.0369018	0.0036264	0.0370796	5.61253	36396.5	370366	372150	-84.3875	0.0000000E+000	0.0000000E+000	0.0000000E+000	84.3875	0.0000000E+000	0.0000000E+000	0.0000000E+000	-84.3875	0.0000000E+000	0.0000000E+000	0.0000000E+000	-5.61253	0.0000000E+000	0.0000000E+000	0.0000000E+000	5.61253	10.1759	84.3875	-1.51054e-06	-5.87834e-05	2.29808e-09	-5.87857e-05	3.96136	266932	10.4354	266942
3.97785	27.8801	1.33454	27.912	-2.74049	25.4584	3.96123	-0.0126786	29980.6	68.5364	1	11	0.0046284	0.000165821	0	-0.000137136	-4.03124e-05	3.05242e-06	91.2642	0.0184079	-0.000406126	-0.0184034	-2.7028	27.9107	27.8797	1.31614	0.0357859	0.00171297	0.0358269	2.74049	68536.4	1.43181e+06	1.43344e+06	-87.2595	0.0000000E+000	0.0000000E+000	0.0000000E+000	87.2595	0.0000000E+000	0.0000000E+000	0.0000000E+000	-87.2595	0.0000000E+000	0.0000000E+000	0.0000000E+000	-2.74049	0.0000000E+000	0.0000000E+000	0.0000000E+000	2.74049	20.8912	87.2595	-3.64796e-06	-5.0223e-05	5.11106e-10	-5.02235e-05	3.96127	312433	3.17955	312436
1.00469	28.5729	1.31844	28.6033	-2.64192	241.182	3.96121	-0.011804	120151	255.278	1	11	0.00507492	0.000177424	0	-0.00154942	0.000131509	4.77761e-07	5.57517	0.00269276	0.00268002	-0.000261606	-2.64115	28.606	28.5756	1.31818	0.0349238	0.00161149	0.0349609	2.64192	255278	5.53233e+06	5.53821e+06	-87.3581	0.0000000E+000	0.0000000E+000	0.0000000E+000	87.3581	0.0000000E+000	0.0000000E+000	0.0000000E+000	-87.3581	0.0000000E+000	0.0000000E+000	0.0000000E+000	-2.64192	0.0000000E+000	0.0000000E+000	0.0000000E+000	2.64192	21.6718	87.3581	-0.0013898	-4.6758e-05	-1.55233e-09	-4.67565e-05	3.96107	335582	11.141	335571
0.251173	29.7076	2.12893	29.7838	-4.09897	241.185	3.96121	-0.011804	297635	1520.72	1	11	0.00510397	0.000171367	0	-0.00154942	0.000131509	5.83584e-07	-2.8401	0.00340545	0.00340127	0.000168736	-4.09883	29.7872	29.711	2.1291	0.0334894	0.00239995	0.0335753	4.09897	1.52072e+06	2.12204e+07	2.12748e+07	-85.901	0.0000000E+000	0.0000000E+000	0.0000000E+000	85.901	0.0000000E+000	0.0000000E+000	0.0000000E+000	-85.901	0.0000000E+000	0.0000000E+000	0.0000000E+000	-4.09897	0.0000000E+000	0.0000000E+000	0.0000000E+000	4.09897	13.9542	85.901	0.000000000000000E+000	-4.6758e-05	-1.55233e-09	-4.67565e-05	3.96107	335582	11.141	335571
0.0602816	31.8051	3.99089	32.0545	-7.15207	241.189	3.96121	-0.011804	661555	10254.8	1	11	0.00509505	0.00015895	0	-0.00154942	0.000131509	5.6194e-07	72.1611	0.00353534	0.00108302	-0.00336537	-7.14586	32.0551	31.8062	3.98752	0.0309541	0.00388411	0.0311969	7.15207	1.02548e+07	8.17248e+07	8.23657e+07	-82.8479	0.0000000E+000	0.0000000E+000	0.0000000E+000	82.8479	0.0000000E+000	0.0000000E+000	0.0000000E+000	-82.8479	0.0000000E+000	0.0000000E+000	0.0000000E+000	-7.15207	0.0000000E+000	0.0000000E+000	0.0000000E+000	7.15207	7.96943	82.8479	0.000000000000000E+000	-4.6758e-05	-1.55233e-09	-4.67565e-05	3.96107	335582	11.141	335571
0.00796479	40.1322	8.04981	40.9316	-11.342	20330.1	3.96121	-0.00097872	2.48233e+06	96009.7	1	11	0.00508827	0.000124312	0	-0.0155438	0.000207873	4.63971e-07	-158.286	0.00373232	-0.00346747	0.00138088	-11.3449	40.9284	40.1287	8.05119	0.0239539	0.00480473	0.024431	11.342	9.60097e+07	4.78655e+08	4.88189e+08	-78.658	0.0000000E+000	0.0000000E+000	0.0000000E+000	78.658	0.0000000E+000	0.0000000E+000	0.0000000E+000	-78.658	0.0000000E+000	0.0000000E+000	0.0000000E+000	-11.342	0.0000000E+000	0.0000000E+000	0.0000000E+000	11.342	4.98548	78.658	-0.0139944	-3.87692e-06	-2.0345e-10	-3.87671e-06	3.961	4.04734e+06	212.393	4.04713e+06
0.0019912	47.7218	11.4023	49.0651	-13.4379	20330.1	3.96121	-0.00097872	7.00992e+06	378576	1	11	0.0051001	0.000103945	0	-0.0155438	0.000207873	3.57485e-07	-100.58	0.00343916	-0.000631457	0.00338069	-13.4419	49.0653	47.7212	11.4057	0.0198231	0.00473639	0.0203811	13.4379	3.78576e+08	1.58445e+09	1.62904e+09	-76.5621	0.0000000E+000	0.0000000E+000	0.0000000E+000	76.5621	0.0000000E+000	0.0000000E+000	0.0000000E+000	-76.5621	0.0000000E+000	0.0000000E+000	0.0000000E+000	-13.4379	0.0000000E+000	0.0000000E+000	0.0000000E+000	13.4379	4.18528	76.5621	0.000000000000000E+000	-3.87692e-06	-2.0345e-10	-3.87671e-06	3.961	4.04734e+06	212.393	4.04713e+06
0.000497799	52.9983	18.6082	56.1701	-19.3466	20330.1	3.96121	-0.00097872	1.71815e+07	1.88564e+06	1	11	0.00510103	9.08139e-05	0	-0.0155438	0.000207873	1.04154e-06	-103.883	0.0114689	-0.00275193	0.0111339	-19.3583	56.1712	52.9955	18.6193	0.0167978	0.00589785	0.0178031	19.3466	1.88564e+09	5.37053e+09	5.69195e+09	-70.6534	0.0000000E+000	0.0000000E+000	0.0000000E+000	70.6534	0.0000000E+000	0.0000000E+000	0.0000000E+000	-70.6534	0.0000000E+000	0.0000000E+000	0.0000000E+000	-19.3466	0.0000000E+000	0.0000000E+000	0.0000000E+000	19.3466	2.84812	70.6534	0.000000000000000E+000	-3.87692e-06	-2.0345e-10	-3.87671e-06	3.961	4.04734e+06	212.393	4.04713e+06
9.95598e-05	62.9955	84.29	105.23	-53.2268	20330.1	3.96121	-0.00097872	1.89653e+07	1.21685e+07	1	11	0.00509951	4.84609e-05	0	-0.0155438	0.000207873	1.15774e-06	87.2449	0.0238902	0.00114831	-0.0238626	-53.2185	105.211	62.9967	84.2662	0.00568898	0.00761204	0.00950304	53.2268	1.21685e+10	9.09433e+09	1.51914e+10	-36.7732	0.0000000E+000	0.0000000E+000	0.0000000E+000	36.7732	0.0000000E+000	0.0000000E+000	0.0000000E+000	-36.7732	0.0000000E+000	0.0000000E+000	0.0000000E+000	-53.2268	0.0000000E+000	0.0000000E+000	0.0000000E+000	53.2268	0.747366	36.7732	0.000000000000000E+000	-3.87692e-06	-2.0345e-10	-3.87671e-06	3.961	4.04734e+06	212.393	4.04713e+06