File: txt/18800_R307_UC93_26p5_SOC50_C02.mpt
EC-Lab ASCII FILE
Nb header lines : 65

Potentio Electrochemical Impedance Spectroscopy

Run on channel : 2 (SN 66139)
Grouped channel(s) : 1, 2, 3, 4, 5
User :
CE vs. WE compliance from -10 V to 10 V
Electrode connection : standard
Potential control : Ewe
Ewe ctrl range : min = -10.00 V, max = 10.00 V
Safety Limits :
	Do not start on E overload
Acquisition started on : 11/04/2025 16:29:50.795
Loaded Setting File :  C:\Users\Celltest\OneDrive - store-dot.com\Documents\EC-Lab\Data\@Biologic Test Protocols\cathode half cell EIS SOC50.mps
Saved on :
	File : 18799_R307_UC93_26p5_SOC00_C02.mpr
	Directory : C:\Users\Celltest\OneDrive - store-dot.com\Documents\EC-Lab\Data\Anna\
	Host : 169.254.61.224
Device : VMP-3e (SN .003165)
Address : USB
EC-LAB for windows v11.62 (software)
Internet server v27.00 (firmware)
Command interpretor v12.03 (firmware)
Electrode material :
Initial state :
Electrolyte :
Comments :
Electrode surface area : 0.001 cm²
Characteristic mass : 0.001 g
Equivalent Weight : 0.000 g/eq.
Density : 0.000 g/cm3
Volume (V) : 0.001 cm³
Record Ece
Cycle Definition : Charge/Discharge alternance
Mode                Multi sine
E (V)               0.0000
vs.                 Eoc
tE (h:m:s)          0:00:0.0000
record              0
dI                  0.000
unit dI             mA
dt (s)              0.000
fi                  1.000
unit fi             MHz
ff                  0.100
unit ff             mHz
Nd                  10
Points              per decade
spacing             Logarithmic
Va (mV)             5.0
pw                  0.10
Na                  2
corr                0
E range min (V)     -10.000
E range max (V)     10.000
I Range             Auto
Bandwidth           5
nc cycles           0
goto Ns'            0
nr cycles           0
inc. cycle          0

freq/Hz	Re(Z)/Ohm	-Im(Z)/Ohm	|Z|/Ohm	Phase(Z)/deg	time/s	<Ewe>/V	<I>/mA	Cs/µF	Cp/µF	cycle number	I Range	|Ewe|/V	|I|/A	Ns	(Q-Qo)/mA.h	<Ece>/V	|Ece|/V	Phase(Zce)/deg	|Zce|/Ohm	Re(Zce)/Ohm	-Im(Zce)/Ohm	Phase(Zwe-ce)/deg	|Zwe-ce|/Ohm	Re(Zwe-ce)/Ohm	-Im(Zwe-ce)/Ohm	Re(Y)/Ohm-1	Im(Y)/Ohm-1	|Y|/Ohm-1	Phase(Y)/deg	Re(C)/nF	Im(C)/nF	|C|/nF	Phase(C)/deg	Re(M)	Im(M)	|M|	Phase(M)/deg	Re(Permittivity)	Im(Permittivity)	|Permittivity|	Phase(Permittivity)/deg	Re(Resistivity)/Ohm.cm	Im(Resistivity)/Ohm.cm	|Resistivity|/Ohm.cm	Phase(Resistivity)/deg	Re(Conductivity)/mS/cm	Im(Conductivity)/mS/cm	|Conductivity|/mS/cm	Phase(Conductivity)/deg	Tan(Delta)	Loss Angle(Delta)/deg	dq/mA.h	Pwe/W	Pce/W	Pwe-ce/W	<Ewe-Ece>/V	Rwe/Ohm	Rce/Ohm	Rwe-ce/Ohm		Ewe-Ece/V
1.00002e+06	3.43668	1.61947	3.79914	-25.2313	2.23355	3.96115	-0.0397553	0.098274	0.0178572	1	10	0.000253069	6.66122e-05	0	-1.51565e-05	0.000503768	0.000178281	-65.6602	2.67641	1.10308	2.43852	-41.7928	6.08906	4.53976	4.05799	0.238105	0.112202	0.263217	25.2313	17.8572	37.8949	41.8916	-64.7687	0.0000000E+000	0.0000000E+000	0.0000000E+000	64.7687	0.0000000E+000	0.0000000E+000	0.0000000E+000	-64.7687	0.0000000E+000	0.0000000E+000	0.0000000E+000	-25.2313	0.0000000E+000	0.0000000E+000	0.0000000E+000	25.2313	2.1221	64.7687	-1.51565e-05	-0.000157477	-2.00275e-08	-0.000157457	3.96065	99638.4	12.6717	99625.7
251206	1.72233	0.289928	1.74656	-9.55532	4.93655	3.96109	-0.0524772	2.18524	0.0602163	1	9	0.00449039	0.00257099	0	-5.51771e-05	8.37695e-05	2.03929e-05	115.172	0.00793191	-0.00337379	-0.00717863	-9.34091	1.74205	1.71895	0.28275	0.564611	0.0950439	0.572554	9.55532	60.2163	357.716	362.749	-80.4447	0.0000000E+000	0.0000000E+000	0.0000000E+000	80.4447	0.0000000E+000	0.0000000E+000	0.0000000E+000	-80.4447	0.0000000E+000	0.0000000E+000	0.0000000E+000	-9.55532	0.0000000E+000	0.0000000E+000	0.0000000E+000	9.55532	5.94052	80.4447	-5.44188e-06	-0.000207867	-4.39599e-09	-0.000207863	3.96101	75482.1	1.5963	75480.5
63093.8	2.13844	0.878434	2.31184	-22.332	7.36356	3.961	-0.0334818	2.8716	0.414599	1	9	0.00502116	0.00217193	0	-7.422e-05	0.000179224	1.00056e-05	57.2652	0.00460678	0.00249112	-0.00387514	-22.2197	2.31267	2.14094	0.874559	0.400114	0.164359	0.432556	22.332	414.599	1009.29	1091.13	-67.668	0.0000000E+000	0.0000000E+000	0.0000000E+000	67.668	0.0000000E+000	0.0000000E+000	0.0000000E+000	-67.668	0.0000000E+000	0.0000000E+000	0.0000000E+000	-22.332	0.0000000E+000	0.0000000E+000	0.0000000E+000	22.332	2.43438	67.668	-1.61448e-06	-0.000132621	-6.00073e-09	-0.000132615	3.96082	118303	5.35287	118298
15847.7	3.15889	1.77883	3.6253	-29.3847	9.41557	3.96104	-0.00320089	5.64572	1.35926	1	9	0.00466011	0.00128544	0	-9.37856e-05	-3.07756e-05	9.62231e-06	-101.555	0.00748563	-0.00149946	0.00733391	-29.4973	3.6276	3.15739	1.78617	0.240351	0.135346	0.275839	29.3847	1359.26	2413.79	2770.19	-60.6153	0.0000000E+000	0.0000000E+000	0.0000000E+000	60.6153	0.0000000E+000	0.0000000E+000	0.0000000E+000	-60.6153	0.0000000E+000	0.0000000E+000	0.0000000E+000	-29.3847	0.0000000E+000	0.0000000E+000	0.0000000E+000	29.3847	1.77582	60.6153	8.72074e-08	-1.26788e-05	9.85094e-11	-1.26789e-05	3.96107	1.23748e+06	9.61469	1.23749e+06
3983.6	4.91949	3.08249	5.80544	-32.0707	11.2961	3.96097	-0.0443336	12.9611	3.65406	1	10	0.00460425	0.000793092	0	-0.000111129	0.000141042	7.32716e-06	-54.6536	0.00923873	0.00534477	0.00753575	-32.1056	5.81397	4.92484	3.09002	0.145965	0.0914599	0.172252	32.0707	3654.06	5831.69	6881.91	-57.9293	0.0000000E+000	0.0000000E+000	0.0000000E+000	57.9293	0.0000000E+000	0.0000000E+000	0.0000000E+000	-57.9293	0.0000000E+000	0.0000000E+000	0.0000000E+000	-32.0707	0.0000000E+000	0.0000000E+000	0.0000000E+000	32.0707	1.59595	57.9293	-3.06247e-06	-0.000175604	-6.2529e-09	-0.000175598	3.96083	89344.7	3.18138	89341.5
1000.32	8.25521	5.69294	10.0279	-34.5908	14.1398	3.96095	-0.0255995	27.9476	9.00743	1	10	0.00485349	0.000484	0	-0.000131363	0.000370132	5.66655e-06	-24.8194	0.0117077	0.0106264	0.00491444	-34.5795	10.0394	8.26583	5.69785	0.082094	0.0566135	0.0997221	34.5908	9007.43	13061.5	15866.2	-55.4092	0.0000000E+000	0.0000000E+000	0.0000000E+000	55.4092	0.0000000E+000	0.0000000E+000	0.0000000E+000	-55.4092	0.0000000E+000	0.0000000E+000	0.0000000E+000	-34.5908	0.0000000E+000	0.0000000E+000	0.0000000E+000	34.5908	1.45008	55.4092	-2.85465e-06	-0.000101398	-9.47518e-09	-0.000101389	3.96058	154728	14.4586	154713
251.044	15.572	8.34126	17.6653	-28.1761	16.841	3.96095	-0.0258006	76.0042	16.9456	1	10	0.00480409	0.00027195	0	-0.00015001	-6.89573e-05	2.51484e-05	-78.7496	0.0924743	0.0180414	0.0906973	-28.407	17.7242	15.59	8.43196	0.0499	0.0267293	0.056608	28.1761	16945.6	31635.2	35887.9	-61.8239	0.0000000E+000	0.0000000E+000	0.0000000E+000	61.8239	0.0000000E+000	0.0000000E+000	0.0000000E+000	-61.8239	0.0000000E+000	0.0000000E+000	0.0000000E+000	-28.1761	0.0000000E+000	0.0000000E+000	0.0000000E+000	28.1761	1.86686	61.8239	-2.87096e-06	-0.000102195	1.77914e-09	-0.000102197	3.96101	153521	2.6727	153524
63.0823	23.9024	6.06996	24.6611	-14.2489	19.8069	3.96101	-0.0209788	415.649	25.1811	1	11	0.00479455	0.000194418	0	-0.000168082	-8.80481e-05	7.63531e-06	48.6168	0.0392727	0.0259629	-0.0294665	-14.1678	24.679	23.9284	6.04049	0.0393022	0.00998072	0.0405497	14.2489	25181.1	99158.5	102306	-75.7511	0.0000000E+000	0.0000000E+000	0.0000000E+000	75.7511	0.0000000E+000	0.0000000E+000	0.0000000E+000	-75.7511	0.0000000E+000	0.0000000E+000	0.0000000E+000	-14.2489	0.0000000E+000	0.0000000E+000	0.0000000E+000	14.2489	3.93782	75.7511	-2.53527e-06	-8.30975e-05	1.84715e-09	-8.30993e-05	3.9611	188810	4.197	188814
15.8576	26.8597	2.52423	26.978	-5.36881	22.465	3.961	-0.0209531	3976.07	34.8091	1	11	0.00477127	0.000176858	0	-0.000184693	7.4061e-06	9.81948e-06	11.5807	0.055522	0.0543917	-0.0111459	-5.3345	27.0311	26.914	2.51309	0.0369046	0.00346824	0.0370672	5.36881	34809.1	370394	372026	-84.6312	0.0000000E+000	0.0000000E+000	0.0000000E+000	84.6312	0.0000000E+000	0.0000000E+000	0.0000000E+000	-84.6312	0.0000000E+000	0.0000000E+000	0.0000000E+000	-5.36881	0.0000000E+000	0.0000000E+000	0.0000000E+000	5.36881	10.6407	84.6312	-3.20604e-06	-8.29953e-05	-1.55181e-10	-8.29952e-05	3.96099	189041	0.35346	189041
3.97785	27.8919	1.33752	27.924	-2.74544	25.3753	3.96103	-0.0185346	29913.7	68.6305	1	11	0.00478916	0.000171507	0	-0.000199808	8.37695e-05	9.15818e-06	41.8236	0.0533983	0.0397925	-0.035608	-2.66866	27.9621	27.9317	1.30191	0.0357704	0.00171532	0.0358115	2.74544	68630.4	1.43118e+06	1.43283e+06	-87.2546	0.0000000E+000	0.0000000E+000	0.0000000E+000	87.2546	0.0000000E+000	0.0000000E+000	0.0000000E+000	-87.2546	0.0000000E+000	0.0000000E+000	0.0000000E+000	-2.74544	0.0000000E+000	0.0000000E+000	0.0000000E+000	2.74544	20.8535	87.2546	-3.82741e-06	-7.34162e-05	-1.55264e-09	-7.34146e-05	3.96094	213710	4.51962	213705
1.00469	28.5956	1.29772	28.625	-2.5984	241.1	3.96099	-0.0156965	122069	250.885	1	11	0.00497661	0.000173855	0	-0.00186043	0.000160133	1.61734e-07	132.762	0.000930282	-0.000631624	-0.00068299	-2.59709	28.6244	28.595	1.29703	0.0348985	0.00158375	0.0349344	2.5984	250885	5.52832e+06	5.53401e+06	-87.4016	0.0000000E+000	0.0000000E+000	0.0000000E+000	87.4016	0.0000000E+000	0.0000000E+000	0.0000000E+000	-87.4016	0.0000000E+000	0.0000000E+000	0.0000000E+000	-2.5984	0.0000000E+000	0.0000000E+000	0.0000000E+000	2.5984	22.0353	87.4016	-0.0016329	-6.21737e-05	-2.51353e-09	-6.21712e-05	3.96083	252348	10.2018	252338
0.251173	29.6694	2.13496	29.7461	-4.11582	241.1	3.96099	-0.0156965	296795	1528.89	1	11	0.00500305	0.000168192	0	-0.00186043	0.000160133	6.29085e-07	-12.0482	0.00374029	0.0036579	0.000780728	-4.11682	29.7498	29.673	2.13574	0.0335312	0.00241285	0.0336179	4.11582	1.52889e+06	2.12469e+07	2.13018e+07	-85.8842	0.0000000E+000	0.0000000E+000	0.0000000E+000	85.8842	0.0000000E+000	0.0000000E+000	0.0000000E+000	-85.8842	0.0000000E+000	0.0000000E+000	0.0000000E+000	-4.11582	0.0000000E+000	0.0000000E+000	0.0000000E+000	4.11582	13.8969	85.8842	0.000000000000000E+000	-6.21737e-05	-2.51353e-09	-6.21712e-05	3.96083	252348	10.2018	252338
0.0602816	31.7688	4.3316	32.0627	-7.76428	241.1	3.96099	-0.0156965	609518	11124.6	1	11	0.00499685	0.000155846	0	-0.00186043	0.000160133	3.31504e-07	49.8113	0.00212712	0.00137265	-0.00162496	-7.76108	32.0638	31.7701	4.32998	0.030903	0.00421356	0.0311889	7.76428	1.11246e+07	8.15897e+07	8.23446e+07	-82.2357	0.0000000E+000	0.0000000E+000	0.0000000E+000	82.2357	0.0000000E+000	0.0000000E+000	0.0000000E+000	-82.2357	0.0000000E+000	0.0000000E+000	0.0000000E+000	-7.76428	0.0000000E+000	0.0000000E+000	0.0000000E+000	7.76428	7.33418	82.2357	0.000000000000000E+000	-6.21737e-05	-2.51353e-09	-6.21712e-05	3.96083	252348	10.2018	252338
0.00796479	41.2501	9.2934	42.284	-12.6964	20330	3.96104	-0.000587474	2.15016e+06	103865	1	11	0.00499347	0.000118094	0	-0.0155317	-0.000183502	4.09205e-07	178.175	0.00346509	-0.00346333	-0.000110349	-12.6973	42.2806	41.2466	9.29329	0.0230713	0.00519783	0.0236496	12.6964	1.03865e+08	4.61019e+08	4.72574e+08	-77.3036	0.0000000E+000	0.0000000E+000	0.0000000E+000	77.3036	0.0000000E+000	0.0000000E+000	0.0000000E+000	-77.3036	0.0000000E+000	0.0000000E+000	0.0000000E+000	-12.6964	0.0000000E+000	0.0000000E+000	0.0000000E+000	12.6964	4.43865	77.3036	-0.0136712	-2.32701e-06	1.07803e-10	-2.32712e-06	3.96123	6.7425e+06	312.358	6.74281e+06
0.0019912	50.5253	13.1876	52.2179	-14.6284	20330	3.96104	-0.000587474	6.06096e+06	386573	1	11	0.00500586	9.58648e-05	0	-0.0155317	-0.000183502	8.33783e-07	-18.4709	0.00869749	0.00824944	0.00275556	-14.629	52.2266	50.5335	13.1903	0.0185297	0.00483643	0.0191505	14.6284	3.86573e+08	1.48107e+09	1.53069e+09	-75.3716	0.0000000E+000	0.0000000E+000	0.0000000E+000	75.3716	0.0000000E+000	0.0000000E+000	0.0000000E+000	-75.3716	0.0000000E+000	0.0000000E+000	0.0000000E+000	-14.6284	0.0000000E+000	0.0000000E+000	0.0000000E+000	14.6284	3.83128	75.3716	0.000000000000000E+000	-2.32701e-06	1.07803e-10	-2.32712e-06	3.96123	6.7425e+06	312.358	6.74281e+06
0.000497799	57.4908	19.7165	60.7777	-18.9295	20330.1	3.96104	-0.000587474	1.62157e+07	1.7065e+06	1	11	0.00500633	8.23711e-05	0	-0.0155317	-0.000183502	6.67827e-07	22.6487	0.00810753	0.00748231	-0.00312205	-18.9244	60.7838	57.4983	19.7134	0.0155636	0.00533754	0.0164534	18.9295	1.7065e+09	4.97594e+09	5.26043e+09	-71.0705	0.0000000E+000	0.0000000E+000	0.0000000E+000	71.0705	0.0000000E+000	0.0000000E+000	0.0000000E+000	-71.0705	0.0000000E+000	0.0000000E+000	0.0000000E+000	-18.9295	0.0000000E+000	0.0000000E+000	0.0000000E+000	18.9295	2.91587	71.0705	0.000000000000000E+000	-2.32701e-06	1.07803e-10	-2.32712e-06	3.96123	6.7425e+06	312.358	6.74281e+06
9.95598e-05	69.2307	86.1687	110.535	-51.2205	20330.1	3.96104	-0.000587474	1.85518e+07	1.12743e+07	1	11	0.00500891	4.53152e-05	0	-0.0155317	-0.000183502	2.6165e-06	-42.9653	0.05774	0.0422522	0.0393531	-51.2162	110.592	69.2729	86.2081	0.00566632	0.00705264	0.00904693	51.2205	1.12743e+10	9.05809e+09	1.44623e+10	-38.7795	0.0000000E+000	0.0000000E+000	0.0000000E+000	38.7795	0.0000000E+000	0.0000000E+000	0.0000000E+000	-38.7795	0.0000000E+000	0.0000000E+000	0.0000000E+000	-51.2205	0.0000000E+000	0.0000000E+000	0.0000000E+000	51.2205	0.803432	38.7795	0.000000000000000E+000	-2.32701e-06	1.07803e-10	-2.32712e-06	3.96123	6.7425e+06	312.358	6.74281e+06