File: txt/18815_R307_UA701_3p24_SOC00_C02.mpt
EC-Lab ASCII FILE
Nb header lines : 65

Potentio Electrochemical Impedance Spectroscopy

Run on channel : 2 (SN 66139)
User :
CE vs. WE compliance from -10 V to 10 V
Electrode connection : standard
Potential control : Ewe
Ewe ctrl range : min = -10.00 V, max = 10.00 V
Safety Limits :
	Do not start on E overload
Acquisition started on : 11/03/2025 16:08:33.268
Technique started on : 11/03/2025 16:08:34.994
Loaded Setting File :  C:\Users\Celltest\OneDrive - store-dot.com\Documents\EC-Lab\Data\@Biologic Test Protocols\anode half cell EIS SOC00.mps
Saved on :
	File : 18815_R307_UA701_3p24_SOC00_C02.mpr
	Directory : C:\Users\Celltest\OneDrive - store-dot.com\Documents\EC-Lab\Data\Anna\
	Host : 169.254.61.224
Device : VMP-3e (SN .003165)
Address : USB
EC-LAB for windows v11.62 (software)
Internet server v27.00 (firmware)
Command interpretor v12.03 (firmware)
Electrode material :
Initial state :
Electrolyte :
Comments :
Electrode surface area : 0.001 cm²
Characteristic mass : 0.001 g
Equivalent Weight : 0.000 g/eq.
Density : 0.000 g/cm3
Volume (V) : 0.001 cm³
Record Ece
Cycle Definition : Charge/Discharge alternance
Mode                Single sine
E (V)               0.0000
vs.                 Eoc
tE (h:m:s)          0:00:0.0000
record              0
dI                  0.000
unit dI             mA
dt (s)              0.000
fi                  100.000
unit fi             kHz
ff                  10.000
unit ff             mHz
Nd                  6
Points              per decade
spacing             Logarithmic
Va (mV)             5.0
pw                  0.10
Na                  2
corr                0
E range min (V)     -10.000
E range max (V)     10.000
I Range             Auto
Bandwidth           5
nc cycles           0
goto Ns'            0
nr cycles           0
inc. cycle          0

freq/Hz	Re(Z)/Ohm	-Im(Z)/Ohm	|Z|/Ohm	Phase(Z)/deg	time/s	<Ewe>/V	<I>/mA	Cs/µF	Cp/µF	cycle number	I Range	|Ewe|/V	|I|/A	Ns	(Q-Qo)/mA.h	<Ece>/V	|Ece|/V	Phase(Zce)/deg	|Zce|/Ohm	Re(Zce)/Ohm	-Im(Zce)/Ohm	Phase(Zwe-ce)/deg	|Zwe-ce|/Ohm	Re(Zwe-ce)/Ohm	-Im(Zwe-ce)/Ohm	Re(Y)/Ohm-1	Im(Y)/Ohm-1	|Y|/Ohm-1	Phase(Y)/deg	Re(C)/nF	Im(C)/nF	|C|/nF	Phase(C)/deg	Re(M)	Im(M)	|M|	Phase(M)/deg	Re(Permittivity)	Im(Permittivity)	|Permittivity|	Phase(Permittivity)/deg	Re(Resistivity)/Ohm.cm	Im(Resistivity)/Ohm.cm	|Resistivity|/Ohm.cm	Phase(Resistivity)/deg	Re(Conductivity)/mS/cm	Im(Conductivity)/mS/cm	|Conductivity|/mS/cm	Phase(Conductivity)/deg	Tan(Delta)	Loss Angle(Delta)/deg	dq/mA.h	Pwe/W	Pce/W	Pwe-ce/W	<Ewe-Ece>/V	Rwe/Ohm	Rce/Ohm	Rwe-ce/Ohm		Ewe-Ece/V
100004	1.12336	0.443758	1.20783	-21.5554	1.72553	0.242864	0.0100959	3.5864	0.484103	1	9	0.0045979	0.00380674	0	-5.77773e-06	-0.000266929	2.20585e-05	96.8595	0.00579459	-0.000692082	-0.00575312	-21.3131	1.20508	1.12267	0.438004	0.770028	0.304182	0.827931	21.5554	484.103	1225.49	1317.64	-68.4446	0.0000000E+000	0.0000000E+000	0.0000000E+000	68.4446	0.0000000E+000	0.0000000E+000	0.0000000E+000	-68.4446	0.0000000E+000	0.0000000E+000	0.0000000E+000	-21.5554	0.0000000E+000	0.0000000E+000	0.0000000E+000	21.5554	2.53147	68.4446	-5.77773e-06	2.45194e-06	-2.6949e-09	2.45464e-06	0.243131	24055.6	26.4393	24082
31621.1	1.52595	0.618651	1.64658	-22.0687	3.24853	0.242848	0.00652033	8.13574	1.14847	1	9	0.00505555	0.00307033	0	-2.15468e-05	5.7615e-05	9.633e-06	-9.10124	0.00313745	0.00309795	0.00049628	-22.0442	1.64964	1.52904	0.619147	0.562822	0.22818	0.607318	22.0687	1148.47	2832.79	3056.74	-67.9313	0.0000000E+000	0.0000000E+000	0.0000000E+000	67.9313	0.0000000E+000	0.0000000E+000	0.0000000E+000	-67.9313	0.0000000E+000	0.0000000E+000	0.0000000E+000	-22.0687	0.0000000E+000	0.0000000E+000	0.0000000E+000	22.0687	2.46657	67.9313	-6.17823e-06	1.58345e-06	3.75669e-10	1.58307e-06	0.24279	37244.6	8.83621	37235.8
10002.2	1.99766	0.821627	2.16003	-22.3571	4.27354	0.242838	0.00156662	19.3664	2.80207	1	9	0.00540559	0.00250256	0	-2.38863e-05	3.42479e-07	9.54304e-06	-75.6766	0.00381332	0.000943398	0.00369478	-22.4381	2.16231	1.99861	0.825322	0.428157	0.176098	0.462957	22.3571	2802.07	6812.81	7366.55	-67.6429	0.0000000E+000	0.0000000E+000	0.0000000E+000	67.6429	0.0000000E+000	0.0000000E+000	0.0000000E+000	-67.6429	0.0000000E+000	0.0000000E+000	0.0000000E+000	-22.3571	0.0000000E+000	0.0000000E+000	0.0000000E+000	22.3571	2.43135	67.6429	2.51041e-06	3.80435e-07	5.36534e-13	3.80434e-07	0.242838	155008	0.218611	155008
3163.08	2.60277	1.18467	2.85969	-24.473	5.17366	0.24269	-0.0392549	42.4729	7.28902	1	9	0.00511085	0.0017872	0	-2.5442e-05	0.000305796	8.05037e-06	-21.4995	0.00450445	0.00419103	0.00165085	-24.4684	2.86419	2.60696	1.18632	0.318271	0.144864	0.349688	24.473	7289.02	16014.3	17595.1	-65.527	0.0000000E+000	0.0000000E+000	0.0000000E+000	65.527	0.0000000E+000	0.0000000E+000	0.0000000E+000	-65.527	0.0000000E+000	0.0000000E+000	0.0000000E+000	-24.473	0.0000000E+000	0.0000000E+000	0.0000000E+000	24.473	2.19704	65.527	-3.07141e-06	-9.52678e-06	-1.2004e-08	-9.51478e-06	0.242384	6182.41	7.79	6174.62
1000.32	3.3994	1.91417	3.90128	-29.3834	6.77079	0.242762	-0.0248134	83.1191	20.01	1	10	0.0050707	0.00129975	0	-3.0567e-05	0.000248523	9.19994e-06	-52.5529	0.00707822	0.00430375	0.00561951	-29.4243	3.90779	3.4037	1.91979	0.223351	0.125767	0.256326	29.3834	20010	35536.1	40782.5	-60.6166	0.0000000E+000	0.0000000E+000	0.0000000E+000	60.6166	0.0000000E+000	0.0000000E+000	0.0000000E+000	-60.6166	0.0000000E+000	0.0000000E+000	0.0000000E+000	-29.3834	0.0000000E+000	0.0000000E+000	0.0000000E+000	29.3834	1.77592	60.6166	-2.17719e-06	-6.02377e-06	-6.16672e-09	-6.0176e-06	0.242514	9783.52	10.0157	9773.5
316.316	4.90189	3.6712	6.12423	-36.8308	8.12005	0.242763	-0.0254318	137.054	49.2497	1	10	0.00495928	0.00080978	0	-4.02006e-05	0.000343978	6.35076e-06	-66.7646	0.00784257	0.00309397	0.00720647	-36.8674	6.13103	4.90498	3.6784	0.130695	0.0978824	0.163286	36.8308	49249.7	65759.6	82157.6	-53.1692	0.0000000E+000	0.0000000E+000	0.0000000E+000	53.1692	0.0000000E+000	0.0000000E+000	0.0000000E+000	-53.1692	0.0000000E+000	0.0000000E+000	0.0000000E+000	-36.8308	0.0000000E+000	0.0000000E+000	0.0000000E+000	36.8308	1.33523	53.1692	-2.60392e-06	-6.1739e-06	-8.74798e-09	-6.16515e-06	0.242419	9545.63	13.5255	9532.11
100.032	8.82583	6.08952	10.7228	-34.6043	9.46783	0.242764	-0.0239045	261.275	84.2658	1	10	0.00491853	0.0004587	0	-4.84222e-05	0.000324887	1.0692e-05	11.4342	0.0233094	0.0228468	-0.00462093	-34.5148	10.7389	8.84867	6.0849	0.0767614	0.0529627	0.0932596	34.6043	84265.8	122130	148380	-55.3957	0.0000000E+000	0.0000000E+000	0.0000000E+000	55.3957	0.0000000E+000	0.0000000E+000	0.0000000E+000	-55.3957	0.0000000E+000	0.0000000E+000	0.0000000E+000	-34.6043	0.0000000E+000	0.0000000E+000	0.0000000E+000	34.6043	1.44935	55.3957	-3.14537e-06	-5.80314e-06	-7.76625e-09	-5.79537e-06	0.242439	10155.6	13.591	10142
31.6296	14.718	6.15729	15.9541	-22.702	10.7965	0.242757	-0.0260502	817.217	121.723	1	10	0.00491029	0.000307777	0	-5.67349e-05	0.000133978	7.1464e-06	-44.3234	0.0232194	0.0166113	0.0162236	-22.7327	15.9757	14.7346	6.17351	0.0578238	0.0241906	0.0626799	22.702	121723	290960	315396	-67.298	0.0000000E+000	0.0000000E+000	0.0000000E+000	67.298	0.0000000E+000	0.0000000E+000	0.0000000E+000	-67.298	0.0000000E+000	0.0000000E+000	0.0000000E+000	-22.702	0.0000000E+000	0.0000000E+000	0.0000000E+000	22.702	2.39034	67.298	-2.49576e-06	-6.32389e-06	-3.49017e-09	-6.3204e-06	0.242623	9318.83	5.14308	9313.68
10.0032	18.7634	4.36372	19.2641	-13.0923	12.3618	0.242793	-0.0120945	3646.06	187.086	1	11	0.00490756	0.000254752	0	-6.38238e-05	0.000286705	3.71369e-06	-3.14537	0.0145777	0.0145557	0.000799871	-13.0849	19.2785	18.7779	4.36452	0.0505607	0.0117587	0.05191	13.0923	187086	804441	825910	-76.9077	0.0000000E+000	0.0000000E+000	0.0000000E+000	76.9077	0.0000000E+000	0.0000000E+000	0.0000000E+000	-76.9077	0.0000000E+000	0.0000000E+000	0.0000000E+000	-13.0923	0.0000000E+000	0.0000000E+000	0.0000000E+000	13.0923	4.29985	76.9077	-3.30207e-06	-2.93647e-06	-3.46757e-09	-2.93301e-06	0.242507	20074.6	23.7053	20050.9
3.1604	21.1661	3.00677	21.3786	-8.08513	13.8784	0.242797	-0.0105683	16748.6	331.301	1	11	0.0049051	0.00022944	0	-6.74691e-05	-7.60209e-05	8.53348e-06	51.7736	0.0371927	0.0230137	-0.0292175	-7.99901	21.3973	21.1891	2.97756	0.0463109	0.00657875	0.0467758	8.08513	331301	2.33218e+06	2.35559e+06	-81.9149	0.0000000E+000	0.0000000E+000	0.0000000E+000	81.9149	0.0000000E+000	0.0000000E+000	0.0000000E+000	-81.9149	0.0000000E+000	0.0000000E+000	0.0000000E+000	-8.08513	0.0000000E+000	0.0000000E+000	0.0000000E+000	8.08513	7.03946	81.9149	-4.03701e-06	-2.56594e-06	8.03409e-10	-2.56674e-06	0.242873	22974.1	7.19332	22981.3
1.00006	22.8115	2.23215	22.9205	-5.5887	19.5167	0.242799	-0.00975819	71296.7	676.19	1	12	0.00491122	0.000214273	0	-8.40695e-05	0.000248523	4.85787e-06	34.104	0.0226714	0.0187724	-0.0127118	-5.55253	22.9379	22.8303	2.21943	0.0434218	0.0042489	0.0436292	5.5887	676189	6.91035e+06	6.94335e+06	-84.4113	0.0000000E+000	0.0000000E+000	0.0000000E+000	84.4113	0.0000000E+000	0.0000000E+000	0.0000000E+000	-84.4113	0.0000000E+000	0.0000000E+000	0.0000000E+000	-5.5887	0.0000000E+000	0.0000000E+000	0.0000000E+000	5.5887	10.2195	84.4113	-4.25348e-06	-2.36928e-06	-2.42514e-09	-2.36685e-06	0.24255	24881.5	25.4682	24856.1
0.316193	23.9603	2.13806	24.0555	-5.09919	33.8598	0.242792	-0.00616183	235423	1859.77	1	12	0.00491221	0.000204203	0	-9.38149e-05	0.000153069	2.36134e-06	4.2231	0.0115637	0.0115323	-0.000851552	-5.09473	24.0669	23.9718	2.1372	0.0414061	0.00369481	0.0415706	5.09919	1.85977e+06	2.08416e+07	2.09244e+07	-84.9008	0.0000000E+000	0.0000000E+000	0.0000000E+000	84.9008	0.0000000E+000	0.0000000E+000	0.0000000E+000	-84.9008	0.0000000E+000	0.0000000E+000	0.0000000E+000	-5.09919	0.0000000E+000	0.0000000E+000	0.0000000E+000	5.09919	11.2066	84.9008	-1.03404e-05	-1.49604e-06	-9.43186e-10	-1.4951e-06	0.242639	39402.6	24.8415	39377.8
0.0999041	25.113	3.44941	25.3488	-7.82096	79.0688	0.242787	-0.00435313	461841	8551.99	1	12	0.00491031	0.00019371	0	-0.000252286	5.7615e-05	1.4183e-06	-1.97911	0.00732175	0.00731738	0.000252858	-7.81927	25.3561	25.1203	3.44966	0.0390827	0.00536822	0.0394496	7.82096	8.55199e+06	6.22617e+07	6.28463e+07	-82.179	0.0000000E+000	0.0000000E+000	0.0000000E+000	82.179	0.0000000E+000	0.0000000E+000	0.0000000E+000	-82.179	0.0000000E+000	0.0000000E+000	0.0000000E+000	-7.82096	0.0000000E+000	0.0000000E+000	0.0000000E+000	7.82096	7.28037	82.179	-7.62099e-05	-1.05688e-06	-2.50806e-10	-1.05663e-06	0.242729	55772.9	13.2353	55759.7
0.0315922	27.3528	7.66006	28.4052	-15.6447	221.952	0.242779	-0.00392209	657670	47827.5	1	12	0.00491113	0.000172896	0	-0.00034012	9.57967e-05	2.45473e-06	-29.4955	0.0141978	0.0123577	0.00699034	-15.6516	28.4189	27.3652	7.66705	0.0339006	0.00949375	0.0352049	15.6447	4.78275e+07	1.70784e+08	1.77355e+08	-74.3553	0.0000000E+000	0.0000000E+000	0.0000000E+000	74.3553	0.0000000E+000	0.0000000E+000	0.0000000E+000	-74.3553	0.0000000E+000	0.0000000E+000	0.0000000E+000	-15.6447	0.0000000E+000	0.0000000E+000	0.0000000E+000	15.6447	3.57084	74.3553	4.07169e-05	-9.52201e-07	-3.75723e-10	-9.51825e-07	0.242683	61900.5	24.4249	61876.1
0.0100092	32.8164	17.2619	37.0794	-27.745	673.175	0.242776	-0.0017784	921159	199638	1	12	0.00491073	0.000132438	0	-0.000100543	0.00017216	1.22714e-06	85.8822	0.00926573	0.000665347	-0.00924181	-27.7319	37.0757	32.817	17.2526	0.0238684	0.0125551	0.0269691	27.745	1.99638e+08	3.7953e+08	4.28834e+08	-62.255	0.0000000E+000	0.0000000E+000	0.0000000E+000	62.255	0.0000000E+000	0.0000000E+000	0.0000000E+000	-62.255	0.0000000E+000	0.0000000E+000	0.0000000E+000	-27.745	0.0000000E+000	0.0000000E+000	0.0000000E+000	27.745	1.90109	62.255	-4.50477e-05	-4.31753e-07	-3.0617e-10	-4.31447e-07	0.242604	136513	96.806	136417