File: txt/18814_R307_UA701_3p24_SOC00_C01.mpt
EC-Lab ASCII FILE
Nb header lines : 65

Potentio Electrochemical Impedance Spectroscopy

Run on channel : 1 (SN 66354)
User :
CE vs. WE compliance from -10 V to 10 V
Electrode connection : standard
Potential control : Ewe
Ewe ctrl range : min = -10.00 V, max = 10.00 V
Safety Limits :
	Do not start on E overload
Acquisition started on : 11/03/2025 16:08:24.140
Technique started on : 11/03/2025 16:08:26.051
Loaded Setting File :  C:\Users\Celltest\OneDrive - store-dot.com\Documents\EC-Lab\Data\@Biologic Test Protocols\anode half cell EIS SOC00.mps
Saved on :
	File : 18814_R307_UA701_3p24_SOC00_C01.mpr
	Directory : C:\Users\Celltest\OneDrive - store-dot.com\Documents\EC-Lab\Data\Anna\
	Host : 169.254.61.224
Device : VMP-3e (SN .003165)
Address : USB
EC-LAB for windows v11.62 (software)
Internet server v27.00 (firmware)
Command interpretor v12.03 (firmware)
Electrode material :
Initial state :
Electrolyte :
Comments :
Electrode surface area : 0.001 cm²
Characteristic mass : 0.001 g
Equivalent Weight : 0.000 g/eq.
Density : 0.000 g/cm3
Volume (V) : 0.001 cm³
Record Ece
Cycle Definition : Charge/Discharge alternance
Mode                Single sine
E (V)               0.0000
vs.                 Eoc
tE (h:m:s)          0:00:0.0000
record              0
dI                  0.000
unit dI             mA
dt (s)              0.000
fi                  100.000
unit fi             kHz
ff                  10.000
unit ff             mHz
Nd                  6
Points              per decade
spacing             Logarithmic
Va (mV)             5.0
pw                  0.10
Na                  2
corr                0
E range min (V)     -10.000
E range max (V)     10.000
I Range             Auto
Bandwidth           5
nc cycles           0
goto Ns'            0
nr cycles           0
inc. cycle          0

freq/Hz	Re(Z)/Ohm	-Im(Z)/Ohm	|Z|/Ohm	Phase(Z)/deg	time/s	<Ewe>/V	<I>/mA	Cs/µF	Cp/µF	cycle number	I Range	|Ewe|/V	|I|/A	Ns	(Q-Qo)/mA.h	<Ece>/V	|Ece|/V	Phase(Zce)/deg	|Zce|/Ohm	Re(Zce)/Ohm	-Im(Zce)/Ohm	Phase(Zwe-ce)/deg	|Zwe-ce|/Ohm	Re(Zwe-ce)/Ohm	-Im(Zwe-ce)/Ohm	Re(Y)/Ohm-1	Im(Y)/Ohm-1	|Y|/Ohm-1	Phase(Y)/deg	Re(C)/nF	Im(C)/nF	|C|/nF	Phase(C)/deg	Re(M)	Im(M)	|M|	Phase(M)/deg	Re(Permittivity)	Im(Permittivity)	|Permittivity|	Phase(Permittivity)/deg	Re(Resistivity)/Ohm.cm	Im(Resistivity)/Ohm.cm	|Resistivity|/Ohm.cm	Phase(Resistivity)/deg	Re(Conductivity)/mS/cm	Im(Conductivity)/mS/cm	|Conductivity|/mS/cm	Phase(Conductivity)/deg	Tan(Delta)	Loss Angle(Delta)/deg	dq/mA.h	Pwe/W	Pce/W	Pwe-ce/W	<Ewe-Ece>/V	Rwe/Ohm	Rce/Ohm	Rwe-ce/Ohm		Ewe-Ece/V
100004	1.05959	0.433594	1.14488	-22.2548	1.91052	0.249986	0.0773727	3.67046	0.526466	1	9	0.00471827	0.0041212	0	1.09004e-05	-0.000207511	4.39783e-05	88.6233	0.0106712	0.000256379	-0.0106682	-21.7542	1.14112	1.05985	0.422926	0.808392	0.330801	0.873457	22.2548	526.466	1286.55	1390.1	-67.7452	0.0000000E+000	0.0000000E+000	0.0000000E+000	67.7452	0.0000000E+000	0.0000000E+000	0.0000000E+000	-67.7452	0.0000000E+000	0.0000000E+000	0.0000000E+000	-22.2548	0.0000000E+000	0.0000000E+000	0.0000000E+000	22.2548	2.44374	67.7452	1.09004e-05	1.93421e-05	-1.60557e-08	1.93581e-05	0.250193	3230.93	2.68196	3233.61
31621.1	1.42918	0.58518	1.54434	-22.2668	3.43152	0.249963	0.0746159	8.60108	1.23494	1	9	0.0051344	0.00332466	0	4.58689e-05	9.77262e-05	2.61026e-05	29.3609	0.00785121	0.00684271	-0.00384952	-22.0391	1.54923	1.43602	0.58133	0.59924	0.24536	0.647526	22.2668	1234.94	3016.08	3259.12	-67.7332	0.0000000E+000	0.0000000E+000	0.0000000E+000	67.7332	0.0000000E+000	0.0000000E+000	0.0000000E+000	-67.7332	0.0000000E+000	0.0000000E+000	0.0000000E+000	-22.2668	0.0000000E+000	0.0000000E+000	0.0000000E+000	22.2668	2.44229	67.7332	1.15439e-05	1.86512e-05	7.29192e-09	1.86439e-05	0.249865	3350	1.30972	3348.69
10002.2	1.88224	0.782429	2.03839	-22.5722	4.45654	0.249963	0.0773354	20.3366	2.99637	1	9	0.00492834	0.00241777	0	6.40171e-05	0.000135881	8.88278e-06	27.0898	0.00367396	0.00327091	-0.00167307	-22.4936	2.04077	1.88551	0.780756	0.453004	0.18831	0.490584	22.5722	2996.37	7208.18	7806.15	-67.4278	0.0000000E+000	0.0000000E+000	0.0000000E+000	67.4278	0.0000000E+000	0.0000000E+000	0.0000000E+000	-67.4278	0.0000000E+000	0.0000000E+000	0.0000000E+000	-22.5722	0.0000000E+000	0.0000000E+000	0.0000000E+000	22.5722	2.40563	67.4278	8.70989e-06	1.9331e-05	1.05084e-08	1.93205e-05	0.249827	3232.19	1.75703	3230.43
3163.08	2.46447	1.14171	2.71608	-24.8569	5.48167	0.249735	0.0130717	44.071	7.7872	1	9	0.0048135	0.00177222	0	7.79493e-05	-3.5815e-05	5.81339e-06	-62.7609	0.00328028	0.0015014	0.00291651	-24.8994	2.71867	2.46597	1.14463	0.33407	0.154765	0.368177	24.8569	7787.2	16809.2	18525.4	-65.1431	0.0000000E+000	0.0000000E+000	0.0000000E+000	65.1431	0.0000000E+000	0.0000000E+000	0.0000000E+000	-65.1431	0.0000000E+000	0.0000000E+000	0.0000000E+000	-24.8569	0.0000000E+000	0.0000000E+000	0.0000000E+000	24.8569	2.15857	65.1431	2.0776e-06	3.26446e-06	-4.68162e-10	3.26493e-06	0.249771	19105.1	2.73989	19107.8
1000.32	3.2677	1.8875	3.77366	-30.0118	7.07982	0.249883	-0.0123701	84.2934	21.0884	1	10	0.0048219	0.00127778	0	0.00010838	0.00021219	4.11954e-06	95.8153	0.00322399	-0.000326661	-0.0032074	-29.9721	3.77177	3.26737	1.88429	0.229465	0.132545	0.264995	30.0118	21088.4	36508.8	42161.7	-59.9882	0.0000000E+000	0.0000000E+000	0.0000000E+000	59.9882	0.0000000E+000	0.0000000E+000	0.0000000E+000	-59.9882	0.0000000E+000	0.0000000E+000	0.0000000E+000	-30.0118	0.0000000E+000	0.0000000E+000	0.0000000E+000	30.0118	1.73123	59.9882	5.0323e-06	-3.09109e-06	-2.62482e-09	-3.08846e-06	0.249671	20200.5	17.1534	20183.3
316.316	4.7723	3.55651	5.95177	-36.6949	8.42908	0.249878	-0.0123292	141.474	50.5161	1	10	0.0047159	0.000792352	0	0.000105034	2.1417e-05	1.00396e-05	32.2415	0.0126707	0.0107169	-0.00675966	-36.5812	5.95634	4.78302	3.54975	0.134721	0.100399	0.168017	36.6949	50516.1	67785.1	84538.1	-53.3051	0.0000000E+000	0.0000000E+000	0.0000000E+000	53.3051	0.0000000E+000	0.0000000E+000	0.0000000E+000	-53.3051	0.0000000E+000	0.0000000E+000	0.0000000E+000	-36.6949	0.0000000E+000	0.0000000E+000	0.0000000E+000	36.6949	1.34185	53.3051	-1.72511e-06	-3.08079e-06	-2.64053e-10	-3.08053e-06	0.249857	20267.3	1.7371	20265.5
100.032	8.51352	5.70713	10.2495	-33.8363	9.7758	0.249878	-0.0129851	278.781	86.4365	1	10	0.00467105	0.000455737	0	9.96076e-05	-5.48923e-05	6.81248e-05	-68.9392	0.149483	0.0537179	0.139497	-34.3112	10.3721	8.56724	5.84662	0.0810415	0.054327	0.0975662	33.8363	86436.5	128940	155232	-56.1637	0.0000000E+000	0.0000000E+000	0.0000000E+000	56.1637	0.0000000E+000	0.0000000E+000	0.0000000E+000	-56.1637	0.0000000E+000	0.0000000E+000	0.0000000E+000	-33.8363	0.0000000E+000	0.0000000E+000	0.0000000E+000	33.8363	1.49174	56.1637	-9.21271e-07	-3.24469e-06	7.12782e-10	-3.2454e-06	0.249933	19243.4	4.22733	19247.6
31.6296	13.9945	5.83316	15.1615	-22.6273	11.1036	0.249878	-0.016276	862.627	127.687	1	10	0.00468517	0.000309018	0	9.54135e-05	-0.000112124	9.37477e-06	-90.7567	0.0303373	-0.000400675	0.0303347	-22.7336	15.1728	13.9941	5.8635	0.0608797	0.0253758	0.0659565	22.6273	127687	306337	331883	-67.3727	0.0000000E+000	0.0000000E+000	0.0000000E+000	67.3727	0.0000000E+000	0.0000000E+000	0.0000000E+000	-67.3727	0.0000000E+000	0.0000000E+000	0.0000000E+000	-22.6273	0.0000000E+000	0.0000000E+000	0.0000000E+000	22.6273	2.39912	67.3727	-1.49464e-06	-4.06702e-06	1.82493e-09	-4.06884e-06	0.24999	15352.5	6.88893	15359.4
10.0032	18.0032	4.22363	18.492	-13.2031	12.6688	0.249919	-0.00136895	3767	196.516	1	11	0.00468419	0.000253309	0	9.53422e-05	0.000345731	4.55467e-06	-113.176	0.0179807	-0.00707647	0.0165296	-13.2579	18.4889	17.9961	4.24016	0.052648	0.0123514	0.0540774	13.2031	196516	837650	860394	-76.7969	0.0000000E+000	0.0000000E+000	0.0000000E+000	76.7969	0.0000000E+000	0.0000000E+000	0.0000000E+000	-76.7969	0.0000000E+000	0.0000000E+000	0.0000000E+000	-13.2031	0.0000000E+000	0.0000000E+000	0.0000000E+000	13.2031	4.2625	76.7969	-7.11054e-07	-3.42127e-07	-4.73289e-10	-3.41654e-07	0.249573	182562	252.552	182310
3.1604	20.4721	2.94666	20.683	-8.19065	14.1854	0.249928	-0.000238929	17090.3	346.88	1	11	0.00468894	0.000226704	0	9.25753e-05	2.1417e-05	5.5128e-06	-104.545	0.0243171	-0.00610704	0.0235378	-8.25761	20.6804	20.4659	2.9702	0.0478556	0.00688813	0.0483488	8.19065	346880	2.40997e+06	2.43481e+06	-81.8093	0.0000000E+000	0.0000000E+000	0.0000000E+000	81.8093	0.0000000E+000	0.0000000E+000	0.0000000E+000	-81.8093	0.0000000E+000	0.0000000E+000	0.0000000E+000	-8.19065	0.0000000E+000	0.0000000E+000	0.0000000E+000	8.19065	6.94755	81.8093	-1.86362e-06	-5.97152e-08	-5.11713e-12	-5.971e-08	0.249907	1.04604e+06	89.6373	1.04595e+06
1.00006	22.0277	2.11443	22.1289	-5.483	19.826	0.249922	-0.000698725	75266.1	687.171	1	12	0.00469004	0.000211942	0	0.000104129	0.000269422	6.52614e-06	10.5957	0.0307922	0.0302672	-0.00566197	-5.46095	22.1585	22.0579	2.10877	0.044983	0.0043179	0.0451897	5.483	687171	7.1588e+06	7.19171e+06	-84.517	0.0000000E+000	0.0000000E+000	0.0000000E+000	84.517	0.0000000E+000	0.0000000E+000	0.0000000E+000	-84.517	0.0000000E+000	0.0000000E+000	0.0000000E+000	-5.483	0.0000000E+000	0.0000000E+000	0.0000000E+000	5.483	10.4178	84.517	4.37324e-06	-1.74626e-07	-1.88252e-10	-1.74438e-07	0.249652	357682	385.591	357297
0.316193	23.0509	2.11302	23.1476	-5.23752	34.167	0.249923	-0.000187435	238213	1985	1	12	0.00468731	0.000202497	0	7.26187e-05	0.000231267	2.3107e-06	6.22008	0.0114111	0.0113439	-0.00123636	-5.23191	23.1587	23.0623	2.11178	0.0430207	0.0039436	0.0432011	5.23752	1.985e+06	2.16544e+07	2.17452e+07	-84.7625	0.0000000E+000	0.0000000E+000	0.0000000E+000	84.7625	0.0000000E+000	0.0000000E+000	0.0000000E+000	-84.7625	0.0000000E+000	0.0000000E+000	0.0000000E+000	-5.23752	0.0000000E+000	0.0000000E+000	0.0000000E+000	5.23752	10.909	84.7625	-1.82774e-05	-4.68443e-08	-4.33477e-11	-4.6801e-08	0.249691	1.33338e+06	1233.85	1.33215e+06
0.0999041	24.3698	3.69022	24.6476	-8.61067	79.3749	0.24992	-0.0029342	431702	9676.99	1	12	0.00469045	0.000190301	0	5.96127e-05	0.000479272	1.74878e-06	-59.78	0.00918956	0.00462531	0.00794069	-8.6273	24.6534	24.3744	3.69816	0.0401146	0.0060744	0.0405719	8.61067	9.67699e+06	6.39057e+07	6.46342e+07	-81.3893	0.0000000E+000	0.0000000E+000	0.0000000E+000	81.3893	0.0000000E+000	0.0000000E+000	0.0000000E+000	-81.3893	0.0000000E+000	0.0000000E+000	0.0000000E+000	-8.61067	0.0000000E+000	0.0000000E+000	0.0000000E+000	8.61067	6.60388	81.3893	1.64814e-05	-7.33314e-07	-1.40628e-09	-7.31908e-07	0.24944	85174.8	163.34	85011.4
0.0315922	27.1089	7.7361	28.1912	-15.9272	222.259	0.24992	-0.000721195	651205	49038.4	1	12	0.00468911	0.000166333	0	0.000238941	-7.39696e-05	3.29062e-06	-3.05047	0.0197833	0.0197553	0.00105278	-15.9182	28.2105	27.1287	7.73715	0.0341104	0.0097341	0.0354721	15.9272	4.90384e+07	1.71841e+08	1.78701e+08	-74.0728	0.0000000E+000	0.0000000E+000	0.0000000E+000	74.0728	0.0000000E+000	0.0000000E+000	0.0000000E+000	-74.0728	0.0000000E+000	0.0000000E+000	0.0000000E+000	-15.9272	0.0000000E+000	0.0000000E+000	0.0000000E+000	15.9272	3.50421	74.0728	5.43293e-05	-1.80241e-07	5.33465e-11	-1.80294e-07	0.249994	346535	102.565	346638
0.0100092	32.1311	17.0776	36.3875	-27.9906	673.48	0.249921	-0.00173366	931096	205090	1	12	0.00468937	0.000128873	0	-0.000580173	4.04943e-05	2.87173e-06	-19.7385	0.0222834	0.0209741	0.00752571	-27.9855	36.4096	32.1521	17.0852	0.0242672	0.012898	0.0274819	27.9906	2.0509e+08	3.85871e+08	4.36988e+08	-62.0094	0.0000000E+000	0.0000000E+000	0.0000000E+000	62.0094	0.0000000E+000	0.0000000E+000	0.0000000E+000	-62.0094	0.0000000E+000	0.0000000E+000	0.0000000E+000	-27.9906	0.0000000E+000	0.0000000E+000	0.0000000E+000	27.9906	1.88147	62.0094	-0.000474004	-4.33278e-07	-7.02032e-11	-4.33208e-07	0.249881	144158	23.3577	144135