File: txt/18817_R307_UA701_3p24_SOC00_C04.mpt
EC-Lab ASCII FILE
Nb header lines : 65

Potentio Electrochemical Impedance Spectroscopy

Run on channel : 4 (SN 66756)
User :
CE vs. WE compliance from -10 V to 10 V
Electrode connection : standard
Potential control : Ewe
Ewe ctrl range : min = -10.00 V, max = 10.00 V
Safety Limits :
	Do not start on E overload
Acquisition started on : 11/03/2025 16:08:50.134
Technique started on : 11/03/2025 16:08:51.914
Loaded Setting File :  C:\Users\Celltest\OneDrive - store-dot.com\Documents\EC-Lab\Data\@Biologic Test Protocols\anode half cell EIS SOC00.mps
Saved on :
	File : 18817_R307_UA701_3p24_SOC00_C04.mpr
	Directory : C:\Users\Celltest\OneDrive - store-dot.com\Documents\EC-Lab\Data\Anna\
	Host : 169.254.61.224
Device : VMP-3e (SN .003165)
Address : USB
EC-LAB for windows v11.62 (software)
Internet server v27.00 (firmware)
Command interpretor v12.03 (firmware)
Electrode material :
Initial state :
Electrolyte :
Comments :
Electrode surface area : 0.001 cm²
Characteristic mass : 0.001 g
Equivalent Weight : 0.000 g/eq.
Density : 0.000 g/cm3
Volume (V) : 0.001 cm³
Record Ece
Cycle Definition : Charge/Discharge alternance
Mode                Single sine
E (V)               0.0000
vs.                 Eoc
tE (h:m:s)          0:00:0.0000
record              0
dI                  0.000
unit dI             mA
dt (s)              0.000
fi                  100.000
unit fi             kHz
ff                  10.000
unit ff             mHz
Nd                  6
Points              per decade
spacing             Logarithmic
Va (mV)             5.0
pw                  0.10
Na                  2
corr                0
E range min (V)     -10.000
E range max (V)     10.000
I Range             Auto
Bandwidth           5
nc cycles           0
goto Ns'            0
nr cycles           0
inc. cycle          0

freq/Hz	Re(Z)/Ohm	-Im(Z)/Ohm	|Z|/Ohm	Phase(Z)/deg	time/s	<Ewe>/V	<I>/mA	Cs/µF	Cp/µF	cycle number	I Range	|Ewe|/V	|I|/A	Ns	(Q-Qo)/mA.h	<Ece>/V	|Ece|/V	Phase(Zce)/deg	|Zce|/Ohm	Re(Zce)/Ohm	-Im(Zce)/Ohm	Phase(Zwe-ce)/deg	|Zwe-ce|/Ohm	Re(Zwe-ce)/Ohm	-Im(Zwe-ce)/Ohm	Re(Y)/Ohm-1	Im(Y)/Ohm-1	|Y|/Ohm-1	Phase(Y)/deg	Re(C)/nF	Im(C)/nF	|C|/nF	Phase(C)/deg	Re(M)	Im(M)	|M|	Phase(M)/deg	Re(Permittivity)	Im(Permittivity)	|Permittivity|	Phase(Permittivity)/deg	Re(Resistivity)/Ohm.cm	Im(Resistivity)/Ohm.cm	|Resistivity|/Ohm.cm	Phase(Resistivity)/deg	Re(Conductivity)/mS/cm	Im(Conductivity)/mS/cm	|Conductivity|/mS/cm	Phase(Conductivity)/deg	Tan(Delta)	Loss Angle(Delta)/deg	dq/mA.h	Pwe/W	Pce/W	Pwe-ce/W	<Ewe-Ece>/V	Rwe/Ohm	Rce/Ohm	Rwe-ce/Ohm		Ewe-Ece/V
100004	1.48327	0.170462	1.49304	-6.55582	1.77954	0.246641	-0.0168437	9.33636	0.1217	1	9	0.00209157	0.00140088	0	-6.35509e-06	-0.000283041	2.83844e-05	48.6066	0.0202618	0.0133976	-0.0152002	-5.92256	1.5047	1.49667	0.155261	0.665397	0.0764691	0.669776	6.55582	121.7	1058.97	1065.94	-83.4442	0.0000000E+000	0.0000000E+000	0.0000000E+000	83.4442	0.0000000E+000	0.0000000E+000	0.0000000E+000	-83.4442	0.0000000E+000	0.0000000E+000	0.0000000E+000	-6.55582	0.0000000E+000	0.0000000E+000	0.0000000E+000	6.55582	8.70151	83.4442	-6.35509e-06	-4.15434e-06	4.76746e-09	-4.15911e-06	0.246924	14642.9	16.804	14659.7
31621.1	0.0333406	-0.319555	0.32129	84.0436	2.5766	0.246633	-0.0245643	-15.7506	-15.581	1	9	8.08598e-05	0.000251673	0	-8.07148e-06	-0.000149271	1.00746e-05	-2.34767	0.0400306	0.039997	0.00163978	77.0101	0.326264	0.0733376	-0.317915	0.322984	-3.09565	3.11246	-84.0436	-15581	1625.64	15665.6	-174.044	0.0000000E+000	0.0000000E+000	0.0000000E+000	174.044	0.0000000E+000	0.0000000E+000	0.0000000E+000	-174.044	0.0000000E+000	0.0000000E+000	0.0000000E+000	84.0436	0.0000000E+000	0.0000000E+000	0.0000000E+000	-84.0436	0.104335	5.95638	-9.20821e-07	-6.05837e-06	3.66674e-09	-6.06203e-06	0.246782	10040.3	6.07676	10046.4
10002.2	2.12339	0.6905	2.23284	-18.0139	4.45552	0.246623	-0.0284058	23.0441	2.2038	1	9	0.00512763	0.00229646	0	-5.37147e-05	-1.55017e-05	3.52729e-06	-95.8894	0.00153597	-0.000157604	0.00152786	-18.0524	2.23316	2.12323	0.692028	0.425907	0.1385	0.44786	18.0139	2203.8	6777.01	7126.33	-71.9861	0.0000000E+000	0.0000000E+000	0.0000000E+000	71.9861	0.0000000E+000	0.0000000E+000	0.0000000E+000	-71.9861	0.0000000E+000	0.0000000E+000	0.0000000E+000	-18.0139	0.0000000E+000	0.0000000E+000	0.0000000E+000	18.0139	3.07515	71.9861	-8.46859e-06	-7.00554e-06	4.40338e-10	-7.00598e-06	0.246639	8682.13	0.545722	8682.68
3163.08	2.64939	1.08108	2.86147	-22.1978	6.20867	0.246624	-0.0266902	46.5429	6.64338	1	9	0.00510571	0.0017843	0	-7.31495e-05	-0.000149271	1.30716e-05	155.768	0.00732589	-0.00668039	-0.00300683	-22.1926	2.85415	2.64271	1.07807	0.32357	0.132032	0.349471	22.1978	6643.38	16280.9	17584.1	-67.8022	0.0000000E+000	0.0000000E+000	0.0000000E+000	67.8022	0.0000000E+000	0.0000000E+000	0.0000000E+000	-67.8022	0.0000000E+000	0.0000000E+000	0.0000000E+000	-22.1978	0.0000000E+000	0.0000000E+000	0.0000000E+000	22.1978	2.4507	67.8022	-6.58307e-06	-6.58244e-06	3.98408e-09	-6.58642e-06	0.246773	9240.24	5.59274	9245.83
1000.32	3.4106	1.84825	3.8792	-28.4539	8.87785	0.246627	-0.00825711	86.0834	19.5415	1	10	0.00538731	0.00138877	0	-8.42977e-05	-0.000359481	6.27714e-06	-118.182	0.00451994	-0.00213468	0.00398409	-28.5207	3.87923	3.40846	1.85224	0.226645	0.122822	0.257785	28.4539	19541.5	36060.1	41014.6	-61.5461	0.0000000E+000	0.0000000E+000	0.0000000E+000	61.5461	0.0000000E+000	0.0000000E+000	0.0000000E+000	-61.5461	0.0000000E+000	0.0000000E+000	0.0000000E+000	-28.4539	0.0000000E+000	0.0000000E+000	0.0000000E+000	28.4539	1.84531	61.5461	-3.17758e-06	-2.03643e-06	2.96827e-09	-2.0394e-06	0.246987	29868.5	43.5359	29912
316.316	4.85694	3.57576	6.03125	-36.3611	10.6571	0.246617	-0.00923816	140.712	49.4599	1	10	0.00483878	0.000802286	0	-8.84708e-05	3.60827e-06	6.74476e-06	-32.5792	0.00840692	0.00708408	0.00452684	-36.3559	6.03964	4.86403	3.58029	0.133521	0.0983002	0.165803	36.3611	49459.9	67181.2	83424.2	-53.6389	0.0000000E+000	0.0000000E+000	0.0000000E+000	53.6389	0.0000000E+000	0.0000000E+000	0.0000000E+000	-53.6389	0.0000000E+000	0.0000000E+000	0.0000000E+000	-36.3611	0.0000000E+000	0.0000000E+000	0.0000000E+000	36.3611	1.3583	53.6389	-1.3745e-06	-2.27828e-06	-3.33338e-11	-2.27825e-06	0.246613	26695.4	0.390583	26695
100.032	8.65931	5.99602	10.5326	-34.7001	12.2168	0.246635	-0.00758197	265.349	85.9948	1	10	0.00485938	0.000461365	0	-9.15691e-05	-0.000225711	2.99101e-06	-69.2511	0.00648295	0.00229673	0.00606248	-34.7201	10.538	8.6616	6.00208	0.0780569	0.0540494	0.0949432	34.7001	85994.8	124192	151058	-55.2999	0.0000000E+000	0.0000000E+000	0.0000000E+000	55.2999	0.0000000E+000	0.0000000E+000	0.0000000E+000	-55.2999	0.0000000E+000	0.0000000E+000	0.0000000E+000	-34.7001	0.0000000E+000	0.0000000E+000	0.0000000E+000	34.7001	1.44418	55.2999	-1.2114e-06	-1.86998e-06	1.71134e-09	-1.87169e-06	0.246861	32529.1	29.7695	32558.9
31.6296	14.4612	6.26236	15.7589	-23.4148	13.5456	0.246622	-0.00789531	803.505	126.885	1	10	0.00475809	0.000301929	0	-9.42081e-05	0.000175598	6.8423e-06	4.87653	0.0226619	0.0225799	-0.00192646	-23.3758	15.7789	14.4838	6.26044	0.0582306	0.0252165	0.063456	23.4148	126885	293007	319301	-66.5852	0.0000000E+000	0.0000000E+000	0.0000000E+000	66.5852	0.0000000E+000	0.0000000E+000	0.0000000E+000	-66.5852	0.0000000E+000	0.0000000E+000	0.0000000E+000	-23.4148	0.0000000E+000	0.0000000E+000	0.0000000E+000	23.4148	2.30923	66.5852	-4.22945e-07	-1.94716e-06	-1.3864e-09	-1.94577e-06	0.246446	31236.5	22.2408	31214.3
10.0032	18.7807	4.80945	19.3868	-14.3639	15.1099	0.246622	-0.0065996	3308.15	203.594	1	11	0.00475928	0.000245491	0	-9.8173e-05	0.000252038	5.65238e-06	7.73476	0.0230248	0.0228153	-0.00309885	-14.3383	19.4081	18.8036	4.80635	0.0499691	0.0127963	0.0515816	14.3639	203594	795029	820683	-75.6361	0.0000000E+000	0.0000000E+000	0.0000000E+000	75.6361	0.0000000E+000	0.0000000E+000	0.0000000E+000	-75.6361	0.0000000E+000	0.0000000E+000	0.0000000E+000	-14.3639	0.0000000E+000	0.0000000E+000	0.0000000E+000	14.3639	3.90496	75.6361	-2.55252e-06	-1.62761e-06	-1.66335e-09	-1.62594e-06	0.24637	37369.2	38.1898	37331
3.1604	21.6834	3.71724	21.9997	-9.72782	16.6265	0.246628	-0.00588385	13547.4	386.782	1	11	0.00474443	0.000215659	0	-9.98347e-05	0.000137378	6.16941e-06	-71.0736	0.0286072	0.00927884	0.0270606	-9.79316	22.0134	21.6926	3.7443	0.0448016	0.00768047	0.0454552	9.72782	386782	2.25617e+06	2.28909e+06	-80.2722	0.0000000E+000	0.0000000E+000	0.0000000E+000	80.2722	0.0000000E+000	0.0000000E+000	0.0000000E+000	-80.2722	0.0000000E+000	0.0000000E+000	0.0000000E+000	-9.72782	0.0000000E+000	0.0000000E+000	0.0000000E+000	9.72782	5.83318	80.2722	-3.07146e-06	-1.45112e-06	-8.08311e-10	-1.45031e-06	0.246491	41916.1	23.3483	41892.8
1.00006	24.0191	2.88118	24.1913	-6.84017	22.265	0.246628	-0.00577201	55235.9	783.512	1	12	0.00474649	0.000196207	0	-0.000110129	0.000194708	3.07985e-06	-55.2117	0.015697	0.00895586	0.0128914	-6.86795	24.2017	24.028	2.89408	0.041043	0.00492327	0.0413372	6.84017	783512	6.53178e+06	6.5786e+06	-83.1598	0.0000000E+000	0.0000000E+000	0.0000000E+000	83.1598	0.0000000E+000	0.0000000E+000	0.0000000E+000	-83.1598	0.0000000E+000	0.0000000E+000	0.0000000E+000	-6.84017	0.0000000E+000	0.0000000E+000	0.0000000E+000	6.84017	8.33653	83.1598	-1.2342e-06	-1.42354e-06	-1.12386e-09	-1.42241e-06	0.246433	42728.2	33.7331	42694.5
0.316193	25.5909	2.50339	25.7131	-5.58708	36.6098	0.246638	-0.00324516	201066	1905.84	1	12	0.00474647	0.000184593	0	-0.000108241	-7.28316e-05	3.83494e-06	6.9419	0.0207751	0.0206228	-0.00251093	-5.57705	25.7334	25.6116	2.50088	0.0387059	0.00378634	0.0388907	5.58708	1.90584e+06	1.94825e+07	1.95755e+07	-84.4129	0.0000000E+000	0.0000000E+000	0.0000000E+000	84.4129	0.0000000E+000	0.0000000E+000	0.0000000E+000	-84.4129	0.0000000E+000	0.0000000E+000	0.0000000E+000	-5.58708	0.0000000E+000	0.0000000E+000	0.0000000E+000	5.58708	10.2225	84.4129	-4.62329e-06	-8.00379e-07	2.3635e-10	-8.00615e-07	0.24671	76001.6	22.4431	76024
0.0999041	26.9564	3.63741	27.2007	-7.68488	81.8169	0.246622	-0.00297275	437971	7831.92	1	12	0.00475182	0.000174695	0	-0.000234637	-1.55017e-05	2.28415e-06	8.07756	0.0130751	0.0129454	-0.00183722	-7.6774	27.2133	26.9694	3.63557	0.0364336	0.00491622	0.0367637	7.68488	7.83192e+06	5.80415e+07	5.85675e+07	-82.3151	0.0000000E+000	0.0000000E+000	0.0000000E+000	82.3151	0.0000000E+000	0.0000000E+000	0.0000000E+000	-82.3151	0.0000000E+000	0.0000000E+000	0.0000000E+000	-7.68488	0.0000000E+000	0.0000000E+000	0.0000000E+000	7.68488	7.41089	82.3151	-6.25404e-05	-7.33145e-07	4.60826e-11	-7.33191e-07	0.246637	82960.9	5.2146	82966.1
0.0315922	29.4848	7.85986	30.5145	-14.9264	224.7	0.246615	-0.00349709	640952	42524.9	1	12	0.00474699	0.000155565	0	-0.000304352	-0.000225711	2.92014e-06	21.1729	0.0187711	0.017504	-0.00677981	-14.9057	30.5296	29.5023	7.85308	0.0316656	0.00844118	0.0327713	14.9264	4.25249e+07	1.59524e+08	1.65095e+08	-75.0736	0.0000000E+000	0.0000000E+000	0.0000000E+000	75.0736	0.0000000E+000	0.0000000E+000	0.0000000E+000	-75.0736	0.0000000E+000	0.0000000E+000	0.0000000E+000	-14.9264	0.0000000E+000	0.0000000E+000	0.0000000E+000	14.9264	3.75132	75.0736	3.63128e-05	-8.62436e-07	7.89333e-10	-8.63226e-07	0.246841	70520	64.5425	70584.5
0.0100092	35.1406	17.5537	39.281	-26.5434	675.922	0.246621	-0.00168709	905844	180895	1	12	0.00474629	0.000120829	0	-8.17386e-05	9.9158e-05	3.97095e-06	-2.56859	0.0328641	0.0328311	0.00147282	-26.5239	39.311	35.1734	17.5552	0.0227743	0.0113764	0.0254576	26.5434	1.80895e+08	3.62132e+08	4.04799e+08	-63.4566	0.0000000E+000	0.0000000E+000	0.0000000E+000	63.4566	0.0000000E+000	0.0000000E+000	0.0000000E+000	-63.4566	0.0000000E+000	0.0000000E+000	0.0000000E+000	-26.5434	0.0000000E+000	0.0000000E+000	0.0000000E+000	26.5434	2.00189	63.4566	-3.17654e-05	-4.16072e-07	-1.67289e-10	-4.15904e-07	0.246522	146181	58.7746	146122