File: txt/18816_R307_UA701_3p24_SOC00_C03.mpt
EC-Lab ASCII FILE
Nb header lines : 65

Potentio Electrochemical Impedance Spectroscopy

Run on channel : 3 (SN 65921)
User :
CE vs. WE compliance from -10 V to 10 V
Electrode connection : standard
Potential control : Ewe
Ewe ctrl range : min = -10.00 V, max = 10.00 V
Safety Limits :
	Do not start on E overload
Acquisition started on : 11/03/2025 16:08:41.593
Technique started on : 11/03/2025 16:08:43.462
Loaded Setting File :  C:\Users\Celltest\OneDrive - store-dot.com\Documents\EC-Lab\Data\@Biologic Test Protocols\anode half cell EIS SOC00.mps
Saved on :
	File : 18816_R307_UA701_3p24_SOC00_C03.mpr
	Directory : C:\Users\Celltest\OneDrive - store-dot.com\Documents\EC-Lab\Data\Anna\
	Host : 169.254.61.224
Device : VMP-3e (SN .003165)
Address : USB
EC-LAB for windows v11.62 (software)
Internet server v27.00 (firmware)
Command interpretor v12.03 (firmware)
Electrode material :
Initial state :
Electrolyte :
Comments :
Electrode surface area : 0.001 cm²
Characteristic mass : 0.001 g
Equivalent Weight : 0.000 g/eq.
Density : 0.000 g/cm3
Volume (V) : 0.001 cm³
Record Ece
Cycle Definition : Charge/Discharge alternance
Mode                Single sine
E (V)               0.0000
vs.                 Eoc
tE (h:m:s)          0:00:0.0000
record              0
dI                  0.000
unit dI             mA
dt (s)              0.000
fi                  100.000
unit fi             kHz
ff                  10.000
unit ff             mHz
Nd                  6
Points              per decade
spacing             Logarithmic
Va (mV)             5.0
pw                  0.10
Na                  2
corr                0
E range min (V)     -10.000
E range max (V)     10.000
I Range             Auto
Bandwidth           5
nc cycles           0
goto Ns'            0
nr cycles           0
inc. cycle          0

freq/Hz	Re(Z)/Ohm	-Im(Z)/Ohm	|Z|/Ohm	Phase(Z)/deg	time/s	<Ewe>/V	<I>/mA	Cs/µF	Cp/µF	cycle number	I Range	|Ewe|/V	|I|/A	Ns	(Q-Qo)/mA.h	<Ece>/V	|Ece|/V	Phase(Zce)/deg	|Zce|/Ohm	Re(Zce)/Ohm	-Im(Zce)/Ohm	Phase(Zwe-ce)/deg	|Zwe-ce|/Ohm	Re(Zwe-ce)/Ohm	-Im(Zwe-ce)/Ohm	Re(Y)/Ohm-1	Im(Y)/Ohm-1	|Y|/Ohm-1	Phase(Y)/deg	Re(C)/nF	Im(C)/nF	|C|/nF	Phase(C)/deg	Re(M)	Im(M)	|M|	Phase(M)/deg	Re(Permittivity)	Im(Permittivity)	|Permittivity|	Phase(Permittivity)/deg	Re(Resistivity)/Ohm.cm	Im(Resistivity)/Ohm.cm	|Resistivity|/Ohm.cm	Phase(Resistivity)/deg	Re(Conductivity)/mS/cm	Im(Conductivity)/mS/cm	|Conductivity|/mS/cm	Phase(Conductivity)/deg	Tan(Delta)	Loss Angle(Delta)/deg	dq/mA.h	Pwe/W	Pce/W	Pwe-ce/W	<Ewe-Ece>/V	Rwe/Ohm	Rce/Ohm	Rwe-ce/Ohm		Ewe-Ece/V
100004	1.19788	0.455366	1.28151	-20.814	1.86854	0.248206	0.0346766	3.49497	0.441284	1	9	0.00495475	0.00386633	0	-4.63763e-06	-4.23269e-05	4.71284e-05	71.0956	0.0121894	0.00394925	-0.0115319	-20.2691	1.28117	1.20183	0.443834	0.729402	0.277277	0.780327	20.814	441.284	1160.84	1241.88	-69.186	0.0000000E+000	0.0000000E+000	0.0000000E+000	69.186	0.0000000E+000	0.0000000E+000	0.0000000E+000	-69.186	0.0000000E+000	0.0000000E+000	0.0000000E+000	-20.814	0.0000000E+000	0.0000000E+000	0.0000000E+000	20.814	2.63059	69.186	-4.63763e-06	8.60693e-06	-1.46776e-09	8.6084e-06	0.248248	7157.73	1.22062	7158.95
31621.1	1.5827	0.604069	1.69406	-20.8903	3.14556	0.248185	0.0271433	8.33214	1.05942	1	9	0.005489	0.00324014	0	-2.84443e-06	-4.23269e-05	1.19104e-05	32.1758	0.00367587	0.00311133	-0.00195747	-20.7911	1.69627	1.58581	0.602111	0.551494	0.210488	0.590297	20.8903	1059.42	2775.77	2971.07	-69.1097	0.0000000E+000	0.0000000E+000	0.0000000E+000	69.1097	0.0000000E+000	0.0000000E+000	0.0000000E+000	-69.1097	0.0000000E+000	0.0000000E+000	0.0000000E+000	-20.8903	0.0000000E+000	0.0000000E+000	0.0000000E+000	20.8903	2.62007	69.1097	-6.00579e-06	6.73657e-06	-1.14889e-09	6.73772e-06	0.248228	9143.5	1.55939	9145.06
10002.2	2.0463	0.803379	2.19835	-21.435	4.29452	0.248195	0.0318423	19.8063	2.64515	1	9	0.00512901	0.00233312	0	4.9768e-06	-9.96091e-05	4.89998e-06	12.6124	0.00210019	0.00204951	-0.000458584	-21.4044	2.20009	2.04835	0.802921	0.423423	0.166236	0.454886	21.435	2645.15	6737.48	7238.13	-68.565	0.0000000E+000	0.0000000E+000	0.0000000E+000	68.565	0.0000000E+000	0.0000000E+000	0.0000000E+000	-68.565	0.0000000E+000	0.0000000E+000	0.0000000E+000	-21.435	0.0000000E+000	0.0000000E+000	0.0000000E+000	21.435	2.54711	68.565	3.623e-06	7.9031e-06	-3.17178e-09	7.90627e-06	0.248294	7794.5	3.1282	7797.63
3163.08	2.64211	1.16131	2.88606	-23.7273	5.19268	0.248049	-0.0195483	43.3275	7.01528	1	9	0.00521339	0.0018064	0	8.52017e-06	-0.000366926	8.03193e-06	72.3081	0.00444637	0.00135125	-0.00423608	-23.6395	2.8856	2.64346	1.15707	0.317204	0.139423	0.346493	23.7273	7015.27	15960.6	17434.3	-66.2727	0.0000000E+000	0.0000000E+000	0.0000000E+000	66.2727	0.0000000E+000	0.0000000E+000	0.0000000E+000	-66.2727	0.0000000E+000	0.0000000E+000	0.0000000E+000	-23.7273	0.0000000E+000	0.0000000E+000	0.0000000E+000	23.7273	2.27512	66.2727	-1.34459e-06	-4.84893e-06	7.17277e-09	-4.8561e-06	0.248416	12689.1	18.7703	12707.8
1000.32	3.45141	1.8669	3.92397	-28.4093	6.79085	0.248132	-0.0182833	85.2238	19.2908	1	10	0.00513533	0.00130871	0	7.00739e-06	-6.1421e-05	5.01321e-06	38.6893	0.00383065	0.00299001	-0.00239453	-28.3578	3.92546	3.4544	1.8645	0.224153	0.121247	0.254844	28.4093	19290.8	35663.7	40546.7	-61.5907	0.0000000E+000	0.0000000E+000	0.0000000E+000	61.5907	0.0000000E+000	0.0000000E+000	0.0000000E+000	-61.5907	0.0000000E+000	0.0000000E+000	0.0000000E+000	-28.4093	0.0000000E+000	0.0000000E+000	0.0000000E+000	28.4093	1.84874	61.5907	-3.18065e-06	-4.53668e-06	1.12298e-09	-4.5378e-06	0.248194	13571.5	3.3594	13574.9
316.316	5.00036	3.42283	6.05965	-34.3923	8.14106	0.248129	-0.0178247	146.999	46.9018	1	10	0.00501673	0.000827891	0	1.55191e-06	3.40493e-05	1.46834e-05	-22.2618	0.0177359	0.0164139	0.00671906	-34.3572	6.07699	5.01677	3.42955	0.136178	0.093216	0.165026	34.3923	46901.8	68518.1	83033.2	-55.6077	0.0000000E+000	0.0000000E+000	0.0000000E+000	55.6077	0.0000000E+000	0.0000000E+000	0.0000000E+000	-55.6077	0.0000000E+000	0.0000000E+000	0.0000000E+000	-34.3923	0.0000000E+000	0.0000000E+000	0.0000000E+000	34.3923	1.46088	55.6077	-1.58818e-06	-4.42282e-06	-6.06918e-10	-4.42222e-06	0.248095	13920.5	1.91023	13918.6
100.032	8.62032	5.33609	10.1382	-31.7581	9.48885	0.248117	-0.0174406	298.166	82.5999	1	10	0.00498032	0.000491241	0	-5.1747e-06	1.49552e-05	1.53662e-05	85.8072	0.0312803	0.00228698	-0.0311966	-31.6011	10.1238	8.62261	5.3049	0.0838685	0.0519157	0.0986365	31.7581	82599.9	133438	156935	-58.242	0.0000000E+000	0.0000000E+000	0.0000000E+000	58.242	0.0000000E+000	0.0000000E+000	0.0000000E+000	-58.242	0.0000000E+000	0.0000000E+000	0.0000000E+000	-31.7581	0.0000000E+000	0.0000000E+000	0.0000000E+000	31.7581	1.61547	58.242	-1.43029e-06	-4.32732e-06	-2.60829e-10	-4.32706e-06	0.248102	14226.4	0.857495	14225.6
31.6296	13.5498	5.17606	14.5047	-20.9071	10.8176	0.248122	-0.0201515	972.137	123.796	1	10	0.00497559	0.000343032	0	-1.10472e-05	1.49552e-05	6.00931e-06	103.539	0.0175182	-0.00410108	-0.0170314	-20.8499	14.4948	13.5457	5.15903	0.0644038	0.0246025	0.068943	20.9071	123796	324070	346910	-69.0929	0.0000000E+000	0.0000000E+000	0.0000000E+000	69.0929	0.0000000E+000	0.0000000E+000	0.0000000E+000	-69.0929	0.0000000E+000	0.0000000E+000	0.0000000E+000	-20.9071	0.0000000E+000	0.0000000E+000	0.0000000E+000	20.9071	2.61777	69.0929	-1.91795e-06	-5.00003e-06	-3.01371e-10	-4.99972e-06	0.248107	12312.8	0.74214	12312.1
10.0032	16.9335	3.71847	17.337	-12.3852	12.3818	0.248154	-0.0120631	4278.75	196.834	1	11	0.00496826	0.000286571	0	-1.52739e-05	-0.000252362	3.79587e-06	-100.348	0.0132459	-0.00237927	0.0130304	-12.4289	17.3374	16.9311	3.7315	0.0563379	0.0123714	0.0576803	12.3852	196834	896359	917716	-77.6148	0.0000000E+000	0.0000000E+000	0.0000000E+000	77.6148	0.0000000E+000	0.0000000E+000	0.0000000E+000	-77.6148	0.0000000E+000	0.0000000E+000	0.0000000E+000	-12.3852	0.0000000E+000	0.0000000E+000	0.0000000E+000	12.3852	4.55389	77.6148	-2.4641e-06	-2.9935e-06	3.04426e-09	-2.99654e-06	0.248406	20571.4	20.9202	20592.3
3.1604	19.09	2.53818	19.258	-7.57356	13.8984	0.248143	-0.0113085	19840.7	344.652	1	11	0.00497186	0.000258172	0	-2.29907e-05	-0.000156891	5.66936e-06	-109.068	0.0219597	-0.00717416	0.0207547	-7.6376	19.2536	19.0828	2.55894	0.0514736	0.00684387	0.0519266	7.57356	344652	2.59217e+06	2.61498e+06	-82.4264	0.0000000E+000	0.0000000E+000	0.0000000E+000	82.4264	0.0000000E+000	0.0000000E+000	0.0000000E+000	-82.4264	0.0000000E+000	0.0000000E+000	0.0000000E+000	-7.57356	0.0000000E+000	0.0000000E+000	0.0000000E+000	7.57356	7.52112	82.4264	-4.66594e-06	-2.80612e-06	1.77421e-09	-2.8079e-06	0.2483	21943	13.8738	21956.9
1.00006	20.3944	1.82917	20.4763	-5.12512	19.5379	0.248147	-0.00943074	87003.9	694.294	1	12	0.00497515	0.000242971	0	-2.4937e-05	-4.13882e-06	3.36865e-06	90.5973	0.0138644	-0.000144527	-0.0138637	-5.08652	20.4749	20.3943	1.8153	0.0486417	0.00436266	0.048837	5.12512	694294	7.74108e+06	7.77215e+06	-84.8749	0.0000000E+000	0.0000000E+000	0.0000000E+000	84.8749	0.0000000E+000	0.0000000E+000	0.0000000E+000	-84.8749	0.0000000E+000	0.0000000E+000	0.0000000E+000	-5.12512	0.0000000E+000	0.0000000E+000	0.0000000E+000	5.12512	11.1496	84.8749	-2.20235e-06	-2.34021e-06	3.90321e-11	-2.34025e-06	0.248152	26312.6	0.438865	26313.1
0.316193	21.2637	1.91807	21.35	-5.15436	33.8809	0.248147	-0.00631845	262424	2118.05	1	12	0.00497211	0.000232885	0	-8.6643e-05	0.000282272	1.59089e-06	-29.7712	0.00683122	0.0059296	0.00339195	-5.162	21.3562	21.2696	1.92146	0.046649	0.00420793	0.0468384	5.15436	2.11805e+06	2.34806e+07	2.3576e+07	-84.8456	0.0000000E+000	0.0000000E+000	0.0000000E+000	84.8456	0.0000000E+000	0.0000000E+000	0.0000000E+000	-84.8456	0.0000000E+000	0.0000000E+000	0.0000000E+000	-5.15436	0.0000000E+000	0.0000000E+000	0.0000000E+000	5.15436	11.086	84.8456	-3.31032e-05	-1.56791e-06	-1.78352e-09	-1.56612e-06	0.247865	39273.4	44.6742	39228.7
0.0999041	22.4448	3.52008	22.7192	-8.91326	79.0888	0.248148	-0.00644512	452568	10864.4	1	12	0.00497251	0.000218868	0	-0.000167763	-8.05151e-05	3.54494e-06	9.58495	0.0161967	0.0159705	-0.0026969	-8.90031	22.7345	22.4608	3.51738	0.0434842	0.00681975	0.0440157	8.91326	1.08644e+07	6.92737e+07	7.01205e+07	-81.0867	0.0000000E+000	0.0000000E+000	0.0000000E+000	81.0867	0.0000000E+000	0.0000000E+000	0.0000000E+000	-81.0867	0.0000000E+000	0.0000000E+000	0.0000000E+000	-8.91326	0.0000000E+000	0.0000000E+000	0.0000000E+000	8.91326	6.37621	81.0867	-7.14543e-06	-1.59934e-06	5.1893e-10	-1.59986e-06	0.248228	38501.6	12.4924	38514.1
0.0315922	24.9448	7.47958	26.042	-16.6911	221.971	0.248143	-0.00201787	673540	55560.8	1	12	0.00497048	0.000190864	0	-6.03049e-06	-4.23269e-05	1.56473e-06	-7.44741	0.00819815	0.00812899	0.00106261	-16.6882	26.0501	24.9529	7.48064	0.0367816	0.0110288	0.0383995	16.6911	5.55608e+07	1.85298e+08	1.93449e+08	-73.3089	0.0000000E+000	0.0000000E+000	0.0000000E+000	73.3089	0.0000000E+000	0.0000000E+000	0.0000000E+000	-73.3089	0.0000000E+000	0.0000000E+000	0.0000000E+000	-16.6911	0.0000000E+000	0.0000000E+000	0.0000000E+000	16.6911	3.33505	73.3089	6.06872e-05	-5.00719e-07	8.54102e-11	-5.00804e-07	0.248185	122973	20.9761	122994
0.0100092	29.7846	16.7345	34.1638	-29.3295	673.191	0.248148	-0.00221377	950189	227983	1	12	0.00497068	0.000145496	0	-0.000936406	0.00012952	1.64879e-06	-34.2905	0.0113322	0.00936257	0.00638443	-29.3311	34.1751	29.7939	16.7409	0.0255188	0.0143377	0.0292708	29.3295	2.27983e+08	4.05772e+08	4.65432e+08	-60.6705	0.0000000E+000	0.0000000E+000	0.0000000E+000	60.6705	0.0000000E+000	0.0000000E+000	0.0000000E+000	-60.6705	0.0000000E+000	0.0000000E+000	0.0000000E+000	-29.3295	0.0000000E+000	0.0000000E+000	0.0000000E+000	29.3295	1.77983	60.6705	-0.000553814	-5.49343e-07	-2.86727e-10	-5.49056e-07	0.248019	112093	58.5063	112034