File: txt/18811_R307_UC93_30_SOC50_C07.mpt
EC-Lab ASCII FILE
Nb header lines : 65

Potentio Electrochemical Impedance Spectroscopy

Run on channel : 6 (SN 65795)
Grouped channel(s) : 5, 6, 7, 8
CE vs. WE compliance from -10 V to 10 V
Electrode connection : standard
Potential control : Ewe
Ewe ctrl range : min = -10.00 V, max = 10.00 V
Safety Limits :
	Do not start on E overload
Acquisition started on : 11/11/2025 16:20:58.367
Loaded Setting File :  C:\Users\Celltest\OneDrive - store-dot.com\Documents\EC-Lab\Data\@Biologic Test Protocols\cathode half cell EIS SOC50.mps
Saved on :
	File : 19187_R297_UC94_SOC50_C06.mpr
	Directory : C:\Users\Celltest\OneDrive - store-dot.com\Documents\EC-Lab\Data\Michael\
	Host : 169.254.61.224
Device : VMP-3e (SN .003165)
Address : USB
EC-LAB for windows v11.62 (software)
Internet server v27.00 (firmware)
Command interpretor v12.03 (firmware)
Electrode material :
Initial state :
Electrolyte :
Comments :
Electrode surface area : 0.001 cm²
Characteristic mass : 0.001 g
Equivalent Weight : 0.000 g/eq.
Density : 0.000 g/cm3
Volume (V) : 0.001 cm³
Record Ece
Cycle Definition : Charge/Discharge alternance
Mode                Multi sine
E (V)               0.0000
vs.                 Eoc
tE (h:m:s)          0:00:0.0000
record              0
dI                  0.000
unit dI             mA
dt (s)              0.000
fi                  1.000
unit fi             MHz
ff                  0.100
unit ff             mHz
Nd                  10
Points              per decade
spacing             Logarithmic
Va (mV)             5.0
pw                  0.10
Na                  2
corr                0
E range min (V)     -10.000
E range max (V)     10.000
I Range             Auto
Bandwidth           5
nc cycles           0
goto Ns'            0
nr cycles           0
inc. cycle          0
Nb header lines : 3

freq/Hz	Re(Z)/Ohm	-Im(Z)/Ohm	|Z|/Ohm	Phase(Z)/deg	time/s	<Ewe>/V	<I>/mA	Cs/µF	Cp/µF	cycle number	I Range	|Ewe|/V	|I|/A	Ns	(Q-Qo)/mA.h	<Ece>/V	|Ece|/V	Phase(Zce)/deg	|Zce|/Ohm	Re(Zce)/Ohm	-Im(Zce)/Ohm	Phase(Zwe-ce)/deg	|Zwe-ce|/Ohm	Re(Zwe-ce)/Ohm	-Im(Zwe-ce)/Ohm	Re(Y)/Ohm-1	Im(Y)/Ohm-1	|Y|/Ohm-1	Phase(Y)/deg	Re(C)/nF	Im(C)/nF	|C|/nF	Phase(C)/deg	Re(M)	Im(M)	|M|	Phase(M)/deg	Re(Permittivity)	Im(Permittivity)	|Permittivity|	Phase(Permittivity)/deg	Re(Resistivity)/Ohm.cm	Im(Resistivity)/Ohm.cm	|Resistivity|/Ohm.cm	Phase(Resistivity)/deg	Re(Conductivity)/mS/cm	Im(Conductivity)/mS/cm	|Conductivity|/mS/cm	Phase(Conductivity)/deg	Tan(Delta)	Loss Angle(Delta)/deg	dq/mA.h	Pwe/W	Pce/W	Pwe-ce/W	<Ewe-Ece>/V	Rwe/Ohm	Rce/Ohm	Rwe-ce/Ohm		Ewe-Ece/V
1.00002e+06	3.15445	2.97004	4.33263	-43.2753	2.23453	3.97162	-0.0402497	0.0535858	0.0251809	1	10	0.000229556	5.29831e-05	0	-1.68332e-05	-6.25447e-05	0.000198601	-63.3232	3.74839	1.68287	3.34938	-52.5671	7.95831	4.83732	6.31942	0.168043	0.158219	0.230806	43.2753	25.1809	26.7444	36.7333	-46.7247	0.0000000E+000	0.0000000E+000	0.0000000E+000	46.7247	0.0000000E+000	0.0000000E+000	0.0000000E+000	-46.7247	0.0000000E+000	0.0000000E+000	0.0000000E+000	-43.2753	0.0000000E+000	0.0000000E+000	0.0000000E+000	43.2753	1.06209	46.7247	-1.68332e-05	-0.000159857	2.51741e-09	-0.000159859	3.97169	98674.5	1.55392	98676.1
251206	1.36356	0.355391	1.40911	-14.6083	4.93653	3.97181	0.0414138	1.78272	0.113398	1	9	0.00311515	0.00221073	0	3.35812e-06	-4.34693e-05	6.01623e-05	84.5232	0.0272138	0.00259738	-0.0270896	-13.5126	1.40505	1.36615	0.328301	0.686727	0.178985	0.709669	14.6083	113.398	435.085	449.62	-75.3917	0.0000000E+000	0.0000000E+000	0.0000000E+000	75.3917	0.0000000E+000	0.0000000E+000	0.0000000E+000	-75.3917	0.0000000E+000	0.0000000E+000	0.0000000E+000	-14.6083	0.0000000E+000	0.0000000E+000	0.0000000E+000	14.6083	3.83678	75.3917	3.66087e-06	0.000164488	-1.80023e-09	0.00016449	3.97185	95905.4	1.04963	95906.5
63093.8	1.92328	0.938148	2.13989	-26.0024	7.23855	3.97185	0.0545954	2.68882	0.516797	1	9	0.00529356	0.00247375	0	6.55431e-05	-4.34693e-05	1.97026e-05	71.7396	0.00796466	0.00249561	-0.00756358	-25.791	2.13883	1.92578	0.930584	0.42001	0.204874	0.467313	26.0024	516.797	1059.48	1178.8	-63.9976	0.0000000E+000	0.0000000E+000	0.0000000E+000	63.9976	0.0000000E+000	0.0000000E+000	0.0000000E+000	-63.9976	0.0000000E+000	0.0000000E+000	0.0000000E+000	-26.0024	0.0000000E+000	0.0000000E+000	0.0000000E+000	26.0024	2.05009	63.9976	1.16478e-05	0.000216845	-2.37322e-09	0.000216847	3.9719	72750.7	0.796207	72751.5
15847.7	2.94365	1.49619	3.30207	-26.9431	9.53955	3.97185	0.0491589	6.71225	1.37806	1	9	0.00522772	0.00158316	0	0.000102025	-0.000310525	5.19431e-06	-112.133	0.00328096	-0.00123612	0.0030392	-26.9998	3.30235	2.94242	1.49923	0.269969	0.137219	0.30284	26.9431	1378.06	2711.24	3041.36	-63.0569	0.0000000E+000	0.0000000E+000	0.0000000E+000	63.0569	0.0000000E+000	0.0000000E+000	0.0000000E+000	-63.0569	0.0000000E+000	0.0000000E+000	0.0000000E+000	-26.9431	0.0000000E+000	0.0000000E+000	0.0000000E+000	26.9431	1.96744	63.0569	4.04698e-06	0.000195252	-1.52651e-08	0.000195267	3.97216	80796.1	6.31676	80802.5
3983.6	4.40995	2.3685	5.00574	-28.2394	11.5441	3.97182	-0.0209249	16.8683	3.77642	1	10	0.00520077	0.00103896	0	0.000111282	-0.000272374	5.49026e-06	-84.5679	0.00528438	0.000500251	0.00526065	-28.2897	5.00868	4.41045	2.37376	0.175994	0.0945227	0.199771	28.2394	3776.42	7031.39	7981.34	-61.7606	0.0000000E+000	0.0000000E+000	0.0000000E+000	61.7606	0.0000000E+000	0.0000000E+000	0.0000000E+000	-61.7606	0.0000000E+000	0.0000000E+000	0.0000000E+000	-28.2394	0.0000000E+000	0.0000000E+000	0.0000000E+000	28.2394	1.86192	61.7606	-1.5388e-06	-8.31097e-05	5.6994e-09	-8.31154e-05	3.97209	189813	13.0168	189826
1000.32	7.07839	3.8495	8.05744	-28.539	14.1728	3.97178	-0.0222688	41.3311	9.43391	1	10	0.00483655	0.00060026	0	9.54673e-05	-6.25447e-05	1.28128e-05	18.3255	0.0213455	0.020263	-0.00671134	-28.4285	8.07205	7.09865	3.84279	0.109029	0.059294	0.124109	28.539	9433.91	17346.9	19746.2	-61.461	0.0000000E+000	0.0000000E+000	0.0000000E+000	61.461	0.0000000E+000	0.0000000E+000	0.0000000E+000	-61.461	0.0000000E+000	0.0000000E+000	0.0000000E+000	-28.539	0.0000000E+000	0.0000000E+000	0.0000000E+000	28.539	1.83878	61.461	-2.55931e-06	-8.84468e-05	1.39279e-09	-8.84482e-05	3.97184	178356	2.80862	178359
251.044	11.6982	4.32319	12.4714	-20.2824	16.873	3.97178	-0.0215391	146.644	17.6214	1	10	0.00474558	0.000380516	0	7.95458e-05	-0.000157922	9.12545e-06	-10.4831	0.0239818	0.0235815	0.00436338	-20.2637	12.4951	11.7217	4.32755	0.0752115	0.0277953	0.0801832	20.2824	17621.4	47681.9	50833.9	-69.7176	0.0000000E+000	0.0000000E+000	0.0000000E+000	69.7176	0.0000000E+000	0.0000000E+000	0.0000000E+000	-69.7176	0.0000000E+000	0.0000000E+000	0.0000000E+000	-20.2824	0.0000000E+000	0.0000000E+000	0.0000000E+000	20.2824	2.70591	69.7176	-2.43497e-06	-8.55487e-05	3.4015e-09	-8.55521e-05	3.97193	184398	7.33185	184405
63.0823	15.1342	2.43159	15.3283	-9.12761	19.593	3.97179	-0.01852	1037.58	26.1104	1	10	0.004736	0.00030897	0	6.53474e-05	-0.000157922	7.42241e-06	-55.7672	0.0240231	0.0135144	0.0198613	-9.19283	15.3448	15.1478	2.45146	0.0644125	0.0103491	0.0652386	9.12761	26110.4	162511	164595	-80.8724	0.0000000E+000	0.0000000E+000	0.0000000E+000	80.8724	0.0000000E+000	0.0000000E+000	0.0000000E+000	-80.8724	0.0000000E+000	0.0000000E+000	0.0000000E+000	-9.12761	0.0000000E+000	0.0000000E+000	0.0000000E+000	9.12761	6.224	80.8724	-2.51319e-06	-7.35575e-05	2.92471e-09	-7.35604e-05	3.97195	214460	8.5271	214468
15.8576	16.1952	1.04267	16.2287	-3.68371	22.498	3.97182	-0.0194572	9625.79	39.7341	1	11	0.00474399	0.000292321	0	4.84892e-05	-8.16201e-05	3.13775e-06	-117.956	0.0107339	-0.00503203	0.00948132	-3.71826	16.2243	16.1901	1.05215	0.061492	0.00395895	0.0616193	3.68371	39734.1	617166	618443	-86.3163	0.0000000E+000	0.0000000E+000	0.0000000E+000	86.3163	0.0000000E+000	0.0000000E+000	0.0000000E+000	-86.3163	0.0000000E+000	0.0000000E+000	0.0000000E+000	-3.68371	0.0000000E+000	0.0000000E+000	0.0000000E+000	3.68371	15.5324	86.3163	-1.77298e-06	-7.72803e-05	1.58809e-09	-7.72819e-05	3.9719	204132	4.19486	204136
3.97785	16.5877	0.680252	16.6017	-2.34835	25.4124	3.97184	-0.0171352	58816.8	98.7501	1	11	0.00472901	0.000284851	0	3.72274e-05	-0.000176997	5.60859e-06	-7.57778	0.0196895	0.0195176	0.0025965	-2.35453	16.6213	16.6073	0.682849	0.0601843	0.00246812	0.0602349	2.34835	98750.2	2.40799e+06	2.41001e+06	-87.6516	0.0000000E+000	0.0000000E+000	0.0000000E+000	87.6516	0.0000000E+000	0.0000000E+000	0.0000000E+000	-87.6516	0.0000000E+000	0.0000000E+000	0.0000000E+000	-2.34835	0.0000000E+000	0.0000000E+000	0.0000000E+000	2.34835	24.3847	87.6516	8.43043e-07	-6.80582e-05	3.03288e-09	-6.80613e-05	3.97202	231794	10.3295	231805
1.00469	17.3274	0.835404	17.3475	-2.76026	240.227	3.9718	-0.0142371	189622	439.754	1	11	0.0050592	0.000291638	0	-0.00201143	-0.000405902	3.86898e-07	-2.06825	0.00132664	0.00132577	4.78781e-05	-2.76021	17.3488	17.3287	0.835452	0.0575783	0.00277602	0.0576452	2.76026	439754	9.12106e+06	9.13166e+06	-87.2397	0.0000000E+000	0.0000000E+000	0.0000000E+000	87.2397	0.0000000E+000	0.0000000E+000	0.0000000E+000	-87.2397	0.0000000E+000	0.0000000E+000	0.0000000E+000	-2.76026	0.0000000E+000	0.0000000E+000	0.0000000E+000	2.76026	20.7413	87.2397	-0.0020194	-5.65468e-05	5.77887e-09	-5.65526e-05	3.9722	278975	28.5102	279004
0.251173	18.0835	1.52969	18.1481	-4.83515	240.227	3.9718	-0.0142371	414232	2942.97	1	11	0.00508936	0.000280434	0	-0.00201143	-0.000405902	3.49415e-07	-12.6693	0.00124598	0.00121564	0.000273272	-4.83568	18.1493	18.0847	1.52996	0.0549061	0.00464451	0.0551022	4.83515	2.94298e+06	3.4791e+07	3.49152e+07	-85.1648	0.0000000E+000	0.0000000E+000	0.0000000E+000	85.1648	0.0000000E+000	0.0000000E+000	0.0000000E+000	-85.1648	0.0000000E+000	0.0000000E+000	0.0000000E+000	-4.83515	0.0000000E+000	0.0000000E+000	0.0000000E+000	4.83515	11.8217	85.1648	0.000000000000000E+000	-5.65468e-05	5.77887e-09	-5.65526e-05	3.9722	278975	28.5102	279004
0.0602816	19.6386	2.95156	19.8591	-8.54725	240.228	3.9718	-0.0142371	894506	19759.1	1	11	0.00507887	0.000255745	0	-0.00201143	-0.000405902	8.7915e-07	-27.1956	0.0034376	0.00305758	0.00157109	-8.55042	19.8624	19.6416	2.95313	0.0497954	0.00748396	0.0503547	8.54725	1.97591e+07	1.31469e+08	1.32946e+08	-81.4528	0.0000000E+000	0.0000000E+000	0.0000000E+000	81.4528	0.0000000E+000	0.0000000E+000	0.0000000E+000	-81.4528	0.0000000E+000	0.0000000E+000	0.0000000E+000	-8.54725	0.0000000E+000	0.0000000E+000	0.0000000E+000	8.54725	6.65362	81.4528	0.000000000000000E+000	-5.65468e-05	5.77887e-09	-5.65526e-05	3.9722	278975	28.5102	279004
0.00796479	28.4214	6.81577	29.2272	-13.4855	20329.2	3.97179	-8.4068e-05	2.93178e+06	159436	1	11	0.00507222	0.000173544	0	-0.00919078	-0.000253299	2.39092e-07	-30.6487	0.0013777	0.00118525	0.000702312	-13.4863	29.2285	28.4226	6.81647	0.0332714	0.00797885	0.0342147	13.4855	1.59436e+08	6.64839e+08	6.83689e+08	-76.5145	0.0000000E+000	0.0000000E+000	0.0000000E+000	76.5145	0.0000000E+000	0.0000000E+000	0.0000000E+000	-76.5145	0.0000000E+000	0.0000000E+000	0.0000000E+000	-13.4855	0.0000000E+000	0.0000000E+000	0.0000000E+000	13.4855	4.16995	76.5145	-0.00717934	-3.339e-07	2.12943e-11	-3.33922e-07	3.97204	4.7245e+07	3013.02	4.7248e+07
0.0019912	35.5401	10.5487	37.0726	-16.5315	20329.2	3.97179	-8.4068e-05	7.57714e+06	613481	1	11	0.00508425	0.000137143	0	-0.00919078	-0.000253299	7.31592e-07	-105.085	0.00533451	-0.00138831	0.00515069	-16.5398	37.0727	35.5387	10.5539	0.0258591	0.00767529	0.0269741	16.5315	6.13481e+08	2.0669e+09	2.15602e+09	-73.4685	0.0000000E+000	0.0000000E+000	0.0000000E+000	73.4685	0.0000000E+000	0.0000000E+000	0.0000000E+000	-73.4685	0.0000000E+000	0.0000000E+000	0.0000000E+000	-16.5315	0.0000000E+000	0.0000000E+000	0.0000000E+000	16.5315	3.36914	73.4685	0.000000000000000E+000	-3.339e-07	2.12943e-11	-3.33922e-07	3.97204	4.7245e+07	3013.02	4.7248e+07
0.000497799	41.055	16.3348	44.1852	-21.6964	20329.2	3.97179	-8.4068e-05	1.95728e+07	2.675e+06	1	11	0.00508334	0.000115046	0	-0.00919078	-0.000253299	1.44636e-06	-11.3498	0.012572	0.0123261	0.00247414	-21.6935	44.1976	41.0673	16.3372	0.0210286	0.00836678	0.022632	21.6964	2.675e+09	6.72322e+09	7.23584e+09	-68.3036	0.0000000E+000	0.0000000E+000	0.0000000E+000	68.3036	0.0000000E+000	0.0000000E+000	0.0000000E+000	-68.3036	0.0000000E+000	0.0000000E+000	0.0000000E+000	-21.6964	0.0000000E+000	0.0000000E+000	0.0000000E+000	21.6964	2.51335	68.3036	0.000000000000000E+000	-3.339e-07	2.12943e-11	-3.33922e-07	3.97204	4.7245e+07	3013.02	4.7248e+07
0.00019912	41.7669	34.6004	54.2371	-39.6389	20329.2	3.97179	-8.4068e-05	2.31007e+07	9.40144e+06	1	11	0.00508247	9.37083e-05	0	-0.00919078	-0.000253299	4.37305e-06	-89.1826	0.0466666	0.000665744	0.0466619	-39.6764	54.2674	41.7676	34.6471	0.0141984	0.0117622	0.0184376	39.6389	9.40144e+09	1.13487e+10	1.4737e+10	-50.3611	0.0000000E+000	0.0000000E+000	0.0000000E+000	50.3611	0.0000000E+000	0.0000000E+000	0.0000000E+000	-50.3611	0.0000000E+000	0.0000000E+000	0.0000000E+000	-39.6389	0.0000000E+000	0.0000000E+000	0.0000000E+000	39.6389	1.20712	50.3611	0.000000000000000E+000	-3.339e-07	2.12943e-11	-3.33922e-07	3.97204	4.7245e+07	3013.02	4.7248e+07

9.95598e-05	48.9098	71.2462	86.4187	-55.5308	20329.2	3.97179	-8.4068e-05	2.24375e+07	1.52504e+07	1	11	0.00509425	5.89485e-05	0	-0.00919078	-0.000253299	8.26077e-06	22.4936	0.140135	0.129474	-0.0536131	-55.4399	86.4479	49.0393	71.1926	0.00654909	0.00953995	0.0115716	55.5308	1.52504e+10	1.04693e+10	1.84981e+10	-34.4692	0.0000000E+000	0.0000000E+000	0.0000000E+000	34.4692	0.0000000E+000	0.0000000E+000	0.0000000E+000	-34.4692	0.0000000E+000	0.0000000E+000	0.0000000E+000	-55.5308	0.0000000E+000	0.0000000E+000	0.0000000E+000	55.5308	0.686491	34.4692	0.000000000000000E+000	-3.339e-07	2.12943e-11	-3.33922e-07	3.97204	4.7245e+07	3013.02	4.7248e+07