File: txt/18819_R307_UA701_3p84_SOC00_C06.mpt
EC-Lab ASCII FILE
Nb header lines : 65

Potentio Electrochemical Impedance Spectroscopy

Run on channel : 6 (SN 65795)
User :
CE vs. WE compliance from -10 V to 10 V
Electrode connection : standard
Potential control : Ewe
Ewe ctrl range : min = -10.00 V, max = 10.00 V
Safety Limits :
	Do not start on E overload
Acquisition started on : 11/03/2025 16:09:12.763
Technique started on : 11/03/2025 16:09:14.490
Loaded Setting File :  C:\Users\Celltest\OneDrive - store-dot.com\Documents\EC-Lab\Data\@Biologic Test Protocols\anode half cell EIS SOC00.mps
Saved on :
	File : 18819_R307_UA701_3p84_SOC00_C06.mpr
	Directory : C:\Users\Celltest\OneDrive - store-dot.com\Documents\EC-Lab\Data\Anna\
	Host : 169.254.61.224
Device : VMP-3e (SN .003165)
Address : USB
EC-LAB for windows v11.62 (software)
Internet server v27.00 (firmware)
Command interpretor v12.03 (firmware)
Electrode material :
Initial state :
Electrolyte :
Comments :
Electrode surface area : 0.001 cm²
Characteristic mass : 0.001 g
Equivalent Weight : 0.000 g/eq.
Density : 0.000 g/cm3
Volume (V) : 0.001 cm³
Record Ece
Cycle Definition : Charge/Discharge alternance
Mode                Single sine
E (V)               0.0000
vs.                 Eoc
tE (h:m:s)          0:00:0.0000
record              0
dI                  0.000
unit dI             mA
dt (s)              0.000
fi                  100.000
unit fi             kHz
ff                  10.000
unit ff             mHz
Nd                  6
Points              per decade
spacing             Logarithmic
Va (mV)             5.0
pw                  0.10
Na                  2
corr                0
E range min (V)     -10.000
E range max (V)     10.000
I Range             Auto
Bandwidth           5
nc cycles           0
goto Ns'            0
nr cycles           0
inc. cycle          0

freq/Hz	Re(Z)/Ohm	-Im(Z)/Ohm	|Z|/Ohm	Phase(Z)/deg	time/s	<Ewe>/V	<I>/mA	Cs/µF	Cp/µF	cycle number	I Range	|Ewe|/V	|I|/A	Ns	(Q-Qo)/mA.h	<Ece>/V	|Ece|/V	Phase(Zce)/deg	|Zce|/Ohm	Re(Zce)/Ohm	-Im(Zce)/Ohm	Phase(Zwe-ce)/deg	|Zwe-ce|/Ohm	Re(Zwe-ce)/Ohm	-Im(Zwe-ce)/Ohm	Re(Y)/Ohm-1	Im(Y)/Ohm-1	|Y|/Ohm-1	Phase(Y)/deg	Re(C)/nF	Im(C)/nF	|C|/nF	Phase(C)/deg	Re(M)	Im(M)	|M|	Phase(M)/deg	Re(Permittivity)	Im(Permittivity)	|Permittivity|	Phase(Permittivity)/deg	Re(Resistivity)/Ohm.cm	Im(Resistivity)/Ohm.cm	|Resistivity|/Ohm.cm	Phase(Resistivity)/deg	Re(Conductivity)/mS/cm	Im(Conductivity)/mS/cm	|Conductivity|/mS/cm	Phase(Conductivity)/deg	Tan(Delta)	Loss Angle(Delta)/deg	dq/mA.h	Pwe/W	Pce/W	Pwe-ce/W	<Ewe-Ece>/V	Rwe/Ohm	Rce/Ohm	Rwe-ce/Ohm		Ewe-Ece/V
100004	0.973025	0.400068	1.05206	-22.3504	1.72655	0.246339	0.0454382	3.97805	0.575249	1	9	0.00496693	0.00472114	0	-1.36195e-06	0.000344552	5.75329e-05	87.1165	0.0121862	0.000613027	-0.0121708	-21.7223	1.04806	0.973638	0.387897	0.879108	0.361453	0.950515	22.3504	575.249	1399.09	1512.74	-67.6496	0.0000000E+000	0.0000000E+000	0.0000000E+000	67.6496	0.0000000E+000	0.0000000E+000	0.0000000E+000	-67.6496	0.0000000E+000	0.0000000E+000	0.0000000E+000	-22.3504	0.0000000E+000	0.0000000E+000	0.0000000E+000	22.3504	2.43215	67.6496	-1.36195e-06	1.11932e-05	1.56558e-08	1.11775e-05	0.245994	5421.4	7.58287	5413.82
31621.1	1.3191	0.529888	1.42155	-21.8855	3.24753	0.246307	0.0468164	9.49857	1.31978	1	9	0.00501234	0.00352597	0	2.70522e-05	-9.4703e-05	1.19193e-05	31.7188	0.00338043	0.00287552	-0.00177726	-21.776	1.42356	1.32198	0.528111	0.652759	0.262216	0.703456	21.8855	1319.78	3285.45	3540.62	-68.1145	0.0000000E+000	0.0000000E+000	0.0000000E+000	68.1145	0.0000000E+000	0.0000000E+000	0.0000000E+000	-68.1145	0.0000000E+000	0.0000000E+000	0.0000000E+000	-21.8855	0.0000000E+000	0.0000000E+000	0.0000000E+000	21.8855	2.4894	68.1145	1.40403e-05	1.15312e-05	-4.43365e-09	1.15356e-05	0.246402	5261.13	2.02286	5263.15
10002.2	1.71528	0.701364	1.85313	-22.2393	4.27454	0.246322	0.0416386	22.6871	3.24978	1	9	0.00501081	0.00270397	0	3.6673e-05	9.62774e-05	5.47934e-06	-145.61	0.00202641	-0.00167221	0.00114457	-22.2916	1.85202	1.71361	0.702509	0.499485	0.204235	0.539627	22.2393	3249.78	7947.78	8586.52	-67.7607	0.0000000E+000	0.0000000E+000	0.0000000E+000	67.7607	0.0000000E+000	0.0000000E+000	0.0000000E+000	-67.7607	0.0000000E+000	0.0000000E+000	0.0000000E+000	-22.2393	0.0000000E+000	0.0000000E+000	0.0000000E+000	22.2393	2.44563	67.7607	3.99557e-06	1.02565e-05	4.00886e-09	1.02525e-05	0.246225	5915.7	2.31221	5913.39
3163.08	2.24598	1.01446	2.46446	-24.3076	5.17564	0.246098	-0.0434403	49.5995	8.40429	1	9	0.00461958	0.00187448	0	3.96354e-05	0.000325454	8.12946e-06	-55.1371	0.00433691	0.00247904	0.00355853	-24.3592	2.46818	2.24846	1.01801	0.369797	0.167029	0.405769	24.3076	8404.29	18606.9	20416.9	-65.6924	0.0000000E+000	0.0000000E+000	0.0000000E+000	65.6924	0.0000000E+000	0.0000000E+000	0.0000000E+000	-65.6924	0.0000000E+000	0.0000000E+000	0.0000000E+000	-24.3076	0.0000000E+000	0.0000000E+000	0.0000000E+000	24.3076	2.21398	65.6924	-2.43108e-06	-1.06906e-05	-1.41378e-08	-1.06764e-05	0.245772	5665.19	7.49198	5657.7
1000.32	2.98432	1.60162	3.38694	-28.2215	6.98886	0.246223	-0.0189949	99.3394	22.2139	1	10	0.00508765	0.00150214	0	5.04569e-05	0.00036365	1.00672e-05	-42.9302	0.00670188	0.00490701	0.0045647	-28.2502	3.39342	2.98923	1.60619	0.260154	0.139619	0.295252	28.2215	22213.9	41391.5	46975.7	-61.7785	0.0000000E+000	0.0000000E+000	0.0000000E+000	61.7785	0.0000000E+000	0.0000000E+000	0.0000000E+000	-61.7785	0.0000000E+000	0.0000000E+000	0.0000000E+000	-28.2215	0.0000000E+000	0.0000000E+000	0.0000000E+000	28.2215	1.86331	61.7785	6.70416e-07	-4.677e-06	-6.9075e-09	-4.67009e-06	0.24586	12962.6	19.1446	12943.4
316.316	4.34216	2.81877	5.17686	-32.9902	8.33906	0.246223	-0.0196173	178.5	52.9209	1	10	0.00497008	0.000960057	0	4.45672e-05	7.87179e-07	3.66453e-06	5.20884	0.00381699	0.00380123	-0.00034653	-32.9641	5.17986	4.34596	2.81843	0.162022	0.105179	0.193167	32.9902	52920.9	81521.6	97192.5	-57.0098	0.0000000E+000	0.0000000E+000	0.0000000E+000	57.0098	0.0000000E+000	0.0000000E+000	0.0000000E+000	-57.0098	0.0000000E+000	0.0000000E+000	0.0000000E+000	-32.9902	0.0000000E+000	0.0000000E+000	0.0000000E+000	32.9902	1.54044	57.0098	-1.65156e-06	-4.83022e-06	-1.54423e-11	-4.8302e-06	0.246222	12551.3	0.0401268	12551.3
100.032	7.34278	4.05735	8.38919	-28.9234	9.68583	0.246204	-0.0198446	392.138	91.724	1	10	0.00493162	0.000587854	0	3.74539e-05	7.71793e-05	3.2149e-05	13.6614	0.0546887	0.0531415	-0.0129166	-28.6718	8.42954	7.39593	4.04443	0.104333	0.0576503	0.119201	28.9234	91724	165998	189654	-61.0766	0.0000000E+000	0.0000000E+000	0.0000000E+000	61.0766	0.0000000E+000	0.0000000E+000	0.0000000E+000	-61.0766	0.0000000E+000	0.0000000E+000	0.0000000E+000	-28.9234	0.0000000E+000	0.0000000E+000	0.0000000E+000	28.9234	1.80975	61.0766	-2.44417e-06	-4.88582e-06	-1.53159e-09	-4.88429e-06	0.246127	12406.6	3.88919	12402.7
31.6296	10.8113	3.54501	11.3777	-18.1542	11.0136	0.246197	-0.0231426	1419.41	137.796	1	10	0.00493444	0.000433694	0	3.09463e-05	-1.83109e-05	8.55481e-06	-28.2165	0.0197254	0.0173814	0.00932627	-18.1716	11.3971	10.8287	3.55434	0.0835162	0.0273848	0.0878914	18.1542	137796	420241	442256	-71.8458	0.0000000E+000	0.0000000E+000	0.0000000E+000	71.8458	0.0000000E+000	0.0000000E+000	0.0000000E+000	-71.8458	0.0000000E+000	0.0000000E+000	0.0000000E+000	-18.1542	0.0000000E+000	0.0000000E+000	0.0000000E+000	18.1542	3.04973	71.8458	-1.69778e-06	-5.69765e-06	4.23761e-10	-5.69807e-06	0.246216	10638.3	0.791219	10639.1
10.0032	13.0556	2.46015	13.2853	-10.6715	12.5898	0.246247	-0.00987871	6467.25	221.767	1	11	0.00494237	0.000372017	0	2.43917e-05	0.000420944	7.54306e-06	63.296	0.0202761	0.00911169	-0.0181135	-10.5875	13.291	13.0647	2.44204	0.0739691	0.0139385	0.0752709	10.6715	221767	1.17688e+06	1.19759e+06	-79.3285	0.0000000E+000	0.0000000E+000	0.0000000E+000	79.3285	0.0000000E+000	0.0000000E+000	0.0000000E+000	-79.3285	0.0000000E+000	0.0000000E+000	0.0000000E+000	-10.6715	0.0000000E+000	0.0000000E+000	0.0000000E+000	10.6715	5.30682	79.3285	-2.3903e-06	-2.4326e-06	-4.15838e-09	-2.42844e-06	0.245826	24927	42.6112	24884.4
3.1604	14.4151	1.71416	14.5166	-6.78145	14.1064	0.246227	-0.0104868	29378.4	409.636	1	11	0.00493956	0.000340269	0	1.86079e-05	0.000249062	4.63483e-06	34.7434	0.013621	0.0111926	-0.00776267	-6.74583	14.5268	14.4262	1.7064	0.0684046	0.00813429	0.0688866	6.78145	409636	3.4448e+06	3.46907e+06	-83.2186	0.0000000E+000	0.0000000E+000	0.0000000E+000	83.2186	0.0000000E+000	0.0000000E+000	0.0000000E+000	-83.2186	0.0000000E+000	0.0000000E+000	0.0000000E+000	-6.78145	0.0000000E+000	0.0000000E+000	0.0000000E+000	6.78145	8.40941	83.2186	7.83122e-07	-2.58214e-06	-2.61186e-09	-2.57952e-06	0.245978	23479.7	23.75	23456
1.00006	15.293	1.30741	15.3488	-4.88637	18.7	0.246242	-0.00636816	121725	883.19	1	11	0.00493569	0.000321568	0	1.21981e-05	0.000287258	5.30627e-06	51.1908	0.0165012	0.0103418	-0.0128584	-4.83529	15.358	15.3034	1.29455	0.0649148	0.0055496	0.0651515	4.88637	883190	1.03308e+07	1.03685e+07	-85.1136	0.0000000E+000	0.0000000E+000	0.0000000E+000	85.1136	0.0000000E+000	0.0000000E+000	0.0000000E+000	-85.1136	0.0000000E+000	0.0000000E+000	0.0000000E+000	-4.88637	0.0000000E+000	0.0000000E+000	0.0000000E+000	4.88637	11.6972	85.1136	-8.95252e-06	-1.5681e-06	-1.8293e-09	-1.56628e-06	0.245954	38667.6	45.1085	38622.5
0.316193	15.9583	1.46369	16.0253	-5.2405	36.2518	0.246241	-0.00655168	343888	2868.84	1	12	0.00493662	0.000308052	0	-6.06237e-05	0.000249062	2.90315e-06	-5.18005	0.00942422	0.00938573	0.000850873	-5.24047	16.0347	15.9677	1.46454	0.0621406	0.00569953	0.0624014	5.2405	2.86884e+06	3.12783e+07	3.14096e+07	-84.7595	0.0000000E+000	0.0000000E+000	0.0000000E+000	84.7595	0.0000000E+000	0.0000000E+000	0.0000000E+000	-84.7595	0.0000000E+000	0.0000000E+000	0.0000000E+000	-5.2405	0.0000000E+000	0.0000000E+000	0.0000000E+000	5.2405	10.9028	84.7595	-2.91363e-05	-1.61329e-06	-1.63177e-09	-1.61166e-06	0.245992	37584.3	38.0149	37546.3
0.0999041	16.8299	2.6944	17.0442	-9.09566	81.4588	0.246225	-0.00521518	591254	14775.6	1	12	0.00493664	0.000289637	0	2.22607e-06	0.000191768	1.36214e-06	40.6187	0.00470291	0.00356978	-0.00306169	-9.0836	17.0473	16.8335	2.69134	0.0579332	0.0092749	0.058671	9.09566	1.47756e+07	9.22921e+07	9.34674e+07	-80.9043	0.0000000E+000	0.0000000E+000	0.0000000E+000	80.9043	0.0000000E+000	0.0000000E+000	0.0000000E+000	-80.9043	0.0000000E+000	0.0000000E+000	0.0000000E+000	-9.09566	0.0000000E+000	0.0000000E+000	0.0000000E+000	9.09566	6.24624	80.9043	4.88898e-05	-1.28411e-06	-1.0001e-09	-1.28311e-06	0.246033	47213.1	36.771	47176.4
0.0315922	18.6368	6.13738	19.6213	-18.2275	224.342	0.246227	-0.00115569	820837	80309.4	1	12	0.00493599	0.000251563	0	-0.000106152	0.000134473	2.00573e-06	-19.3161	0.00797307	0.00752426	0.00263733	-18.228	19.6293	18.6443	6.14002	0.0484076	0.0159414	0.0509649	18.2275	8.03094e+07	2.43867e+08	2.56751e+08	-71.7725	0.0000000E+000	0.0000000E+000	0.0000000E+000	71.7725	0.0000000E+000	0.0000000E+000	0.0000000E+000	-71.7725	0.0000000E+000	0.0000000E+000	0.0000000E+000	-18.2275	0.0000000E+000	0.0000000E+000	0.0000000E+000	18.2275	3.0366	71.7725	-0.00015776	-2.84562e-07	-1.5541e-10	-2.84407e-07	0.246092	213055	116.357	212939
0.0100092	22.787	14.1048	26.7991	-31.7569	675.563	0.246215	-0.00328554	1.12734e+06	312283	1	12	0.00493719	0.000184229	0	-0.00129459	7.71793e-05	1.69359e-06	31.6431	0.00919283	0.00782615	-0.0048228	-31.7393	26.8033	22.7948	14.1	0.0317282	0.0196393	0.0373146	31.7569	3.12283e+08	5.04508e+08	5.93337e+08	-58.2431	0.0000000E+000	0.0000000E+000	0.0000000E+000	58.2431	0.0000000E+000	0.0000000E+000	0.0000000E+000	-58.2431	0.0000000E+000	0.0000000E+000	0.0000000E+000	-31.7569	0.0000000E+000	0.0000000E+000	0.0000000E+000	31.7569	1.61555	58.2431	-0.000348943	-8.08949e-07	-2.53576e-10	-8.08695e-07	0.246137	74938.8	23.4906	74915.3