File: txt/18818_R307_UA701_3p24_SOC00_C05.mpt
EC-Lab ASCII FILE
Nb header lines : 65

Potentio Electrochemical Impedance Spectroscopy

Run on channel : 5 (SN 65912)
User :
CE vs. WE compliance from -10 V to 10 V
Electrode connection : standard
Potential control : Ewe
Ewe ctrl range : min = -10.00 V, max = 10.00 V
Safety Limits :
	Do not start on E overload
Acquisition started on : 11/03/2025 16:08:58.360
Technique started on : 11/03/2025 16:09:00.086
Loaded Setting File :  C:\Users\Celltest\OneDrive - store-dot.com\Documents\EC-Lab\Data\@Biologic Test Protocols\anode half cell EIS SOC00.mps
Saved on :
	File : 18818_R307_UA701_3p24_SOC00_C05.mpr
	Directory : C:\Users\Celltest\OneDrive - store-dot.com\Documents\EC-Lab\Data\Anna\
	Host : 169.254.61.224
Device : VMP-3e (SN .003165)
Address : USB
EC-LAB for windows v11.62 (software)
Internet server v27.00 (firmware)
Command interpretor v12.03 (firmware)
Electrode material :
Initial state :
Electrolyte :
Comments :
Electrode surface area : 0.001 cm²
Characteristic mass : 0.001 g
Equivalent Weight : 0.000 g/eq.
Density : 0.000 g/cm3
Volume (V) : 0.001 cm³
Record Ece
Cycle Definition : Charge/Discharge alternance
Mode                Single sine
E (V)               0.0000
vs.                 Eoc
tE (h:m:s)          0:00:0.0000
record              0
dI                  0.000
unit dI             mA
dt (s)              0.000
fi                  100.000
unit fi             kHz
ff                  10.000
unit ff             mHz
Nd                  6
Points              per decade
spacing             Logarithmic
Va (mV)             5.0
pw                  0.10
Na                  2
corr                0
E range min (V)     -10.000
E range max (V)     10.000
I Range             Auto
Bandwidth           5
nc cycles           0
goto Ns'            0
nr cycles           0
inc. cycle          0

freq/Hz	Re(Z)/Ohm	-Im(Z)/Ohm	|Z|/Ohm	Phase(Z)/deg	time/s	<Ewe>/V	<I>/mA	Cs/µF	Cp/µF	cycle number	I Range	|Ewe|/V	|I|/A	Ns	(Q-Qo)/mA.h	<Ece>/V	|Ece|/V	Phase(Zce)/deg	|Zce|/Ohm	Re(Zce)/Ohm	-Im(Zce)/Ohm	Phase(Zwe-ce)/deg	|Zwe-ce|/Ohm	Re(Zwe-ce)/Ohm	-Im(Zwe-ce)/Ohm	Re(Y)/Ohm-1	Im(Y)/Ohm-1	|Y|/Ohm-1	Phase(Y)/deg	Re(C)/nF	Im(C)/nF	|C|/nF	Phase(C)/deg	Re(M)	Im(M)	|M|	Phase(M)/deg	Re(Permittivity)	Im(Permittivity)	|Permittivity|	Phase(Permittivity)/deg	Re(Resistivity)/Ohm.cm	Im(Resistivity)/Ohm.cm	|Resistivity|/Ohm.cm	Phase(Resistivity)/deg	Re(Conductivity)/mS/cm	Im(Conductivity)/mS/cm	|Conductivity|/mS/cm	Phase(Conductivity)/deg	Tan(Delta)	Loss Angle(Delta)/deg	dq/mA.h	Pwe/W	Pce/W	Pwe-ce/W	<Ewe-Ece>/V	Rwe/Ohm	Rce/Ohm	Rwe-ce/Ohm		Ewe-Ece/V
100004	1.12162	0.425391	1.19958	-20.77	1.72552	0.244565	-0.0218813	3.74124	0.470474	1	9	0.00462115	0.00385232	0	-8.81631e-06	-3.27544e-06	3.83371e-05	87.478	0.00995171	0.000437907	-0.00994207	-20.3174	1.1965	1.12206	0.415449	0.779451	0.295618	0.833627	20.77	470.474	1240.49	1326.71	-69.23	0.0000000E+000	0.0000000E+000	0.0000000E+000	69.23	0.0000000E+000	0.0000000E+000	0.0000000E+000	-69.23	0.0000000E+000	0.0000000E+000	0.0000000E+000	-20.77	0.0000000E+000	0.0000000E+000	0.0000000E+000	20.77	2.63668	69.23	-8.81631e-06	-5.3514e-06	7.16708e-11	-5.35147e-06	0.244569	11176.9	0.149692	11177.1
31621.1	1.50272	0.604512	1.61976	-21.9138	3.24656	0.244524	-0.0202055	8.32603	1.15971	1	9	0.00509592	0.0031461	0	-5.67016e-06	0.000225819	1.2308e-05	66.4835	0.00391214	0.001561	-0.00358722	-21.7755	1.61987	1.50428	0.600925	0.572769	0.230412	0.617377	21.9138	1159.71	2882.85	3107.37	-68.0862	0.0000000E+000	0.0000000E+000	0.0000000E+000	68.0862	0.0000000E+000	0.0000000E+000	0.0000000E+000	-68.0862	0.0000000E+000	0.0000000E+000	0.0000000E+000	-21.9138	0.0000000E+000	0.0000000E+000	0.0000000E+000	21.9138	2.48585	68.0862	1.10521e-05	-4.94073e-06	-4.56279e-09	-4.93617e-06	0.244298	12101.9	11.1761	12090.7
10002.2	1.97103	0.825785	2.13703	-22.7318	4.14956	0.244536	-0.0178966	19.2689	2.8772	1	9	0.00493419	0.0023089	0	-3.19037e-06	-2.23667e-05	6.87876e-06	-152.717	0.00297924	-0.0026478	0.00136564	-22.793	2.13511	1.96838	0.827151	0.431592	0.18082	0.46794	22.7318	2877.2	6867.47	7445.83	-67.2682	0.0000000E+000	0.0000000E+000	0.0000000E+000	67.2682	0.0000000E+000	0.0000000E+000	0.0000000E+000	-67.2682	0.0000000E+000	0.0000000E+000	0.0000000E+000	-22.7318	0.0000000E+000	0.0000000E+000	0.0000000E+000	22.7318	2.38686	67.2682	-2.2618e-06	-4.37637e-06	4.00288e-10	-4.37677e-06	0.244558	13663.8	1.24977	13665
3163.08	2.6	1.20976	2.86767	-24.9521	5.04862	0.244298	-0.0879075	41.5922	7.402	1	9	0.00452142	0.00157669	0	-1.72659e-05	-7.96403e-05	9.53048e-06	32.7939	0.00604463	0.00508126	-0.00327388	-24.8501	2.8709	2.60509	1.20648	0.316166	0.147109	0.348715	24.9521	7402	15908.4	17546.1	-65.0479	0.0000000E+000	0.0000000E+000	0.0000000E+000	65.0479	0.0000000E+000	0.0000000E+000	0.0000000E+000	-65.0479	0.0000000E+000	0.0000000E+000	0.0000000E+000	-24.9521	0.0000000E+000	0.0000000E+000	0.0000000E+000	24.9521	2.1492	65.0479	-7.89918e-06	-2.14756e-05	7.00098e-09	-2.14827e-05	0.244378	2779.04	0.905956	2779.94
1000.32	3.41276	1.94353	3.92738	-29.6611	6.8618	0.244444	-0.0231729	81.8632	20.0479	1	10	0.00488857	0.00124474	0	-1.72865e-05	-0.00023237	5.40946e-06	-46.3665	0.00434585	0.00299883	0.00314539	-29.6793	3.93154	3.41576	1.94668	0.221259	0.126005	0.254623	29.6611	20047.9	35203.2	40511.5	-60.3389	0.0000000E+000	0.0000000E+000	0.0000000E+000	60.3389	0.0000000E+000	0.0000000E+000	0.0000000E+000	-60.3389	0.0000000E+000	0.0000000E+000	0.0000000E+000	-29.6611	0.0000000E+000	0.0000000E+000	0.0000000E+000	29.6611	1.75596	60.3389	-1.794e-06	-5.66448e-06	5.38469e-09	-5.66986e-06	0.244676	10548.7	10.0277	10558.7
316.316	4.93164	3.6448	6.13234	-36.4668	8.21209	0.244444	-0.0228378	138.047	48.7663	1	10	0.00478257	0.000779892	0	-2.5248e-05	9.21806e-05	6.30266e-06	-64.5776	0.00808145	0.00346927	0.00729891	-36.5023	6.13947	4.93511	3.6521	0.131141	0.0969217	0.16307	36.4668	48766.3	65983.9	82048.9	-53.5332	0.0000000E+000	0.0000000E+000	0.0000000E+000	53.5332	0.0000000E+000	0.0000000E+000	0.0000000E+000	-53.5332	0.0000000E+000	0.0000000E+000	0.0000000E+000	-36.4668	0.0000000E+000	0.0000000E+000	0.0000000E+000	36.4668	1.35306	53.5332	-2.62447e-06	-5.58258e-06	-2.1052e-09	-5.58047e-06	0.244352	10703.5	4.03632	10699.5
100.032	8.82359	6.05623	10.702	-34.4644	9.55883	0.244456	-0.0212665	262.711	84.1299	1	10	0.00477227	0.000445921	0	-3.20264e-05	-0.00023237	2.88587e-05	-41.693	0.064717	0.0483254	0.0430459	-34.5078	10.7662	8.87192	6.09927	0.0770393	0.0528773	0.0934401	34.4644	84129.9	122573	148667	-55.5356	0.0000000E+000	0.0000000E+000	0.0000000E+000	55.5356	0.0000000E+000	0.0000000E+000	0.0000000E+000	-55.5356	0.0000000E+000	0.0000000E+000	0.0000000E+000	-34.4644	0.0000000E+000	0.0000000E+000	0.0000000E+000	34.4644	1.45695	55.5356	-2.98732e-06	-5.19874e-06	4.94171e-09	-5.20368e-06	0.244689	11494.9	10.9266	11505.8
31.6296	14.6866	6.30651	15.9834	-23.2389	10.8875	0.244429	-0.0263527	797.881	124.216	1	10	0.00475908	0.000297751	0	-4.06876e-05	9.21806e-05	1.23297e-05	64.7452	0.0414095	0.0176671	-0.0374515	-23.0905	15.9849	14.7043	6.26905	0.0574888	0.0246859	0.0625649	23.2389	124216	289275	314816	-66.7611	0.0000000E+000	0.0000000E+000	0.0000000E+000	66.7611	0.0000000E+000	0.0000000E+000	0.0000000E+000	-66.7611	0.0000000E+000	0.0000000E+000	0.0000000E+000	-23.2389	0.0000000E+000	0.0000000E+000	0.0000000E+000	23.2389	2.32881	66.7611	-3.379e-06	-6.44138e-06	-2.42921e-09	-6.43895e-06	0.244337	9275.29	3.49795	9271.79
10.0032	18.9945	4.75763	19.5813	-14.0618	12.4518	0.244481	-0.00955618	3344.18	197.419	1	11	0.00476135	0.000243158	0	-4.6704e-05	-0.000136914	8.88534e-06	-41.9823	0.0365414	0.0271631	0.0244426	-14.1118	19.6136	19.0217	4.78208	0.0495388	0.0124082	0.0510691	14.0618	197419	788182	812531	-75.9382	0.0000000E+000	0.0000000E+000	0.0000000E+000	75.9382	0.0000000E+000	0.0000000E+000	0.0000000E+000	-75.9382	0.0000000E+000	0.0000000E+000	0.0000000E+000	-14.0618	0.0000000E+000	0.0000000E+000	0.0000000E+000	14.0618	3.99243	75.9382	6.3726e-08	-2.3363e-06	1.30837e-09	-2.33761e-06	0.244618	25583.5	14.3273	25597.9
3.1604	21.8439	3.57162	22.1339	-9.28606	13.9685	0.244471	-0.00903232	14099.8	367.135	1	11	0.00476202	0.000215145	0	-4.83598e-05	0.000340366	5.5373e-06	32.8507	0.0257375	0.0216217	-0.0139613	-9.2414	22.153	21.8655	3.55765	0.0445874	0.00729033	0.0451795	9.28606	367135	2.24538e+06	2.2752e+06	-80.7139	0.0000000E+000	0.0000000E+000	0.0000000E+000	80.7139	0.0000000E+000	0.0000000E+000	0.0000000E+000	-80.7139	0.0000000E+000	0.0000000E+000	0.0000000E+000	-9.28606	0.0000000E+000	0.0000000E+000	0.0000000E+000	9.28606	6.11597	80.7139	8.19137e-07	-2.20814e-06	-3.0743e-09	-2.20506e-06	0.24413	27066.2	37.6832	27028.5
1.00006	23.9841	2.71476	24.1373	-6.45782	19.607	0.244479	-0.00665735	58622	741.561	1	12	0.00475896	0.000197162	0	-7.06243e-05	0.000225819	2.69557e-06	1.80188	0.0136719	0.0136651	-0.000429893	-6.45316	24.1508	23.9978	2.71433	0.0411668	0.00465966	0.0414297	6.45782	741561	6.55148e+06	6.59331e+06	-83.5422	0.0000000E+000	0.0000000E+000	0.0000000E+000	83.5422	0.0000000E+000	0.0000000E+000	0.0000000E+000	-83.5422	0.0000000E+000	0.0000000E+000	0.0000000E+000	-6.45782	0.0000000E+000	0.0000000E+000	0.0000000E+000	6.45782	8.83471	83.5422	-1.20848e-05	-1.62759e-06	-1.50336e-09	-1.62608e-06	0.244254	36723.2	33.9203	36689.3
0.316193	25.4062	2.42672	25.5218	-5.45618	33.949	0.244483	-0.00652411	207418	1875.28	1	12	0.00475921	0.000186476	0	-7.43432e-05	-0.000366009	2.18376e-06	49.249	0.0117107	0.0076444	-0.00887145	-5.43473	25.5286	25.4138	2.41785	0.0390047	0.00372562	0.0391822	5.45618	1.87528e+06	1.96329e+07	1.97223e+07	-84.5438	0.0000000E+000	0.0000000E+000	0.0000000E+000	84.5438	0.0000000E+000	0.0000000E+000	0.0000000E+000	-84.5438	0.0000000E+000	0.0000000E+000	0.0000000E+000	-5.45618	0.0000000E+000	0.0000000E+000	0.0000000E+000	5.45618	10.4693	84.5438	4.3862e-06	-1.59503e-06	2.38788e-09	-1.59742e-06	0.244849	37473.7	56.1009	37529.8
0.0999041	26.8212	3.67636	27.072	-7.80484	79.157	0.24448	-0.0023137	433330	7991.24	1	12	0.00476166	0.000175889	0	-9.70858e-05	-0.000213279	2.24719e-06	-23.1701	0.0127762	0.0117457	0.00502695	-7.81201	27.0843	26.833	3.68139	0.0365964	0.00501623	0.0369385	7.80484	7.99124e+06	5.83008e+07	5.8846e+07	-82.1952	0.0000000E+000	0.0000000E+000	0.0000000E+000	82.1952	0.0000000E+000	0.0000000E+000	0.0000000E+000	-82.1952	0.0000000E+000	0.0000000E+000	0.0000000E+000	-7.80484	0.0000000E+000	0.0000000E+000	0.0000000E+000	7.80484	7.29559	82.1952	-2.74315e-05	-5.65655e-07	4.93464e-10	-5.66148e-07	0.244694	105666	92.1807	105758
0.0315922	29.4525	7.64728	30.4291	-14.5553	222.041	0.244474	-0.00286405	658769	41607.3	1	12	0.00476399	0.00015656	0	-0.000458722	0.000111272	1.63044e-06	12.9059	0.0104141	0.010151	-0.002326	-14.5463	30.4383	29.4626	7.64495	0.0318086	0.00825904	0.0328633	14.5553	4.16073e+07	1.60245e+08	1.65559e+08	-75.4447	0.0000000E+000	0.0000000E+000	0.0000000E+000	75.4447	0.0000000E+000	0.0000000E+000	0.0000000E+000	-75.4447	0.0000000E+000	0.0000000E+000	0.0000000E+000	-14.5553	0.0000000E+000	0.0000000E+000	0.0000000E+000	14.5553	3.85137	75.4447	-0.000165645	-7.00185e-07	-3.18689e-10	-6.99867e-07	0.244362	85359.3	38.8512	85320.4
0.0100092	34.696	17.4034	38.8161	-26.6382	673.264	0.244478	-0.00267546	913668	183668	1	12	0.00476178	0.000122676	0	-0.000378313	-6.05491e-05	1.74679e-06	49.4597	0.0142391	0.00925515	-0.010821	-26.6178	38.8195	34.7052	17.3926	0.023028	0.0115508	0.0257625	26.6382	1.83668e+08	3.66166e+08	4.09648e+08	-63.3618	0.0000000E+000	0.0000000E+000	0.0000000E+000	63.3618	0.0000000E+000	0.0000000E+000	0.0000000E+000	-63.3618	0.0000000E+000	0.0000000E+000	0.0000000E+000	-26.6382	0.0000000E+000	0.0000000E+000	0.0000000E+000	26.6382	1.99363	63.3618	0.000188423	-6.54091e-07	1.61996e-10	-6.54253e-07	0.244539	91378.1	22.6313	91400.7