File: txt/18821_R307_UA701_3p84_SOC00_C08.mpt
EC-Lab ASCII FILE
Nb header lines : 65

Potentio Electrochemical Impedance Spectroscopy

Run on channel : 8 (SN 65398)
User :
CE vs. WE compliance from -10 V to 10 V
Electrode connection : standard
Potential control : Ewe
Ewe ctrl range : min = -10.00 V, max = 10.00 V
Safety Limits :
	Do not start on E overload
Acquisition started on : 11/03/2025 16:09:26.191
Technique started on : 11/03/2025 16:09:27.970
Loaded Setting File :  C:\Users\Celltest\OneDrive - store-dot.com\Documents\EC-Lab\Data\@Biologic Test Protocols\anode half cell EIS SOC00.mps
Saved on :
	File : 18821_R307_UA701_3p84_SOC00_C08.mpr
	Directory : C:\Users\Celltest\OneDrive - store-dot.com\Documents\EC-Lab\Data\Anna\
	Host : 169.254.61.224
Device : VMP-3e (SN .003165)
Address : USB
EC-LAB for windows v11.62 (software)
Internet server v27.00 (firmware)
Command interpretor v12.03 (firmware)
Electrode material :
Initial state :
Electrolyte :
Comments :
Electrode surface area : 0.001 cm²
Characteristic mass : 0.001 g
Equivalent Weight : 0.000 g/eq.
Density : 0.000 g/cm3
Volume (V) : 0.001 cm³
Record Ece
Cycle Definition : Charge/Discharge alternance
Mode                Single sine
E (V)               0.0000
vs.                 Eoc
tE (h:m:s)          0:00:0.0000
record              0
dI                  0.000
unit dI             mA
dt (s)              0.000
fi                  100.000
unit fi             kHz
ff                  10.000
unit ff             mHz
Nd                  6
Points              per decade
spacing             Logarithmic
Va (mV)             5.0
pw                  0.10
Na                  2
corr                0
E range min (V)     -10.000
E range max (V)     10.000
I Range             Auto
Bandwidth           5
nc cycles           0
goto Ns'            0
nr cycles           0
inc. cycle          0

freq/Hz	Re(Z)/Ohm	-Im(Z)/Ohm	|Z|/Ohm	Phase(Z)/deg	time/s	<Ewe>/V	<I>/mA	Cs/µF	Cp/µF	cycle number	I Range	|Ewe|/V	|I|/A	Ns	(Q-Qo)/mA.h	<Ece>/V	|Ece|/V	Phase(Zce)/deg	|Zce|/Ohm	Re(Zce)/Ohm	-Im(Zce)/Ohm	Phase(Zwe-ce)/deg	|Zwe-ce|/Ohm	Re(Zwe-ce)/Ohm	-Im(Zwe-ce)/Ohm	Re(Y)/Ohm-1	Im(Y)/Ohm-1	|Y|/Ohm-1	Phase(Y)/deg	Re(C)/nF	Im(C)/nF	|C|/nF	Phase(C)/deg	Re(M)	Im(M)	|M|	Phase(M)/deg	Re(Permittivity)	Im(Permittivity)	|Permittivity|	Phase(Permittivity)/deg	Re(Resistivity)/Ohm.cm	Im(Resistivity)/Ohm.cm	|Resistivity|/Ohm.cm	Phase(Resistivity)/deg	Re(Conductivity)/mS/cm	Im(Conductivity)/mS/cm	|Conductivity|/mS/cm	Phase(Conductivity)/deg	Tan(Delta)	Loss Angle(Delta)/deg	dq/mA.h	Pwe/W	Pce/W	Pwe-ce/W	<Ewe-Ece>/V	Rwe/Ohm	Rce/Ohm	Rwe-ce/Ohm		Ewe-Ece/V
100004	1.54397	0.312464	1.57527	-11.4408	1.77852	0.247448	0.0256719	5.09336	0.200397	1	9	0.00341913	0.0021705	0	-1.62939e-06	-1.2779e-05	2.80875e-05	69.0453	0.0129406	0.00462794	-0.0120847	-10.9772	1.57746	1.5486	0.300379	0.622197	0.125918	0.63481	11.4408	200.397	990.22	1010.29	-78.5592	0.0000000E+000	0.0000000E+000	0.0000000E+000	78.5592	0.0000000E+000	0.0000000E+000	0.0000000E+000	-78.5592	0.0000000E+000	0.0000000E+000	0.0000000E+000	-11.4408	0.0000000E+000	0.0000000E+000	0.0000000E+000	11.4408	4.94129	78.5592	-1.62939e-06	6.35248e-06	-3.28061e-10	6.35281e-06	0.247461	9638.87	0.497779	9639.37
31621.1	1.88381	0.644572	1.99103	-18.8891	3.29952	0.247448	-0.00810767	7.80856	0.818384	1	9	0.00543027	0.00272736	0	2.12537e-05	0.000139925	1.20777e-05	7.75827	0.00442832	0.00438779	-0.000597797	-18.8321	1.99499	1.8882	0.643974	0.475204	0.162598	0.502252	18.8891	818.384	2391.79	2527.92	-71.1109	0.0000000E+000	0.0000000E+000	0.0000000E+000	71.1109	0.0000000E+000	0.0000000E+000	0.0000000E+000	-71.1109	0.0000000E+000	0.0000000E+000	0.0000000E+000	-18.8891	0.0000000E+000	0.0000000E+000	0.0000000E+000	18.8891	2.92257	71.1109	-5.80858e-06	-2.00623e-06	-1.13447e-09	-2.00509e-06	0.247308	30520.3	17.2584	30503
10002.2	2.36754	0.804267	2.50042	-18.7629	4.32653	0.247445	-0.00859133	19.7844	2.0469	1	9	0.00499292	0.00199683	0	2.10119e-05	6.3091e-06	8.32275e-06	-103.161	0.00416798	-0.000949017	0.0040585	-18.8579	2.50083	2.3666	0.808325	0.378679	0.128639	0.399932	18.7629	2046.9	6025.52	6363.71	-71.2371	0.0000000E+000	0.0000000E+000	0.0000000E+000	71.2371	0.0000000E+000	0.0000000E+000	0.0000000E+000	-71.2371	0.0000000E+000	0.0000000E+000	0.0000000E+000	-18.7629	0.0000000E+000	0.0000000E+000	0.0000000E+000	18.7629	2.94373	71.2371	1.13083e-06	-2.12588e-06	-5.42035e-11	-2.12582e-06	0.247439	28801.7	0.734357	28801
3163.08	2.97805	1.14023	3.18887	-20.9508	5.22367	0.24728	-0.0434498	44.1282	5.64195	1	9	0.00474883	0.00148919	0	1.0389e-05	0.000235366	4.37563e-06	-72.3619	0.00293827	0.000890305	0.00280014	-20.9921	3.19071	2.97894	1.14303	0.292858	0.112129	0.31359	20.9508	5641.95	14735.6	15778.8	-69.0492	0.0000000E+000	0.0000000E+000	0.0000000E+000	69.0492	0.0000000E+000	0.0000000E+000	0.0000000E+000	-69.0492	0.0000000E+000	0.0000000E+000	0.0000000E+000	-20.9508	0.0000000E+000	0.0000000E+000	0.0000000E+000	20.9508	2.61179	69.0492	-4.32115e-06	-1.07443e-05	-1.02266e-08	-1.07341e-05	0.247045	5691.16	5.41695	5685.75
1000.32	3.80867	1.73337	4.18456	-24.4708	6.82283	0.247396	-0.0167731	91.7889	15.7497	1	10	0.00472222	0.00112849	0	1.25315e-05	0.000330806	3.67571e-06	-30.2314	0.00325721	0.00281423	0.00163998	-24.4753	4.1878	3.81149	1.73501	0.217507	0.0989898	0.238974	24.4708	15749.7	34606.3	38021.7	-65.5292	0.0000000E+000	0.0000000E+000	0.0000000E+000	65.5292	0.0000000E+000	0.0000000E+000	0.0000000E+000	-65.5292	0.0000000E+000	0.0000000E+000	0.0000000E+000	-24.4708	0.0000000E+000	0.0000000E+000	0.0000000E+000	24.4708	2.19727	65.5292	-1.16608e-06	-4.14958e-06	-5.54863e-09	-4.14404e-06	0.247065	14749.6	19.7225	14729.9
316.316	5.24643	2.93981	6.01394	-29.2638	8.17107	0.247381	-0.0167545	171.151	40.8978	1	10	0.00465671	0.00077432	0	6.20669e-06	0.000178102	1.11042e-06	37.5858	0.00143406	0.00113641	-0.000874705	-29.2513	6.0145	5.24756	2.93893	0.145059	0.0812832	0.16628	29.2638	40897.8	72986.9	83664.3	-60.7362	0.0000000E+000	0.0000000E+000	0.0000000E+000	60.7362	0.0000000E+000	0.0000000E+000	0.0000000E+000	-60.7362	0.0000000E+000	0.0000000E+000	0.0000000E+000	-29.2638	0.0000000E+000	0.0000000E+000	0.0000000E+000	29.2638	1.78462	60.7362	-1.38022e-06	-4.14474e-06	-2.984e-09	-4.14175e-06	0.247203	14765.1	10.6301	14754.4
100.032	8.23641	4.36907	9.32348	-27.9441	9.51781	0.247399	-0.0163602	364.16	79.9677	1	10	0.00462658	0.000496229	0	6.5913e-07	0.00048351	1.43449e-05	6.69224	0.0289078	0.0287108	-0.0033688	-27.8434	9.34727	8.26512	4.36571	0.0947506	0.0502613	0.107256	27.9441	79967.8	150752	170649	-62.0559	0.0000000E+000	0.0000000E+000	0.0000000E+000	62.0559	0.0000000E+000	0.0000000E+000	0.0000000E+000	-62.0559	0.0000000E+000	0.0000000E+000	0.0000000E+000	-27.9441	0.0000000E+000	0.0000000E+000	0.0000000E+000	27.9441	1.88516	62.0559	-2.47731e-06	-4.04748e-06	-7.91031e-09	-4.03957e-06	0.246915	15122	29.5541	15092.5
31.6296	12.2048	4.22859	12.9165	-19.1097	10.8476	0.247375	-0.0216314	1189.96	127.535	1	10	0.00461601	0.000357372	0	-5.32668e-06	8.26613e-05	6.76217e-06	-70.9096	0.0189219	0.00618861	0.0178813	-19.1756	12.9283	12.2109	4.24647	0.0731537	0.0253456	0.0774201	19.1097	127535	368098	389566	-70.8903	0.0000000E+000	0.0000000E+000	0.0000000E+000	70.8903	0.0000000E+000	0.0000000E+000	0.0000000E+000	-70.8903	0.0000000E+000	0.0000000E+000	0.0000000E+000	-19.1097	0.0000000E+000	0.0000000E+000	0.0000000E+000	19.1097	2.88625	70.8903	-1.8588e-06	-5.35105e-06	-1.78808e-09	-5.34926e-06	0.247292	11435.9	3.82137	11432.1
10.0032	15.0623	3.1416	15.3865	-11.7815	12.4288	0.247445	-0.00628742	5064.42	211.132	1	11	0.00461362	0.000299849	0	-1.04609e-05	0.000101749	1.01724e-05	-38.2021	0.033925	0.0266594	0.0209805	-11.8376	15.4169	15.089	3.16258	0.063623	0.0132701	0.0649922	11.7815	211132	1.01227e+06	1.03405e+06	-78.2185	0.0000000E+000	0.0000000E+000	0.0000000E+000	78.2185	0.0000000E+000	0.0000000E+000	0.0000000E+000	-78.2185	0.0000000E+000	0.0000000E+000	0.0000000E+000	-11.7815	0.0000000E+000	0.0000000E+000	0.0000000E+000	11.7815	4.79447	78.2185	1.56171e-06	-1.55579e-06	-6.39741e-10	-1.55515e-06	0.247343	39355.5	16.183	39339.3
3.1604	16.8809	2.14052	17.0161	-7.22661	13.9464	0.247432	-0.00621185	23526.6	372.287	1	11	0.00461533	0.000271233	0	-1.13769e-05	-0.000108219	4.68771e-06	46.0149	0.017283	0.0120025	-0.0124355	-7.18001	17.0265	16.8929	2.12809	0.058301	0.00739264	0.0587678	7.22661	372287	2.93599e+06	2.9595e+06	-82.7734	0.0000000E+000	0.0000000E+000	0.0000000E+000	82.7734	0.0000000E+000	0.0000000E+000	0.0000000E+000	-82.7734	0.0000000E+000	0.0000000E+000	0.0000000E+000	-7.22661	0.0000000E+000	0.0000000E+000	0.0000000E+000	7.22661	7.88636	82.7734	2.62229e-06	-1.53701e-06	6.72242e-10	-1.53768e-06	0.24754	39832.2	17.4214	39849.6
1.00006	17.9861	1.51487	18.0498	-4.81436	19.5849	0.247448	-0.00371586	105055	739.99	1	12	0.0046206	0.000255993	0	-2.81007e-05	0.000139925	1.6847e-06	57.7693	0.00658104	0.00350986	-0.00556695	-4.79582	18.0528	17.9896	1.5093	0.055207	0.00464979	0.0554024	4.81436	739990	8.7859e+06	8.81701e+06	-85.1856	0.0000000E+000	0.0000000E+000	0.0000000E+000	85.1856	0.0000000E+000	0.0000000E+000	0.0000000E+000	-85.1856	0.0000000E+000	0.0000000E+000	0.0000000E+000	-4.81436	0.0000000E+000	0.0000000E+000	0.0000000E+000	4.81436	11.873	85.1856	-1.20606e-05	-9.19483e-07	-5.19943e-10	-9.18964e-07	0.247309	66592.5	37.6563	66554.9
0.316193	18.6525	1.6238	18.723	-4.97537	33.9271	0.247437	-0.00574503	309981	2331.57	1	12	0.00461294	0.000246378	0	-3.89188e-05	0.000235366	1.64008e-06	37.1503	0.00665678	0.00530582	-0.00402008	-4.96171	18.728	18.6578	1.61978	0.0532089	0.00463213	0.0534102	4.97537	2.33157e+06	2.67826e+07	2.68839e+07	-85.0246	0.0000000E+000	0.0000000E+000	0.0000000E+000	85.0246	0.0000000E+000	0.0000000E+000	0.0000000E+000	-85.0246	0.0000000E+000	0.0000000E+000	0.0000000E+000	-4.97537	0.0000000E+000	0.0000000E+000	0.0000000E+000	4.97537	11.4869	85.0246	5.59555e-06	-1.42153e-06	-1.35218e-09	-1.42018e-06	0.247202	43069.7	40.9686	43028.8
0.0999041	19.6023	2.94243	19.8219	-8.53674	79.1362	0.24743	-0.0013722	541415	11930.3	1	12	0.00461359	0.000232752	0	9.69361e-06	0.000235366	2.21609e-06	-9.43209	0.00952125	0.00939253	0.00156033	-8.53717	19.8314	19.6117	2.94399	0.0498903	0.00748886	0.0504492	8.53674	1.19303e+07	7.94791e+07	8.03695e+07	-81.4633	0.0000000E+000	0.0000000E+000	0.0000000E+000	81.4633	0.0000000E+000	0.0000000E+000	0.0000000E+000	-81.4633	0.0000000E+000	0.0000000E+000	0.0000000E+000	-8.53674	0.0000000E+000	0.0000000E+000	0.0000000E+000	8.53674	6.66193	81.4633	7.11833e-06	-3.39524e-07	-3.22969e-10	-3.39201e-07	0.247194	180316	171.524	180144
0.0315922	21.4264	6.35914	22.3502	-16.5304	222.021	0.247438	-0.00214137	792212	64132.4	1	12	0.00461485	0.000206479	0	-0.000374939	0.000254454	2.04461e-06	-7.69568	0.00990225	0.00981306	0.00132602	-16.5265	22.3599	21.4362	6.36047	0.0428932	0.0127303	0.0447424	16.5304	6.41324e+07	2.16087e+08	2.25403e+08	-73.4696	0.0000000E+000	0.0000000E+000	0.0000000E+000	73.4696	0.0000000E+000	0.0000000E+000	0.0000000E+000	-73.4696	0.0000000E+000	0.0000000E+000	0.0000000E+000	-16.5304	0.0000000E+000	0.0000000E+000	0.0000000E+000	16.5304	3.36939	73.4696	-0.000224275	-5.29856e-07	-5.44879e-10	-5.29311e-07	0.247184	115551	118.828	115433
0.0100092	25.376	14.974	29.4646	-30.5441	673.244	0.247427	-0.00297385	1.0619e+06	274257	1	12	0.00461817	0.000156736	0	-0.000559884	6.3091e-06	3.05531e-06	10.7837	0.0194933	0.0191491	-0.00364722	-30.5191	29.4792	25.3952	14.9703	0.0292296	0.0172479	0.033939	30.5441	2.74257e+08	4.64777e+08	5.39662e+08	-59.4559	0.0000000E+000	0.0000000E+000	0.0000000E+000	59.4559	0.0000000E+000	0.0000000E+000	0.0000000E+000	-59.4559	0.0000000E+000	0.0000000E+000	0.0000000E+000	-30.5441	0.0000000E+000	0.0000000E+000	0.0000000E+000	30.5441	1.69468	59.4559	0.0001656	-7.35811e-07	-1.87623e-11	-7.35792e-07	0.247421	83200.9	2.12153	83198.8