File: txt/18822_R307_UA701_3p84_SOC00_C01.mpt
EC-Lab ASCII FILE
Nb header lines : 65

Potentio Electrochemical Impedance Spectroscopy

Run on channel : 1 (SN 66354)
User :
CE vs. WE compliance from -10 V to 10 V
Electrode connection : standard
Potential control : Ewe
Ewe ctrl range : min = -10.00 V, max = 10.00 V
Safety Limits :
	Do not start on E overload
Acquisition started on : 11/03/2025 17:10:35.419
Technique started on : 11/03/2025 17:10:37.331
Loaded Setting File :  C:\Users\Celltest\OneDrive - store-dot.com\Documents\EC-Lab\Data\@Biologic Test Protocols\anode half cell EIS SOC00.mps
Saved on :
	File : 18822_R307_UA701_3p84_SOC00_C01.mpr
	Directory : C:\Users\Celltest\OneDrive - store-dot.com\Documents\EC-Lab\Data\Anna\
	Host : 169.254.61.224
Device : VMP-3e (SN .003165)
Address : USB
EC-LAB for windows v11.62 (software)
Internet server v27.00 (firmware)
Command interpretor v12.03 (firmware)
Electrode material :
Initial state :
Electrolyte :
Comments :
Electrode surface area : 0.001 cm²
Characteristic mass : 0.001 g
Equivalent Weight : 0.000 g/eq.
Density : 0.000 g/cm3
Volume (V) : 0.001 cm³
Record Ece
Cycle Definition : Charge/Discharge alternance
Mode                Single sine
E (V)               0.0000
vs.                 Eoc
tE (h:m:s)          0:00:0.0000
record              0
dI                  0.000
unit dI             mA
dt (s)              0.000
fi                  100.000
unit fi             kHz
ff                  10.000
unit ff             mHz
Nd                  6
Points              per decade
spacing             Logarithmic
Va (mV)             5.0
pw                  0.10
Na                  2
corr                0
E range min (V)     -10.000
E range max (V)     10.000
I Range             Auto
Bandwidth           5
nc cycles           0
goto Ns'            0
nr cycles           0
inc. cycle          0

freq/Hz	Re(Z)/Ohm	-Im(Z)/Ohm	|Z|/Ohm	Phase(Z)/deg	time/s	<Ewe>/V	<I>/mA	Cs/µF	Cp/µF	cycle number	I Range	|Ewe|/V	|I|/A	Ns	(Q-Qo)/mA.h	<Ece>/V	|Ece|/V	Phase(Zce)/deg	|Zce|/Ohm	Re(Zce)/Ohm	-Im(Zce)/Ohm	Phase(Zwe-ce)/deg	|Zwe-ce|/Ohm	Re(Zwe-ce)/Ohm	-Im(Zwe-ce)/Ohm	Re(Y)/Ohm-1	Im(Y)/Ohm-1	|Y|/Ohm-1	Phase(Y)/deg	Re(C)/nF	Im(C)/nF	|C|/nF	Phase(C)/deg	Re(M)	Im(M)	|M|	Phase(M)/deg	Re(Permittivity)	Im(Permittivity)	|Permittivity|	Phase(Permittivity)/deg	Re(Resistivity)/Ohm.cm	Im(Resistivity)/Ohm.cm	|Resistivity|/Ohm.cm	Phase(Resistivity)/deg	Re(Conductivity)/mS/cm	Im(Conductivity)/mS/cm	|Conductivity|/mS/cm	Phase(Conductivity)/deg	Tan(Delta)	Loss Angle(Delta)/deg	dq/mA.h	Pwe/W	Pce/W	Pwe-ce/W	<Ewe-Ece>/V	Rwe/Ohm	Rce/Ohm	Rwe-ce/Ohm		Ewe-Ece/V
100004	1.14837	0.459586	1.23692	-21.8116	1.91153	0.253715	0.0686179	3.46288	0.478064	1	9	0.00479633	0.00387764	0	1.2871e-05	-7.39696e-05	4.12097e-05	97.2618	0.0106275	-0.00134335	-0.0105423	-21.3796	1.23179	1.14703	0.449043	0.750582	0.300388	0.808459	21.8116	478.064	1194.54	1286.65	-68.1884	0.0000000E+000	0.0000000E+000	0.0000000E+000	68.1884	0.0000000E+000	0.0000000E+000	0.0000000E+000	-68.1884	0.0000000E+000	0.0000000E+000	0.0000000E+000	-21.8116	0.0000000E+000	0.0000000E+000	0.0000000E+000	21.8116	2.49871	68.1884	1.2871e-05	1.74094e-05	-5.07564e-09	1.74145e-05	0.253789	3697.5	1.07799	3698.57
31621.1	1.557	0.662715	1.69217	-23.0564	3.43254	0.253712	0.0637003	7.59479	1.16488	1	9	0.00503672	0.00297649	0	1.12956e-05	0.000250345	1.66117e-05	35.7479	0.00558095	0.00452948	-0.0032605	-22.895	1.69507	1.56153	0.659454	0.543752	0.231441	0.590958	23.0564	1164.88	2736.8	2974.4	-66.9436	0.0000000E+000	0.0000000E+000	0.0000000E+000	66.9436	0.0000000E+000	0.0000000E+000	0.0000000E+000	-66.9436	0.0000000E+000	0.0000000E+000	0.0000000E+000	-23.0564	0.0000000E+000	0.0000000E+000	0.0000000E+000	23.0564	2.34942	66.9436	8.93177e-06	1.61616e-05	1.5947e-08	1.61456e-05	0.253462	3982.91	3.93004	3978.98
10002.2	2.08115	0.873102	2.25687	-22.7595	4.58155	0.253695	0.0712257	18.2246	2.72756	1	9	0.00498811	0.00221018	0	4.09488e-05	-0.000150279	1.5361e-05	-66.7802	0.00695011	0.00274015	0.00638715	-22.8818	2.26188	2.08389	0.87949	0.40859	0.171416	0.443091	22.7595	2727.56	6501.47	7050.44	-67.2405	0.0000000E+000	0.0000000E+000	0.0000000E+000	67.2405	0.0000000E+000	0.0000000E+000	0.0000000E+000	-67.2405	0.0000000E+000	0.0000000E+000	0.0000000E+000	-22.7595	0.0000000E+000	0.0000000E+000	0.0000000E+000	22.7595	2.38362	67.2405	5.75209e-06	1.80696e-05	-1.07037e-08	1.80803e-05	0.253846	3561.85	2.1099	3563.96
3163.08	2.73854	1.26031	3.01463	-24.7124	5.47967	0.253471	0.0089737	39.924	6.97781	1	9	0.00453327	0.00150376	0	5.26369e-05	0.000269422	9.34139e-06	-22.5789	0.00621203	0.00573589	0.00238515	-24.708	3.02083	2.74428	1.26269	0.301337	0.138679	0.331716	24.7124	6977.81	15162.2	16690.8	-65.2876	0.0000000E+000	0.0000000E+000	0.0000000E+000	65.2876	0.0000000E+000	0.0000000E+000	0.0000000E+000	-65.2876	0.0000000E+000	0.0000000E+000	0.0000000E+000	-24.7124	0.0000000E+000	0.0000000E+000	0.0000000E+000	24.7124	2.17292	65.2876	3.00227e-07	2.27457e-06	2.41771e-09	2.27215e-06	0.253201	28246	30.0235	28216
1000.32	3.65671	1.96938	4.15331	-28.3054	7.2918	0.253627	-0.0146212	80.7888	18.1644	1	10	0.00505115	0.00121617	0	8.24546e-05	-0.000245665	8.25779e-06	-66.9416	0.00678998	0.00265942	0.0062475	-28.3638	4.15862	3.65937	1.97563	0.211983	0.114167	0.240772	28.3054	18164.4	33727.4	38307.7	-61.6946	0.0000000E+000	0.0000000E+000	0.0000000E+000	61.6946	0.0000000E+000	0.0000000E+000	0.0000000E+000	-61.6946	0.0000000E+000	0.0000000E+000	0.0000000E+000	-28.3054	0.0000000E+000	0.0000000E+000	0.0000000E+000	28.3054	1.85678	61.6946	-6.08086e-07	-3.70834e-06	3.59193e-09	-3.71193e-06	0.253873	17346.5	16.802	17363.3
316.316	5.12106	3.54594	6.22889	-34.6996	8.642	0.253632	-0.0147889	141.895	45.9844	1	10	0.00496449	0.00079701	0	7.62893e-05	9.77262e-05	1.04376e-05	-9.53135	0.0130959	0.0129151	0.00216851	-34.6485	6.24074	5.13398	3.54811	0.13199	0.0913926	0.160542	34.6996	45984.4	66410.8	80777.2	-55.3004	0.0000000E+000	0.0000000E+000	0.0000000E+000	55.3004	0.0000000E+000	0.0000000E+000	0.0000000E+000	-55.3004	0.0000000E+000	0.0000000E+000	0.0000000E+000	-34.6996	0.0000000E+000	0.0000000E+000	0.0000000E+000	34.6996	1.4442	55.3004	-2.37805e-06	-3.75095e-06	-1.44527e-09	-3.74951e-06	0.253535	17150.1	6.60806	17143.5
100.032	8.6345	6.124	10.5857	-35.3461	9.98878	0.253642	-0.0146771	259.804	86.9508	1	10	0.00493983	0.00046665	0	7.08838e-05	0.000174035	1.22121e-05	98.6853	0.0261697	-0.00395181	-0.0258696	-35.2441	10.5676	8.63055	6.09813	0.0770538	0.0546503	0.0944666	35.3461	86950.8	122596	150300	-54.6539	0.0000000E+000	0.0000000E+000	0.0000000E+000	54.6539	0.0000000E+000	0.0000000E+000	0.0000000E+000	-54.6539	0.0000000E+000	0.0000000E+000	0.0000000E+000	-35.3461	0.0000000E+000	0.0000000E+000	0.0000000E+000	35.3461	1.40994	54.6539	-1.57568e-06	-3.72274e-06	-2.55434e-09	-3.72018e-06	0.253468	17281.4	11.8576	17269.6
31.6296	14.8761	7.22802	16.5391	-25.9143	11.3176	0.253626	-0.0196116	696.158	132.96	1	10	0.00493393	0.000298319	0	6.46618e-05	7.86489e-05	6.98333e-06	136.594	0.0234089	-0.0170067	-0.0160857	-25.8899	16.5168	14.8591	7.21194	0.0543831	0.0264237	0.0604627	25.9143	132960	273647	304239	-64.0857	0.0000000E+000	0.0000000E+000	0.0000000E+000	64.0857	0.0000000E+000	0.0000000E+000	0.0000000E+000	-64.0857	0.0000000E+000	0.0000000E+000	0.0000000E+000	-25.9143	0.0000000E+000	0.0000000E+000	0.0000000E+000	25.9143	2.05811	64.0857	-2.80806e-06	-4.97401e-06	-1.54243e-09	-4.97247e-06	0.253547	12932.4	4.01032	12928.4
10.0032	20.3726	5.57257	21.121	-15.2981	12.8829	0.253676	-0.00485155	2855.13	198.751	1	11	0.00494122	0.000233948	0	6.2557e-05	0.000574659	8.61616e-06	21.4897	0.0368293	0.0342691	-0.0134919	-15.2383	21.1505	20.4068	5.55908	0.0456687	0.0124919	0.0473463	15.2981	198751	726607	753299	-74.7019	0.0000000E+000	0.0000000E+000	0.0000000E+000	74.7019	0.0000000E+000	0.0000000E+000	0.0000000E+000	-74.7019	0.0000000E+000	0.0000000E+000	0.0000000E+000	-15.2981	0.0000000E+000	0.0000000E+000	0.0000000E+000	15.2981	3.65587	74.7019	1.23809e-06	-1.23072e-06	-2.78799e-09	-1.22794e-06	0.253102	52287.7	118.448	52169.2
3.1604	23.538	3.9405	23.8656	-9.50377	14.3995	0.253682	-0.00376008	12779.9	348.407	1	11	0.004934	0.000206741	0	6.05692e-05	0.00021219	6.32317e-06	32.5262	0.030585	0.0257876	-0.0164451	-9.45466	23.8883	23.5638	3.92406	0.0413263	0.00691844	0.0419014	9.50377	348407	2.08116e+06	2.11012e+06	-80.4962	0.0000000E+000	0.0000000E+000	0.0000000E+000	80.4962	0.0000000E+000	0.0000000E+000	0.0000000E+000	-80.4962	0.0000000E+000	0.0000000E+000	0.0000000E+000	-9.50377	0.0000000E+000	0.0000000E+000	0.0000000E+000	9.50377	5.97335	80.4962	1.55122e-06	-9.53865e-07	-7.97851e-10	-9.53067e-07	0.25347	67467.4	56.4324	67411
1.00006	25.8203	2.94895	25.9882	-6.51556	20.04	0.253693	-0.00251293	53966.5	694.879	1	12	0.00493736	0.000189985	0	5.55583e-05	0.000174035	2.01595e-06	111.78	0.0106111	-0.00393722	-0.00985365	-6.49495	25.9831	25.8164	2.9391	0.0382305	0.00436633	0.0384791	6.51556	694879	6.08419e+06	6.12374e+06	-83.4844	0.0000000E+000	0.0000000E+000	0.0000000E+000	83.4844	0.0000000E+000	0.0000000E+000	0.0000000E+000	-83.4844	0.0000000E+000	0.0000000E+000	0.0000000E+000	-6.51556	0.0000000E+000	0.0000000E+000	0.0000000E+000	6.51556	8.75575	83.4844	-6.98579e-06	-6.37513e-07	-4.37338e-10	-6.37076e-07	0.253519	100955	69.2561	100886
0.316193	27.4273	2.51346	27.5423	-5.236	34.3819	0.253693	-0.00337861	200261	1667.79	1	12	0.00493704	0.000179253	0	3.09578e-05	7.86489e-05	2.89032e-06	0.649416	0.0161242	0.0161232	-0.000182755	-5.23256	27.5583	27.4435	2.51328	0.0361563	0.00331339	0.0363078	5.236	1.66779e+06	1.81992e+07	1.82754e+07	-84.764	0.0000000E+000	0.0000000E+000	0.0000000E+000	84.764	0.0000000E+000	0.0000000E+000	0.0000000E+000	-84.764	0.0000000E+000	0.0000000E+000	0.0000000E+000	-5.236	0.0000000E+000	0.0000000E+000	0.0000000E+000	5.236	10.9122	84.764	-4.18154e-06	-8.57132e-07	-2.65724e-10	-8.56866e-07	0.253615	75088	23.2784	75064.7
0.0999041	28.6424	3.40579	28.8442	-6.78104	79.59	0.253683	-0.00184762	467756	6521.36	1	12	0.00493462	0.000171078	0	8.62105e-05	0.000288499	1.38132e-06	-3.65667	0.00807419	0.00805775	0.000514952	-6.78017	28.8523	28.6505	3.40631	0.0344265	0.00409356	0.034669	6.78104	6.52136e+06	5.48441e+07	5.52304e+07	-83.219	0.0000000E+000	0.0000000E+000	0.0000000E+000	83.219	0.0000000E+000	0.0000000E+000	0.0000000E+000	-83.219	0.0000000E+000	0.0000000E+000	0.0000000E+000	-6.78104	0.0000000E+000	0.0000000E+000	0.0000000E+000	6.78104	8.40992	83.219	2.7519e-05	-4.68711e-07	-5.33038e-10	-4.68178e-07	0.253395	137303	156.146	137146
0.0315922	30.5789	7.26334	31.4296	-13.3617	222.474	0.253684	-0.000363318	693592	37042.3	1	12	0.00493535	0.000157028	0	-5.25577e-05	0.000250345	1.20707e-06	48.1387	0.00768698	0.00512975	-0.00572497	-13.3494	31.4333	30.584	7.25762	0.0309558	0.00735288	0.0318171	13.3617	3.70423e+07	1.55949e+08	1.60288e+08	-76.6383	0.0000000E+000	0.0000000E+000	0.0000000E+000	76.6383	0.0000000E+000	0.0000000E+000	0.0000000E+000	-76.6383	0.0000000E+000	0.0000000E+000	0.0000000E+000	-13.3617	0.0000000E+000	0.0000000E+000	0.0000000E+000	13.3617	4.21003	76.6383	-0.000125476	-9.21679e-08	-9.09546e-11	-9.20769e-08	0.253434	698243	689.052	697554
0.0100092	35.76	16.888	39.5472	-25.2795	673.696	0.253676	-0.00200045	941549	171700	1	12	0.00493745	0.000124849	0	-0.000634235	9.77262e-05	2.95601e-06	-7.02116	0.0236766	0.023499	0.00289413	-25.2688	39.5697	35.7835	16.8909	0.0228647	0.0107981	0.0252862	25.2795	1.717e+08	3.6357e+08	4.02074e+08	-64.7205	0.0000000E+000	0.0000000E+000	0.0000000E+000	64.7205	0.0000000E+000	0.0000000E+000	0.0000000E+000	-64.7205	0.0000000E+000	0.0000000E+000	0.0000000E+000	-25.2795	0.0000000E+000	0.0000000E+000	0.0000000E+000	25.2795	2.11747	64.7205	-0.000107461	-5.07468e-07	-1.95497e-10	-5.07272e-07	0.253579	126809	48.852	126761