File: txt/18823_R307_UA701_3p84_SOC00_C02.mpt
EC-Lab ASCII FILE
Nb header lines : 65

Potentio Electrochemical Impedance Spectroscopy

Run on channel : 2 (SN 66139)
User :
CE vs. WE compliance from -10 V to 10 V
Electrode connection : standard
Potential control : Ewe
Ewe ctrl range : min = -10.00 V, max = 10.00 V
Safety Limits :
	Do not start on E overload
Acquisition started on : 11/03/2025 17:10:41.622
Technique started on : 11/03/2025 17:10:43.216
Loaded Setting File :  C:\Users\Celltest\OneDrive - store-dot.com\Documents\EC-Lab\Data\@Biologic Test Protocols\anode half cell EIS SOC00.mps
Saved on :
	File : 18823_R307_UA701_3p84_SOC00_C02.mpr
	Directory : C:\Users\Celltest\OneDrive - store-dot.com\Documents\EC-Lab\Data\Anna\
	Host : 169.254.61.224
Device : VMP-3e (SN .003165)
Address : USB
EC-LAB for windows v11.62 (software)
Internet server v27.00 (firmware)
Command interpretor v12.03 (firmware)
Electrode material :
Initial state :
Electrolyte :
Comments :
Electrode surface area : 0.001 cm²
Characteristic mass : 0.001 g
Equivalent Weight : 0.000 g/eq.
Density : 0.000 g/cm3
Volume (V) : 0.001 cm³
Record Ece
Cycle Definition : Charge/Discharge alternance
Mode                Single sine
E (V)               0.0000
vs.                 Eoc
tE (h:m:s)          0:00:0.0000
record              0
dI                  0.000
unit dI             mA
dt (s)              0.000
fi                  100.000
unit fi             kHz
ff                  10.000
unit ff             mHz
Nd                  6
Points              per decade
spacing             Logarithmic
Va (mV)             5.0
pw                  0.10
Na                  2
corr                0
E range min (V)     -10.000
E range max (V)     10.000
I Range             Auto
Bandwidth           5
nc cycles           0
goto Ns'            0
nr cycles           0
inc. cycle          0

freq/Hz	Re(Z)/Ohm	-Im(Z)/Ohm	|Z|/Ohm	Phase(Z)/deg	time/s	<Ewe>/V	<I>/mA	Cs/µF	Cp/µF	cycle number	I Range	|Ewe|/V	|I|/A	Ns	(Q-Qo)/mA.h	<Ece>/V	|Ece|/V	Phase(Zce)/deg	|Zce|/Ohm	Re(Zce)/Ohm	-Im(Zce)/Ohm	Phase(Zwe-ce)/deg	|Zwe-ce|/Ohm	Re(Zwe-ce)/Ohm	-Im(Zwe-ce)/Ohm	Re(Y)/Ohm-1	Im(Y)/Ohm-1	|Y|/Ohm-1	Phase(Y)/deg	Re(C)/nF	Im(C)/nF	|C|/nF	Phase(C)/deg	Re(M)	Im(M)	|M|	Phase(M)/deg	Re(Permittivity)	Im(Permittivity)	|Permittivity|	Phase(Permittivity)/deg	Re(Resistivity)/Ohm.cm	Im(Resistivity)/Ohm.cm	|Resistivity|/Ohm.cm	Phase(Resistivity)/deg	Re(Conductivity)/mS/cm	Im(Conductivity)/mS/cm	|Conductivity|/mS/cm	Phase(Conductivity)/deg	Tan(Delta)	Loss Angle(Delta)/deg	dq/mA.h	Pwe/W	Pce/W	Pwe-ce/W	<Ewe-Ece>/V	Rwe/Ohm	Rce/Ohm	Rwe-ce/Ohm		Ewe-Ece/V
100004	1.25113	0.404393	1.31486	-17.912	1.59351	0.255754	0.00164115	3.93551	0.372262	1	9	0.00556542	0.00423271	0	-6.43902e-06	1.94333e-05	1.28292e-05	5.41579	0.00303096	0.00301743	-0.00028607	-17.8598	1.31764	1.25415	0.404107	0.723674	0.233908	0.760537	17.912	372.262	1151.72	1210.39	-72.088	0.0000000E+000	0.0000000E+000	0.0000000E+000	72.088	0.0000000E+000	0.0000000E+000	0.0000000E+000	-72.088	0.0000000E+000	0.0000000E+000	0.0000000E+000	-17.912	0.0000000E+000	0.0000000E+000	0.0000000E+000	17.912	3.09384	72.088	-6.43902e-06	4.1973e-07	3.18929e-11	4.19698e-07	0.255735	155839	11.8413	155827
31621.1	1.59104	0.609667	1.70385	-20.9663	2.86652	0.255688	0.000412004	8.25563	1.057	1	9	0.00545477	0.00320145	0	4.48736e-05	0.000153069	1.58444e-05	22.2445	0.00494912	0.00458079	-0.00187354	-20.8526	1.70746	1.59562	0.607793	0.548049	0.210006	0.586908	20.9663	1057	2758.43	2954.01	-69.0337	0.0000000E+000	0.0000000E+000	0.0000000E+000	69.0337	0.0000000E+000	0.0000000E+000	0.0000000E+000	-69.0337	0.0000000E+000	0.0000000E+000	0.0000000E+000	-20.9663	0.0000000E+000	0.0000000E+000	0.0000000E+000	20.9663	2.60968	69.0337	6.79796e-07	1.05345e-07	6.30652e-11	1.05282e-07	0.255535	620596	371.523	620224
10002.2	2.059	0.819854	2.21623	-21.7114	4.01653	0.255686	0.00354065	19.4083	2.65602	1	9	0.00534503	0.00241177	0	2.54911e-05	0.000210342	9.05585e-06	-30.1527	0.00375486	0.00324679	0.00188609	-21.7257	2.21994	2.06225	0.82174	0.419207	0.16692	0.451217	21.7114	2656.02	6670.41	7179.75	-68.2886	0.0000000E+000	0.0000000E+000	0.0000000E+000	68.2886	0.0000000E+000	0.0000000E+000	0.0000000E+000	-68.2886	0.0000000E+000	0.0000000E+000	0.0000000E+000	-21.7114	0.0000000E+000	0.0000000E+000	0.0000000E+000	21.7114	2.51143	68.2886	-4.35663e-06	9.05293e-07	7.44746e-10	9.04548e-07	0.255475	72214.4	59.4077	72155
3163.08	2.68278	1.18894	2.93443	-23.9017	5.16568	0.255638	-0.0207065	42.3205	6.94741	1	9	0.00500282	0.00170487	0	2.10373e-05	0.000191251	2.26026e-06	-12.5378	0.00132577	0.00129415	0.000287801	-23.8966	2.93573	2.68407	1.18923	0.311557	0.138074	0.340782	23.9017	6947.41	15676.4	17146.9	-66.0983	0.0000000E+000	0.0000000E+000	0.0000000E+000	66.0983	0.0000000E+000	0.0000000E+000	0.0000000E+000	-66.0983	0.0000000E+000	0.0000000E+000	0.0000000E+000	-23.9017	0.0000000E+000	0.0000000E+000	0.0000000E+000	23.9017	2.25645	66.0983	-8.35521e-07	-5.29336e-06	-3.96013e-09	-5.2894e-06	0.255447	12345.8	9.23629	12336.6
1000.32	3.55038	1.84526	4.00128	-27.4626	6.76382	0.255653	-0.0236176	86.2229	18.3376	1	10	0.00487989	0.00121958	0	1.38192e-05	0.000305796	4.96606e-06	49.8981	0.00407193	0.00262293	-0.00311462	-27.4057	4.00217	3.553	1.84215	0.221757	0.115256	0.24992	27.4626	18337.6	35282.5	39763.3	-62.5374	0.0000000E+000	0.0000000E+000	0.0000000E+000	62.5374	0.0000000E+000	0.0000000E+000	0.0000000E+000	-62.5374	0.0000000E+000	0.0000000E+000	0.0000000E+000	-27.4626	0.0000000E+000	0.0000000E+000	0.0000000E+000	27.4626	1.92405	62.5374	-1.88948e-06	-6.03793e-06	-7.22218e-09	-6.03071e-06	0.255348	10824.7	12.9478	10811.7
316.316	5.02023	3.20891	5.95817	-32.5866	8.11301	0.255648	-0.0232041	156.798	45.4811	1	10	0.0047265	0.00079328	0	5.54525e-06	1.94333e-05	1.04171e-05	-23.1902	0.0131317	0.0120707	0.00517105	-32.566	5.97113	5.0323	3.21408	0.141416	0.0903924	0.167837	32.5866	45481.1	71153.6	84447.4	-57.4134	0.0000000E+000	0.0000000E+000	0.0000000E+000	57.4134	0.0000000E+000	0.0000000E+000	0.0000000E+000	-57.4134	0.0000000E+000	0.0000000E+000	0.0000000E+000	-32.5866	0.0000000E+000	0.0000000E+000	0.0000000E+000	32.5866	1.56446	57.4134	-2.11372e-06	-5.9321e-06	-4.50934e-10	-5.93165e-06	0.255629	11017.4	0.837494	11016.5
100.032	8.313	5.05363	9.72858	-31.2962	9.4598	0.255652	-0.0221536	314.831	84.9545	1	10	0.00467351	0.00048039	0	-2.54775e-06	0.000363069	9.86779e-06	-64.2207	0.0205412	0.00893347	0.0184969	-31.3619	9.74582	8.32193	5.07213	0.0878333	0.0533956	0.10279	31.2962	84954.5	139746	163543	-58.7038	0.0000000E+000	0.0000000E+000	0.0000000E+000	58.7038	0.0000000E+000	0.0000000E+000	0.0000000E+000	-58.7038	0.0000000E+000	0.0000000E+000	0.0000000E+000	-31.2962	0.0000000E+000	0.0000000E+000	0.0000000E+000	31.2962	1.64495	58.7038	-2.85274e-06	-5.66362e-06	-8.04329e-09	-5.65557e-06	0.255289	11539.9	16.3887	11523.6
31.6296	13.1119	5.21291	14.1102	-21.6813	10.7895	0.255639	-0.0227981	965.265	131.748	1	10	0.00467061	0.00033101	0	-1.00593e-05	0.000286705	1.11769e-05	-20.0492	0.033766	0.0317198	0.0115759	-21.6774	14.1439	13.1437	5.22449	0.0658569	0.0261828	0.0708708	21.6813	131748	331382	356611	-68.3187	0.0000000E+000	0.0000000E+000	0.0000000E+000	68.3187	0.0000000E+000	0.0000000E+000	0.0000000E+000	-68.3187	0.0000000E+000	0.0000000E+000	0.0000000E+000	-21.6813	0.0000000E+000	0.0000000E+000	0.0000000E+000	21.6813	2.51528	68.3187	-1.93213e-06	-5.82809e-06	-6.53633e-09	-5.82155e-06	0.255352	11213.2	12.5758	11200.6
10.0032	16.6711	3.91127	17.1238	-13.2036	12.3718	0.255669	-0.0151829	4067.83	212.227	1	11	0.00466844	0.000272629	0	-1.72944e-05	-0.000190566	5.48809e-06	17.5754	0.0201302	0.0191906	-0.00607853	-13.1692	17.1411	16.6903	3.90519	0.0568546	0.0133389	0.0583984	13.2036	212227	904580	929142	-76.7964	0.0000000E+000	0.0000000E+000	0.0000000E+000	76.7964	0.0000000E+000	0.0000000E+000	0.0000000E+000	-76.7964	0.0000000E+000	0.0000000E+000	0.0000000E+000	-13.2036	0.0000000E+000	0.0000000E+000	0.0000000E+000	13.2036	4.26232	76.7964	-6.41228e-07	-3.88179e-06	2.89334e-09	-3.88468e-06	0.255859	16839.3	12.5514	16851.9
3.1604	18.9402	2.7026	19.132	-8.12079	13.8885	0.255673	-0.0136197	18633.6	371.824	1	11	0.00466753	0.000243964	0	-2.05309e-05	9.57967e-05	6.29843e-06	42.105	0.025817	0.0191541	-0.0173101	-8.06141	19.1486	18.9593	2.68529	0.0517442	0.00738345	0.0522683	8.12079	371824	2.6058e+06	2.63219e+06	-81.8792	0.0000000E+000	0.0000000E+000	0.0000000E+000	81.8792	0.0000000E+000	0.0000000E+000	0.0000000E+000	-81.8792	0.0000000E+000	0.0000000E+000	0.0000000E+000	-8.12079	0.0000000E+000	0.0000000E+000	0.0000000E+000	8.12079	7.00814	81.8792	1.54543e-07	-3.48218e-06	-1.30472e-09	-3.48088e-06	0.255577	18772.3	7.03369	18765.2
1.00006	20.3691	1.93856	20.4611	-5.43657	19.5268	0.255668	-0.0113083	82094.3	736.909	1	12	0.00466951	0.000228214	0	-5.16144e-05	-5.69301e-05	3.03875e-06	-34.1985	0.0133154	0.0110131	0.00748406	-5.4545	20.4728	20.3801	1.94605	0.0486534	0.00463043	0.0488732	5.43657	736909	7.74293e+06	7.77792e+06	-84.5634	0.0000000E+000	0.0000000E+000	0.0000000E+000	84.5634	0.0000000E+000	0.0000000E+000	0.0000000E+000	-84.5634	0.0000000E+000	0.0000000E+000	0.0000000E+000	-5.43657	0.0000000E+000	0.0000000E+000	0.0000000E+000	5.43657	10.5073	84.5634	-1.66578e-05	-2.89118e-06	6.43783e-10	-2.89182e-06	0.255725	22608.9	5.03435	22613.9
0.316193	21.2665	1.96326	21.3569	-5.27444	33.87	0.25567	-0.00962808	256383	2166.55	1	12	0.00466859	0.000218599	0	-6.59899e-05	0.000114888	1.8164e-06	95.588	0.00830928	-0.000809118	-0.00826979	-5.25254	21.3553	21.2657	1.95499	0.046625	0.00430429	0.0468233	5.27444	2.16655e+06	2.34686e+07	2.35684e+07	-84.7256	0.0000000E+000	0.0000000E+000	0.0000000E+000	84.7256	0.0000000E+000	0.0000000E+000	0.0000000E+000	-84.7256	0.0000000E+000	0.0000000E+000	0.0000000E+000	-5.27444	0.0000000E+000	0.0000000E+000	0.0000000E+000	5.27444	10.8322	84.7256	1.21925e-06	-2.46161e-06	-1.10615e-09	-2.46051e-06	0.255555	26554.6	11.9325	26542.7
0.0999041	22.4133	3.32028	22.6579	-8.42644	79.0781	0.255662	-0.00320421	479802	10303.2	1	12	0.00466987	0.000206103	0	-0.000112798	0.000248523	2.07465e-06	2.83261	0.0100661	0.0100538	-0.000497449	-8.42147	22.6678	22.4234	3.31978	0.0436583	0.00646748	0.0441347	8.42644	1.03032e+07	6.9551e+07	7.031e+07	-81.5736	0.0000000E+000	0.0000000E+000	0.0000000E+000	81.5736	0.0000000E+000	0.0000000E+000	0.0000000E+000	-81.5736	0.0000000E+000	0.0000000E+000	0.0000000E+000	-8.42644	0.0000000E+000	0.0000000E+000	0.0000000E+000	8.42644	6.75043	81.5736	-4.04106e-05	-8.19194e-07	-7.96321e-10	-8.18398e-07	0.255413	79789.5	77.5616	79711.9
0.0315922	24.6279	6.83691	25.5592	-15.5151	221.963	0.25566	-0.00314093	736852	52723.5	1	12	0.00466888	0.000182669	0	-0.000527715	0.000248523	1.90218e-06	-27.548	0.0104133	0.00923268	0.00481606	-15.52	25.5694	24.6371	6.84173	0.0376991	0.0104656	0.0391248	15.5151	5.27235e+07	1.8992e+08	1.97103e+08	-74.4849	0.0000000E+000	0.0000000E+000	0.0000000E+000	74.4849	0.0000000E+000	0.0000000E+000	0.0000000E+000	-74.4849	0.0000000E+000	0.0000000E+000	0.0000000E+000	-15.5151	0.0000000E+000	0.0000000E+000	0.0000000E+000	15.5151	3.60219	74.4849	-0.000179704	-8.03009e-07	-7.80594e-10	-8.02228e-07	0.255411	81396.3	79.1243	81317.2
0.0100092	28.8132	15.5	32.7178	-28.2778	673.185	0.255652	-0.00229402	1.02587e+06	230242	1	12	0.00466985	0.000142731	0	-0.000287323	0.000286705	1.92783e-06	-25.0097	0.0135068	0.0122403	0.00571027	-28.2765	32.7312	28.8255	15.5057	0.0269169	0.0144798	0.0305644	28.2778	2.30242e+08	4.28003e+08	4.86002e+08	-61.7222	0.0000000E+000	0.0000000E+000	0.0000000E+000	61.7222	0.0000000E+000	0.0000000E+000	0.0000000E+000	-61.7222	0.0000000E+000	0.0000000E+000	0.0000000E+000	-28.2778	0.0000000E+000	0.0000000E+000	0.0000000E+000	28.2778	1.85892	61.7222	0.000280124	-5.8647e-07	-6.57706e-10	-5.85812e-07	0.255365	111443	124.98	111318