File: txt/18827_R307_UA701_4p38_SOC00_C06.mpt
EC-Lab ASCII FILE
Nb header lines : 65

Potentio Electrochemical Impedance Spectroscopy

Run on channel : 6 (SN 65795)
User :
CE vs. WE compliance from -10 V to 10 V
Electrode connection : standard
Potential control : Ewe
Ewe ctrl range : min = -10.00 V, max = 10.00 V
Safety Limits :
	Do not start on E overload
Acquisition started on : 11/03/2025 17:11:12.862
Technique started on : 11/03/2025 17:11:14.589
Loaded Setting File :  C:\Users\Celltest\OneDrive - store-dot.com\Documents\EC-Lab\Data\@Biologic Test Protocols\anode half cell EIS SOC00.mps
Saved on :
	File : 18827_R307_UA701_4p38_SOC00_C06.mpr
	Directory : C:\Users\Celltest\OneDrive - store-dot.com\Documents\EC-Lab\Data\Anna\
	Host : 169.254.61.224
Device : VMP-3e (SN .003165)
Address : USB
EC-LAB for windows v11.62 (software)
Internet server v27.00 (firmware)
Command interpretor v12.03 (firmware)
Electrode material :
Initial state :
Electrolyte :
Comments :
Electrode surface area : 0.001 cm²
Characteristic mass : 0.001 g
Equivalent Weight : 0.000 g/eq.
Density : 0.000 g/cm3
Volume (V) : 0.001 cm³
Record Ece
Cycle Definition : Charge/Discharge alternance
Mode                Single sine
E (V)               0.0000
vs.                 Eoc
tE (h:m:s)          0:00:0.0000
record              0
dI                  0.000
unit dI             mA
dt (s)              0.000
fi                  100.000
unit fi             kHz
ff                  10.000
unit ff             mHz
Nd                  6
Points              per decade
spacing             Logarithmic
Va (mV)             5.0
pw                  0.10
Na                  2
corr                0
E range min (V)     -10.000
E range max (V)     10.000
I Range             Auto
Bandwidth           5
nc cycles           0
goto Ns'            0
nr cycles           0
inc. cycle          0

freq/Hz	Re(Z)/Ohm	-Im(Z)/Ohm	|Z|/Ohm	Phase(Z)/deg	time/s	<Ewe>/V	<I>/mA	Cs/µF	Cp/µF	cycle number	I Range	|Ewe|/V	|I|/A	Ns	(Q-Qo)/mA.h	<Ece>/V	|Ece|/V	Phase(Zce)/deg	|Zce|/Ohm	Re(Zce)/Ohm	-Im(Zce)/Ohm	Phase(Zwe-ce)/deg	|Zwe-ce|/Ohm	Re(Zwe-ce)/Ohm	-Im(Zwe-ce)/Ohm	Re(Y)/Ohm-1	Im(Y)/Ohm-1	|Y|/Ohm-1	Phase(Y)/deg	Re(C)/nF	Im(C)/nF	|C|/nF	Phase(C)/deg	Re(M)	Im(M)	|M|	Phase(M)/deg	Re(Permittivity)	Im(Permittivity)	|Permittivity|	Phase(Permittivity)/deg	Re(Resistivity)/Ohm.cm	Im(Resistivity)/Ohm.cm	|Resistivity|/Ohm.cm	Phase(Resistivity)/deg	Re(Conductivity)/mS/cm	Im(Conductivity)/mS/cm	|Conductivity|/mS/cm	Phase(Conductivity)/deg	Tan(Delta)	Loss Angle(Delta)/deg	dq/mA.h	Pwe/W	Pce/W	Pwe-ce/W	<Ewe-Ece>/V	Rwe/Ohm	Rce/Ohm	Rwe-ce/Ohm		Ewe-Ece/V
100004	1.37581	0.545128	1.47987	-21.6147	1.72655	0.255331	0.0307989	2.91948	0.396148	1	9	0.00483174	0.00326499	0	3.72833e-06	0.000420944	4.12556e-05	83.457	0.0126358	0.00143982	-0.0125535	-21.1413	1.47663	1.37725	0.532575	0.62822	0.248916	0.675737	21.6147	396.148	999.806	1075.43	-68.3853	0.0000000E+000	0.0000000E+000	0.0000000E+000	68.3853	0.0000000E+000	0.0000000E+000	0.0000000E+000	-68.3853	0.0000000E+000	0.0000000E+000	0.0000000E+000	-21.6147	0.0000000E+000	0.0000000E+000	0.0000000E+000	21.6147	2.52382	68.3853	3.72833e-06	7.86393e-06	1.29646e-08	7.85096e-06	0.25491	8290.28	13.6675	8276.61
31621.1	1.84606	0.706402	1.9766	-20.9395	3.12553	0.255338	0.0252859	7.1251	0.910034	1	9	0.00546488	0.00276479	0	1.74777e-05	0.000229964	1.12911e-05	11.8551	0.00408388	0.00399677	-0.000838984	-20.8755	1.98003	1.85006	0.705563	0.472508	0.180807	0.50592	20.9395	910.034	2378.22	2546.38	-69.0605	0.0000000E+000	0.0000000E+000	0.0000000E+000	69.0605	0.0000000E+000	0.0000000E+000	0.0000000E+000	-69.0605	0.0000000E+000	0.0000000E+000	0.0000000E+000	-20.9395	0.0000000E+000	0.0000000E+000	0.0000000E+000	20.9395	2.61333	69.0605	-4.05858e-06	6.45645e-06	5.81484e-09	6.45063e-06	0.255108	10098	9.09454	10088.9
10002.2	2.37621	0.895139	2.53922	-20.6419	4.15055	0.255345	0.0274091	17.776	2.20909	1	9	0.00521156	0.00205243	0	2.369e-05	0.000287258	9.21675e-06	-103.653	0.00449066	-0.00106	0.00436376	-20.7424	2.53977	2.37515	0.899503	0.36854	0.138832	0.393822	20.6419	2209.09	5864.18	6266.48	-69.3581	0.0000000E+000	0.0000000E+000	0.0000000E+000	69.3581	0.0000000E+000	0.0000000E+000	0.0000000E+000	-69.3581	0.0000000E+000	0.0000000E+000	0.0000000E+000	-20.6419	0.0000000E+000	0.0000000E+000	0.0000000E+000	20.6419	2.65457	69.3581	4.63332e-07	6.99878e-06	7.87348e-09	6.9909e-06	0.255058	9316.05	10.4804	9305.57
3163.08	3.0736	1.24741	3.31709	-22.0897	5.04767	0.25517	-0.0153911	40.3366	5.70437	1	9	0.00497084	0.00149856	0	2.52948e-05	0.000249062	3.91876e-06	68.8428	0.00261502	0.000943835	-0.00243875	-22.0445	3.31704	3.07454	1.24498	0.279341	0.11337	0.30147	22.0897	5704.37	14055.4	15168.9	-67.9103	0.0000000E+000	0.0000000E+000	0.0000000E+000	67.9103	0.0000000E+000	0.0000000E+000	0.0000000E+000	-67.9103	0.0000000E+000	0.0000000E+000	0.0000000E+000	-22.0897	0.0000000E+000	0.0000000E+000	0.0000000E+000	22.0897	2.46398	67.9103	-2.74583e-06	-3.92735e-06	-3.83333e-09	-3.92352e-06	0.254921	16579.1	16.1822	16562.9
1000.32	4.01961	1.85309	4.4262	-24.7503	6.64579	0.255274	-0.0156373	85.8585	15.0493	1	10	0.00492803	0.00111338	0	2.32477e-05	9.62774e-05	4.31452e-06	135.37	0.00387516	-0.00275781	-0.00272239	-24.7333	4.42255	4.01685	1.85037	0.205174	0.094588	0.225928	24.7503	15049.3	32644	35946	-65.2497	0.0000000E+000	0.0000000E+000	0.0000000E+000	65.2497	0.0000000E+000	0.0000000E+000	0.0000000E+000	-65.2497	0.0000000E+000	0.0000000E+000	0.0000000E+000	-24.7503	0.0000000E+000	0.0000000E+000	0.0000000E+000	24.7503	2.16913	65.2497	-1.10214e-06	-3.99179e-06	-1.50552e-09	-3.99028e-06	0.255177	16324.7	6.15691	16318.5
316.316	5.49488	2.95262	6.23793	-28.2509	7.99608	0.255267	-0.0146721	170.408	38.1792	1	10	0.00483714	0.00077544	0	1.70813e-05	0.000382748	1.08811e-05	104.857	0.0140322	-0.00359794	-0.0135631	-28.1567	6.22835	5.49129	2.93906	0.141214	0.0758801	0.16031	28.2509	38179.2	71052.1	80660.1	-61.749	0.0000000E+000	0.0000000E+000	0.0000000E+000	61.749	0.0000000E+000	0.0000000E+000	0.0000000E+000	-61.749	0.0000000E+000	0.0000000E+000	0.0000000E+000	-28.2509	0.0000000E+000	0.0000000E+000	0.0000000E+000	28.2509	1.86102	61.7491	-2.33932e-06	-3.74531e-06	-5.61573e-09	-3.7397e-06	0.254884	17398.1	26.0867	17372
100.032	8.47436	4.37493	9.53702	-27.3053	9.3428	0.255274	-0.0145044	363.672	76.5292	1	10	0.00482775	0.000506212	0	1.25623e-05	0.000153571	3.15553e-06	13.324	0.00623362	0.00606583	-0.00143658	-27.2809	9.54175	8.48042	4.37349	0.0931711	0.0481001	0.104855	27.3053	76529.2	148239	166828	-62.6947	0.0000000E+000	0.0000000E+000	0.0000000E+000	62.6947	0.0000000E+000	0.0000000E+000	0.0000000E+000	-62.6947	0.0000000E+000	0.0000000E+000	0.0000000E+000	-27.3053	0.0000000E+000	0.0000000E+000	0.0000000E+000	27.3053	1.93703	62.6947	-2.02055e-06	-3.7026e-06	-2.22747e-09	-3.70038e-06	0.25512	17599.7	10.5879	17589.1
31.6296	12.4425	4.3724	13.1884	-19.362	10.6716	0.255251	-0.0192744	1150.82	126.493	1	10	0.00481479	0.000365079	0	6.18628e-06	0.000325454	5.59044e-06	-16.9053	0.015313	0.0146512	0.00445286	-19.3591	13.2037	12.4571	4.37685	0.071536	0.0251384	0.0758244	19.362	126493	359958	381536	-70.638	0.0000000E+000	0.0000000E+000	0.0000000E+000	70.638	0.0000000E+000	0.0000000E+000	0.0000000E+000	-70.638	0.0000000E+000	0.0000000E+000	0.0000000E+000	-19.362	0.0000000E+000	0.0000000E+000	0.0000000E+000	19.362	2.84568	70.638	-2.90302e-06	-4.91983e-06	-6.27294e-09	-4.91356e-06	0.254926	13243	16.8853	13226.1
10.0032	15.5133	3.30452	15.8614	-12.0249	12.2529	0.2553	-0.00812421	4814.74	208.981	1	11	0.00481539	0.000303592	0	-2.30641e-07	0.000382748	4.45218e-06	10.3185	0.014665	0.0144278	-0.0026268	-12.0048	15.875	15.5278	3.30189	0.0616628	0.0131349	0.0630462	12.0249	208981	981079	1.00309e+06	-77.9751	0.0000000E+000	0.0000000E+000	0.0000000E+000	77.9751	0.0000000E+000	0.0000000E+000	0.0000000E+000	-77.9751	0.0000000E+000	0.0000000E+000	0.0000000E+000	-12.0249	0.0000000E+000	0.0000000E+000	0.0000000E+000	12.0249	4.69458	77.9751	-1.09451e-06	-2.07411e-06	-3.10952e-09	-2.071e-06	0.254918	31424.7	47.112	31377.6
3.1604	17.4839	2.30568	17.6353	-7.51248	13.7694	0.255287	-0.00802087	21841.4	373.345	1	11	0.00481324	0.000272932	0	-6.65331e-06	1.98852e-05	8.03942e-06	-21.2795	0.0294558	0.0274475	0.01069	-7.53521	17.6639	17.5114	2.31637	0.0562177	0.00741365	0.0567044	7.51248	373345	2.83107e+06	2.85559e+06	-82.4875	0.0000000E+000	0.0000000E+000	0.0000000E+000	82.4875	0.0000000E+000	0.0000000E+000	0.0000000E+000	-82.4875	0.0000000E+000	0.0000000E+000	0.0000000E+000	-7.51248	0.0000000E+000	0.0000000E+000	0.0000000E+000	7.51248	7.58299	82.4875	-2.8993e-06	-2.04762e-06	-1.59497e-10	-2.04746e-06	0.255267	31827.8	2.47918	31825.4
1.00006	18.6715	1.64032	18.7435	-5.02062	19.4089	0.255276	-0.00656165	97020.6	743.056	1	12	0.00481389	0.00025683	0	-4.14252e-06	0.00017267	3.04419e-06	23.2088	0.0118529	0.0108937	-0.00467104	-5.00349	18.7539	18.6824	1.63565	0.0531472	0.00466905	0.0533519	5.02062	743056	8.45811e+06	8.49068e+06	-84.9794	0.0000000E+000	0.0000000E+000	0.0000000E+000	84.9794	0.0000000E+000	0.0000000E+000	0.0000000E+000	-84.9794	0.0000000E+000	0.0000000E+000	0.0000000E+000	-5.02062	0.0000000E+000	0.0000000E+000	0.0000000E+000	5.02062	11.3829	84.9794	-1.98557e-06	-1.67503e-06	-1.133e-09	-1.6739e-06	0.255103	38904.3	26.315	38877.9
0.316193	19.4024	1.66146	19.4734	-4.89441	33.751	0.255297	-0.00405405	302954	2205.34	1	12	0.00480649	0.000246823	0	-6.32437e-05	-1.83109e-05	2.06102e-06	19.693	0.00835018	0.0078618	-0.00281384	-4.88419	19.481	19.4102	1.65865	0.0511649	0.00438135	0.0513521	4.89441	2.20534e+06	2.57537e+07	2.5848e+07	-85.1056	0.0000000E+000	0.0000000E+000	0.0000000E+000	85.1056	0.0000000E+000	0.0000000E+000	0.0000000E+000	-85.1056	0.0000000E+000	0.0000000E+000	0.0000000E+000	-4.89441	0.0000000E+000	0.0000000E+000	0.0000000E+000	4.89441	11.6779	85.1056	-2.80065e-05	-1.03499e-06	7.42331e-11	-1.03506e-06	0.255316	62973.5	4.51669	62978
0.0999041	20.3377	2.97853	20.5547	-8.33194	78.9591	0.255288	-0.0051074	534853	11231	1	12	0.00481579	0.000234292	0	-7.9088e-05	0.000229964	1.03146e-06	52.1959	0.00440245	0.00269854	-0.00347843	-8.32126	20.5568	20.3404	2.97505	0.0481373	0.00704988	0.0486508	8.33194	1.1231e+07	7.66864e+07	7.75044e+07	-81.6681	0.0000000E+000	0.0000000E+000	0.0000000E+000	81.6681	0.0000000E+000	0.0000000E+000	0.0000000E+000	-81.6681	0.0000000E+000	0.0000000E+000	0.0000000E+000	-8.33194	0.0000000E+000	0.0000000E+000	0.0000000E+000	8.33194	6.8281	81.6681	2.15773e-05	-1.30386e-06	-1.17452e-09	-1.30268e-06	0.255058	49984	45.0256	49939
0.0315922	22.3522	6.14568	23.1817	-15.3734	221.842	0.25528	-0.000887312	819729	57612.9	1	12	0.00481601	0.000207751	0	8.01936e-05	1.98852e-05	1.71695e-06	6.06433	0.00826448	0.00821823	-0.000873101	-15.366	23.1894	22.3604	6.14481	0.0415939	0.0114361	0.0431375	15.3734	5.76129e+07	2.09542e+08	2.17318e+08	-74.6266	0.0000000E+000	0.0000000E+000	0.0000000E+000	74.6266	0.0000000E+000	0.0000000E+000	0.0000000E+000	-74.6266	0.0000000E+000	0.0000000E+000	0.0000000E+000	-15.3734	0.0000000E+000	0.0000000E+000	0.0000000E+000	15.3734	3.63706	74.6266	2.45591e-05	-2.26513e-07	-1.76444e-11	-2.26495e-07	0.25526	287700	22.4106	287678
0.0100092	26.0736	13.6893	29.4487	-27.7006	673.064	0.255285	-0.00177649	1.16156e+06	250997	1	12	0.00481874	0.000163631	0	-0.000998949	3.89833e-05	1.93156e-06	-92.5575	0.0118043	-0.000526729	0.0117926	-27.7214	29.4538	26.0731	13.7011	0.0300654	0.0157851	0.0339573	27.7006	2.50997e+08	4.78068e+08	5.39952e+08	-62.2994	0.0000000E+000	0.0000000E+000	0.0000000E+000	62.2994	0.0000000E+000	0.0000000E+000	0.0000000E+000	-62.2994	0.0000000E+000	0.0000000E+000	0.0000000E+000	-27.7006	0.0000000E+000	0.0000000E+000	0.0000000E+000	27.7006	1.90467	62.2994	-0.000554994	-4.53512e-07	-6.92535e-11	-4.53443e-07	0.255246	143702	21.9439	143680