File: txt/18826_R307_UA701_4p38_SOC00_C05.mpt
EC-Lab ASCII FILE
Nb header lines : 65

Potentio Electrochemical Impedance Spectroscopy

Run on channel : 5 (SN 65912)
User :
CE vs. WE compliance from -10 V to 10 V
Electrode connection : standard
Potential control : Ewe
Ewe ctrl range : min = -10.00 V, max = 10.00 V
Safety Limits :
	Do not start on E overload
Acquisition started on : 11/03/2025 17:11:05.636
Technique started on : 11/03/2025 17:11:07.690
Loaded Setting File :  C:\Users\Celltest\OneDrive - store-dot.com\Documents\EC-Lab\Data\@Biologic Test Protocols\anode half cell EIS SOC00.mps
Saved on :
	File : 18826_R307_UA701_4p38_SOC00_C05.mpr
	Directory : C:\Users\Celltest\OneDrive - store-dot.com\Documents\EC-Lab\Data\Anna\
	Host : 169.254.61.224
Device : VMP-3e (SN .003165)
Address : USB
EC-LAB for windows v11.62 (software)
Internet server v27.00 (firmware)
Command interpretor v12.03 (firmware)
Electrode material :
Initial state :
Electrolyte :
Comments :
Electrode surface area : 0.001 cm²
Characteristic mass : 0.001 g
Equivalent Weight : 0.000 g/eq.
Density : 0.000 g/cm3
Volume (V) : 0.001 cm³
Record Ece
Cycle Definition : Charge/Discharge alternance
Mode                Single sine
E (V)               0.0000
vs.                 Eoc
tE (h:m:s)          0:00:0.0000
record              0
dI                  0.000
unit dI             mA
dt (s)              0.000
fi                  100.000
unit fi             kHz
ff                  10.000
unit ff             mHz
Nd                  6
Points              per decade
spacing             Logarithmic
Va (mV)             5.0
pw                  0.10
Na                  2
corr                0
E range min (V)     -10.000
E range max (V)     10.000
I Range             Auto
Bandwidth           5
nc cycles           0
goto Ns'            0
nr cycles           0
inc. cycle          0

freq/Hz	Re(Z)/Ohm	-Im(Z)/Ohm	|Z|/Ohm	Phase(Z)/deg	time/s	<Ewe>/V	<I>/mA	Cs/µF	Cp/µF	cycle number	I Range	|Ewe|/V	|I|/A	Ns	(Q-Qo)/mA.h	<Ece>/V	|Ece|/V	Phase(Zce)/deg	|Zce|/Ohm	Re(Zce)/Ohm	-Im(Zce)/Ohm	Phase(Zwe-ce)/deg	|Zwe-ce|/Ohm	Re(Zwe-ce)/Ohm	-Im(Zwe-ce)/Ohm	Re(Y)/Ohm-1	Im(Y)/Ohm-1	|Y|/Ohm-1	Phase(Y)/deg	Re(C)/nF	Im(C)/nF	|C|/nF	Phase(C)/deg	Re(M)	Im(M)	|M|	Phase(M)/deg	Re(Permittivity)	Im(Permittivity)	|Permittivity|	Phase(Permittivity)/deg	Re(Resistivity)/Ohm.cm	Im(Resistivity)/Ohm.cm	|Resistivity|/Ohm.cm	Phase(Resistivity)/deg	Re(Conductivity)/mS/cm	Im(Conductivity)/mS/cm	|Conductivity|/mS/cm	Phase(Conductivity)/deg	Tan(Delta)	Loss Angle(Delta)/deg	dq/mA.h	Pwe/W	Pce/W	Pwe-ce/W	<Ewe-Ece>/V	Rwe/Ohm	Rce/Ohm	Rwe-ce/Ohm		Ewe-Ece/V
100004	1.31388	0.457225	1.39117	-19.1876	2.05352	0.255337	-0.0153271	3.48076	0.375989	1	9	0.00495831	0.00356414	0	-5.1161e-06	-6.05491e-05	4.22052e-05	79.3404	0.0118416	0.00219039	-0.0116373	-18.7047	1.38946	1.31608	0.445588	0.678888	0.236249	0.718821	19.1876	375.989	1080.44	1144	-70.8124	0.0000000E+000	0.0000000E+000	0.0000000E+000	70.8124	0.0000000E+000	0.0000000E+000	0.0000000E+000	-70.8124	0.0000000E+000	0.0000000E+000	0.0000000E+000	-19.1876	0.0000000E+000	0.0000000E+000	0.0000000E+000	19.1876	2.87361	70.8124	-5.1161e-06	-3.91357e-06	9.2804e-10	-3.9145e-06	0.255398	16659.2	3.95047	16663.2
31621.1	1.70707	0.590534	1.80633	-19.0822	3.45055	0.255314	-0.0132044	8.5231	0.910949	1	9	0.00548913	0.00303883	0	-6.99683e-06	-0.000194188	1.40216e-05	22.5601	0.00461413	0.00426105	-0.00177022	-18.9852	1.80978	1.71133	0.588764	0.523188	0.180989	0.553609	19.0822	910.949	2633.3	2786.41	-70.9178	0.0000000E+000	0.0000000E+000	0.0000000E+000	70.9178	0.0000000E+000	0.0000000E+000	0.0000000E+000	-70.9178	0.0000000E+000	0.0000000E+000	0.0000000E+000	-19.0822	0.0000000E+000	0.0000000E+000	0.0000000E+000	19.0822	2.89073	70.9178	-4.20444e-06	-3.37127e-06	2.56413e-09	-3.37383e-06	0.255508	19335.5	14.7063	19350.2
10002.2	2.14985	0.781573	2.28751	-19.9786	4.47554	0.255302	-0.0147313	20.3589	2.37666	1	9	0.00513947	0.00224675	0	1.21222e-06	-3.27544e-06	1.05539e-05	63.4629	0.0046974	0.00209869	-0.00420251	-19.8618	2.28805	2.15195	0.77737	0.410848	0.149363	0.437156	19.9786	2376.66	6537.4	6956.01	-70.0214	0.0000000E+000	0.0000000E+000	0.0000000E+000	70.0214	0.0000000E+000	0.0000000E+000	0.0000000E+000	-70.0214	0.0000000E+000	0.0000000E+000	0.0000000E+000	-19.9786	0.0000000E+000	0.0000000E+000	0.0000000E+000	19.9786	2.75067	70.0214	6.46879e-07	-3.76092e-06	4.82513e-11	-3.76097e-06	0.255305	17330.6	0.222346	17330.9
3163.08	2.75077	1.12625	2.9724	-22.2658	5.37268	0.255137	-0.0700324	44.676	6.41403	1	9	0.00490364	0.00164972	0	-1.0304e-05	-0.00023237	6.5256e-06	24.326	0.00395557	0.00360438	-0.00162941	-22.2104	2.97512	2.75437	1.12462	0.311343	0.127474	0.336429	22.2658	6414.03	15665.7	16927.9	-67.7342	0.0000000E+000	0.0000000E+000	0.0000000E+000	67.7342	0.0000000E+000	0.0000000E+000	0.0000000E+000	-67.7342	0.0000000E+000	0.0000000E+000	0.0000000E+000	-22.2658	0.0000000E+000	0.0000000E+000	0.0000000E+000	22.2658	2.44241	67.7342	-6.93796e-06	-1.78678e-05	1.62734e-08	-1.78841e-05	0.255369	3643.12	3.31804	3646.44
1000.32	3.56939	1.75936	3.97943	-26.2388	6.9718	0.255239	-0.0167984	90.433	17.6764	1	10	0.00487109	0.00122407	0	-1.23709e-05	9.21806e-05	5.76692e-06	6.81458	0.00471127	0.00467799	-0.000559024	-26.2018	3.98338	3.57406	1.7588	0.225399	0.1111	0.251292	26.2388	17676.4	35861.9	39981.6	-63.7612	0.0000000E+000	0.0000000E+000	0.0000000E+000	63.7612	0.0000000E+000	0.0000000E+000	0.0000000E+000	-63.7612	0.0000000E+000	0.0000000E+000	0.0000000E+000	-26.2388	0.0000000E+000	0.0000000E+000	0.0000000E+000	26.2388	2.0288	63.7612	-9.99987e-07	-4.28761e-06	-1.54849e-09	-4.28606e-06	0.255147	15194.2	5.48746	15188.7
316.316	4.95524	3.05939	5.8236	-31.6914	8.32105	0.255236	-0.015324	164.461	45.3891	1	10	0.0047804	0.000820868	0	-1.85165e-05	0.000168545	1.0736e-05	-4.70713	0.0130788	0.0130347	0.00107328	-31.6331	5.83525	4.96827	3.06047	0.146111	0.0902096	0.171715	31.6914	45389.1	73515.9	86398.8	-58.3086	0.0000000E+000	0.0000000E+000	0.0000000E+000	58.3086	0.0000000E+000	0.0000000E+000	0.0000000E+000	-58.3086	0.0000000E+000	0.0000000E+000	0.0000000E+000	-31.6914	0.0000000E+000	0.0000000E+000	0.0000000E+000	31.6914	1.61968	58.3086	-1.18873e-06	-3.91122e-06	-2.58279e-09	-3.90864e-06	0.255067	16656	10.9988	16645
100.032	8.03523	4.86966	9.39566	-31.2175	9.66882	0.255239	-0.0155883	326.725	87.7658	1	10	0.00474624	0.000505152	0	-2.39696e-05	0.000206728	9.11169e-06	38.5869	0.0180375	0.0140992	-0.01125	-31.1143	9.40191	8.04932	4.85841	0.0910214	0.0551625	0.106432	31.2175	87765.8	144819	169338	-58.7825	0.0000000E+000	0.0000000E+000	0.0000000E+000	58.7825	0.0000000E+000	0.0000000E+000	0.0000000E+000	-58.7825	0.0000000E+000	0.0000000E+000	0.0000000E+000	-31.2175	0.0000000E+000	0.0000000E+000	0.0000000E+000	31.2175	1.65006	58.7825	-1.74875e-06	-3.97875e-06	-3.22255e-09	-3.97553e-06	0.255032	16373.7	13.2617	16360.4
31.6296	12.7045	5.21109	13.7317	-22.3023	10.9976	0.255232	-0.0205703	965.603	139.061	1	10	0.00474119	0.000345273	0	-2.94286e-05	0.00024491	1.04358e-05	-24.7642	0.0302248	0.0274453	0.0126607	-22.3077	13.7619	12.732	5.22375	0.0673764	0.0276362	0.0728241	22.3023	139061	339028	366439	-67.6977	0.0000000E+000	0.0000000E+000	0.0000000E+000	67.6977	0.0000000E+000	0.0000000E+000	0.0000000E+000	-67.6977	0.0000000E+000	0.0000000E+000	0.0000000E+000	-22.3023	0.0000000E+000	0.0000000E+000	0.0000000E+000	22.3023	2.43798	67.6977	-1.53558e-06	-5.25018e-06	-5.03787e-09	-5.24514e-06	0.254987	12407.8	11.906	12395.9
10.0032	16.43	4.06539	16.9255	-13.898	12.5798	0.255276	-0.0058259	3913.62	225.789	1	11	0.00474347	0.000280256	0	-3.32974e-05	1.58158e-05	1.39314e-05	-42.2947	0.0497096	0.0367699	0.0334518	-13.9778	16.9692	16.4667	4.09885	0.057353	0.0141913	0.0590826	13.898	225789	912508	940028	-76.102	0.0000000E+000	0.0000000E+000	0.0000000E+000	76.102	0.0000000E+000	0.0000000E+000	0.0000000E+000	-76.102	0.0000000E+000	0.0000000E+000	0.0000000E+000	-13.898	0.0000000E+000	0.0000000E+000	0.0000000E+000	13.898	4.04142	76.102	-4.45569e-08	-1.48722e-06	-9.21412e-11	-1.48712e-06	0.255261	43817.5	2.71473	43814.8
3.1604	18.9199	2.82358	19.1294	-8.4881	14.0965	0.25528	-0.0049409	17835.2	388.575	1	11	0.00474925	0.000248269	0	-3.26327e-05	0.000378549	7.345e-06	63.7069	0.0295848	0.013105	-0.026524	-8.40378	19.1385	18.933	2.79706	0.0517029	0.00771608	0.0522755	8.4881	388575	2.60372e+06	2.63255e+06	-81.5119	0.0000000E+000	0.0000000E+000	0.0000000E+000	81.5119	0.0000000E+000	0.0000000E+000	0.0000000E+000	-81.5119	0.0000000E+000	0.0000000E+000	0.0000000E+000	-8.4881	0.0000000E+000	0.0000000E+000	0.0000000E+000	8.4881	6.70067	81.5119	1.1205e-06	-1.26131e-06	-1.87037e-09	-1.25944e-06	0.254902	51666.7	76.6154	51590.1
1.00006	20.3953	1.95704	20.489	-5.48107	19.735	0.255273	-0.00377701	81318.9	741.91	1	12	0.0047479	0.000231729	0	-5.18928e-05	-2.23667e-05	5.008e-06	-2.60201	0.0216115	0.0215892	0.000981118	-5.47803	20.5106	20.4169	1.95803	0.0485835	0.00466186	0.0488067	5.48107	741910	7.73181e+06	7.76732e+06	-84.5189	0.0000000E+000	0.0000000E+000	0.0000000E+000	84.5189	0.0000000E+000	0.0000000E+000	0.0000000E+000	-84.5189	0.0000000E+000	0.0000000E+000	0.0000000E+000	-5.48107	0.0000000E+000	0.0000000E+000	0.0000000E+000	5.48107	10.4215	84.5189	-8.66892e-06	-9.6417e-07	8.44792e-11	-9.64255e-07	0.255295	67586	5.92178	67591.9
0.316193	21.2416	1.84158	21.3212	-4.95499	34.0787	0.255265	-0.00399057	273323	2039.08	1	12	0.00474721	0.000222652	0	-3.51187e-05	-4.14579e-05	2.2498e-06	-56.2045	0.0101046	0.00562047	0.00839719	-4.97616	21.3276	21.2472	1.84998	0.0467263	0.00405103	0.0469016	4.95499	2.03908e+06	2.35196e+07	2.36078e+07	-85.045	0.0000000E+000	0.0000000E+000	0.0000000E+000	85.045	0.0000000E+000	0.0000000E+000	0.0000000E+000	-85.045	0.0000000E+000	0.0000000E+000	0.0000000E+000	-4.95499	0.0000000E+000	0.0000000E+000	0.0000000E+000	4.95499	11.5344	85.045	1.23185e-05	-1.01865e-06	1.65441e-10	-1.01882e-06	0.255307	63967.1	10.389	63977.4
0.0999041	22.2357	3.17162	22.4607	-8.11771	79.2866	0.255265	-0.000302884	502292	10015.5	1	12	0.0047451	0.000211262	0	-6.48287e-05	-4.14579e-05	1.38959e-06	5.40727	0.00657756	0.00654829	-0.000619834	-8.11379	22.4671	22.2422	3.171	0.0440761	0.00628686	0.0445222	8.11771	1.00155e+07	7.02166e+07	7.09273e+07	-81.8823	0.0000000E+000	0.0000000E+000	0.0000000E+000	81.8823	0.0000000E+000	0.0000000E+000	0.0000000E+000	-81.8823	0.0000000E+000	0.0000000E+000	0.0000000E+000	-8.11771	0.0000000E+000	0.0000000E+000	0.0000000E+000	8.11771	7.01083	81.8823	-3.85553e-05	-7.73157e-08	1.25569e-11	-7.73283e-08	0.255306	842780	136.877	842916
0.0315922	24.3648	6.59395	25.2413	-15.1434	222.171	0.255266	-0.00255574	764002	52138.8	1	12	0.00474678	0.000188056	0	-0.000402207	-6.05491e-05	1.56995e-06	-27.2872	0.00834833	0.00741933	0.0038273	-15.1474	25.2495	24.3723	6.59778	0.0382418	0.0103495	0.0396175	15.1434	5.21388e+07	1.92654e+08	1.99585e+08	-74.8566	0.0000000E+000	0.0000000E+000	0.0000000E+000	74.8566	0.0000000E+000	0.0000000E+000	0.0000000E+000	-74.8566	0.0000000E+000	0.0000000E+000	0.0000000E+000	-15.1434	0.0000000E+000	0.0000000E+000	0.0000000E+000	15.1434	3.69503	74.8566	-0.000127794	-6.52393e-07	1.54748e-10	-6.52548e-07	0.255327	99879.6	23.6914	99903.3
0.0100092	28.2851	14.8689	31.9551	-27.7301	673.394	0.255266	-0.00161964	1.06941e+06	231537	1	12	0.00474575	0.000148513	0	9.89277e-05	-0.000251461	1.6621e-06	32.9381	0.0111916	0.00939263	-0.00608523	-27.7126	31.9606	28.2945	14.8628	0.0276998	0.0145612	0.0312939	27.7301	2.31537e+08	4.40452e+08	4.97601e+08	-62.2699	0.0000000E+000	0.0000000E+000	0.0000000E+000	62.2699	0.0000000E+000	0.0000000E+000	0.0000000E+000	-62.2699	0.0000000E+000	0.0000000E+000	0.0000000E+000	-27.7301	0.0000000E+000	0.0000000E+000	0.0000000E+000	27.7301	1.90229	62.2699	0.00034561	-4.1344e-07	4.07278e-10	-4.13847e-07	0.255518	157606	155.257	157762