File: txt/18828_R307_UA701_4p38_SOC00_C07.mpt
EC-Lab ASCII FILE
Nb header lines : 65

Potentio Electrochemical Impedance Spectroscopy

Run on channel : 7 (SN 66126)
User :
CE vs. WE compliance from -10 V to 10 V
Electrode connection : standard
Potential control : Ewe
Ewe ctrl range : min = -10.00 V, max = 10.00 V
Safety Limits :
	Do not start on E overload
Acquisition started on : 11/03/2025 17:11:21.085
Technique started on : 11/03/2025 17:11:23.140
Loaded Setting File :  C:\Users\Celltest\OneDrive - store-dot.com\Documents\EC-Lab\Data\@Biologic Test Protocols\anode half cell EIS SOC00.mps
Saved on :
	File : 18828_R307_UA701_4p38_SOC00_C07.mpr
	Directory : C:\Users\Celltest\OneDrive - store-dot.com\Documents\EC-Lab\Data\Anna\
	Host : 169.254.61.224
Device : VMP-3e (SN .003165)
Address : USB
EC-LAB for windows v11.62 (software)
Internet server v27.00 (firmware)
Command interpretor v12.03 (firmware)
Electrode material :
Initial state :
Electrolyte :
Comments :
Electrode surface area : 0.001 cm²
Characteristic mass : 0.001 g
Equivalent Weight : 0.000 g/eq.
Density : 0.000 g/cm3
Volume (V) : 0.001 cm³
Record Ece
Cycle Definition : Charge/Discharge alternance
Mode                Single sine
E (V)               0.0000
vs.                 Eoc
tE (h:m:s)          0:00:0.0000
record              0
dI                  0.000
unit dI             mA
dt (s)              0.000
fi                  100.000
unit fi             kHz
ff                  10.000
unit ff             mHz
Nd                  6
Points              per decade
spacing             Logarithmic
Va (mV)             5.0
pw                  0.10
Na                  2
corr                0
E range min (V)     -10.000
E range max (V)     10.000
I Range             Auto
Bandwidth           5
nc cycles           0
goto Ns'            0
nr cycles           0
inc. cycle          0

freq/Hz	Re(Z)/Ohm	-Im(Z)/Ohm	|Z|/Ohm	Phase(Z)/deg	time/s	<Ewe>/V	<I>/mA	Cs/µF	Cp/µF	cycle number	I Range	|Ewe|/V	|I|/A	Ns	(Q-Qo)/mA.h	<Ece>/V	|Ece|/V	Phase(Zce)/deg	|Zce|/Ohm	Re(Zce)/Ohm	-Im(Zce)/Ohm	Phase(Zwe-ce)/deg	|Zwe-ce|/Ohm	Re(Zwe-ce)/Ohm	-Im(Zwe-ce)/Ohm	Re(Y)/Ohm-1	Im(Y)/Ohm-1	|Y|/Ohm-1	Phase(Y)/deg	Re(C)/nF	Im(C)/nF	|C|/nF	Phase(C)/deg	Re(M)	Im(M)	|M|	Phase(M)/deg	Re(Permittivity)	Im(Permittivity)	|Permittivity|	Phase(Permittivity)/deg	Re(Resistivity)/Ohm.cm	Im(Resistivity)/Ohm.cm	|Resistivity|/Ohm.cm	Phase(Resistivity)/deg	Re(Conductivity)/mS/cm	Im(Conductivity)/mS/cm	|Conductivity|/mS/cm	Phase(Conductivity)/deg	Tan(Delta)	Loss Angle(Delta)/deg	dq/mA.h	Pwe/W	Pce/W	Pwe-ce/W	<Ewe-Ece>/V	Rwe/Ohm	Rce/Ohm	Rwe-ce/Ohm		Ewe-Ece/V
100004	1.22894	0.472784	1.31675	-21.0421	2.05456	0.256459	0.0670695	3.36621	0.433972	1	9	0.0049267	0.00374157	0	7.07025e-06	-0.000345672	5.35444e-05	70.28	0.0143107	0.00482876	-0.0134714	-20.4195	1.3165	1.23377	0.459312	0.708805	0.272683	0.759447	21.0421	433.972	1128.06	1208.65	-68.9579	0.0000000E+000	0.0000000E+000	0.0000000E+000	68.9579	0.0000000E+000	0.0000000E+000	0.0000000E+000	-68.9579	0.0000000E+000	0.0000000E+000	0.0000000E+000	-21.0421	0.0000000E+000	0.0000000E+000	0.0000000E+000	21.0421	2.59938	68.9579	7.07025e-06	1.72006e-05	-2.3184e-08	1.72238e-05	0.256805	3823.78	5.15393	3828.93
31621.1	1.65115	0.669719	1.7818	-22.0778	3.20552	0.256466	0.0655428	7.51536	1.06173	1	9	0.00538709	0.00302339	0	2.10728e-05	1.67614e-05	1.61018e-05	55.7259	0.00532575	0.00299921	-0.00440095	-21.9105	1.78294	1.65415	0.665318	0.520077	0.210947	0.561229	22.0778	1061.73	2617.64	2824.77	-67.9222	0.0000000E+000	0.0000000E+000	0.0000000E+000	67.9222	0.0000000E+000	0.0000000E+000	0.0000000E+000	-67.9222	0.0000000E+000	0.0000000E+000	0.0000000E+000	-22.0778	0.0000000E+000	0.0000000E+000	0.0000000E+000	22.0778	2.46544	67.9222	5.38164e-06	1.68095e-05	1.09859e-09	1.68084e-05	0.256449	3912.95	0.255732	3912.7
10002.2	2.17368	0.875604	2.34341	-21.9406	4.35454	0.256496	0.0672184	18.1726	2.53709	1	9	0.00526337	0.00224604	0	3.78117e-05	-0.000364747	3.6193e-06	28.2317	0.00161142	0.00141973	-0.000762261	-21.9104	2.34444	2.1751	0.874841	0.395822	0.159446	0.426729	21.9406	2537.09	6298.3	6790.1	-68.0594	0.0000000E+000	0.0000000E+000	0.0000000E+000	68.0594	0.0000000E+000	0.0000000E+000	0.0000000E+000	-68.0594	0.0000000E+000	0.0000000E+000	0.0000000E+000	-21.9406	0.0000000E+000	0.0000000E+000	0.0000000E+000	21.9406	2.48249	68.0594	4.12036e-06	1.72413e-05	-2.45177e-08	1.72658e-05	0.256861	3815.86	5.4263	3821.29
3163.08	2.83431	1.2345	3.09149	-23.5357	5.37667	0.256416	0.0365359	40.7587	6.49928	1	9	0.0054432	0.00176071	0	5.41021e-05	-9.76912e-05	8.36308e-06	-165.147	0.00474984	-0.00459113	0.00121761	-23.5905	3.08776	2.82972	1.23571	0.29656	0.129168	0.323469	23.5357	6499.27	14921.8	16275.8	-66.4643	0.0000000E+000	0.0000000E+000	0.0000000E+000	66.4643	0.0000000E+000	0.0000000E+000	0.0000000E+000	-66.4643	0.0000000E+000	0.0000000E+000	0.0000000E+000	-23.5357	0.0000000E+000	0.0000000E+000	0.0000000E+000	23.5357	2.29593	66.4643	4.67893e-06	9.36838e-06	-3.56923e-09	9.37195e-06	0.256514	7018.2	2.67384	7020.87
1000.32	3.77719	1.88818	4.22284	-26.5599	6.9748	0.25643	-0.0071246	84.2634	16.8467	1	10	0.00530893	0.00125719	0	5.81703e-05	-0.000441049	7.31427e-06	-14.287	0.00581794	0.005638	0.00143575	-26.5432	4.22853	3.78283	1.88961	0.211816	0.105885	0.236807	26.5599	16846.7	33700.8	37677	-63.4401	0.0000000E+000	0.0000000E+000	0.0000000E+000	63.4401	0.0000000E+000	0.0000000E+000	0.0000000E+000	-63.4401	0.0000000E+000	0.0000000E+000	0.0000000E+000	-26.5599	0.0000000E+000	0.0000000E+000	0.0000000E+000	26.5599	2.00045	63.4401	-1.49435e-06	-1.82696e-06	3.1423e-09	-1.8301e-06	0.256871	35992.1	61.905	36054
316.316	5.27313	3.16546	6.15029	-30.9764	8.32506	0.256425	-0.00814092	158.951	42.1061	1	10	0.00515179	0.000837649	0	5.65076e-05	-0.000173993	5.84596e-06	-111.711	0.00697901	-0.0025817	0.00648393	-31.0406	6.15142	5.27055	3.17195	0.139405	0.0836847	0.162594	30.9764	42106.1	70141.7	81809.5	-59.0236	0.0000000E+000	0.0000000E+000	0.0000000E+000	59.0236	0.0000000E+000	0.0000000E+000	0.0000000E+000	-59.0236	0.0000000E+000	0.0000000E+000	0.0000000E+000	-30.9764	0.0000000E+000	0.0000000E+000	0.0000000E+000	30.9764	1.66583	59.0236	-2.97603e-07	-2.08754e-06	1.41646e-09	-2.08896e-06	0.256599	31498.3	21.3726	31519.7
100.032	8.46958	4.88278	9.77626	-29.9638	9.67285	0.256425	-0.007482	325.847	81.2835	1	10	0.00511041	0.000522736	0	5.37002e-05	1.67614e-05	4.56161e-06	39.2609	0.00872641	0.00675662	-0.00552253	-29.916	9.77936	8.47634	4.87726	0.0886168	0.0510883	0.102289	29.9638	81283.5	140993	162745	-60.0362	0.0000000E+000	0.0000000E+000	0.0000000E+000	60.0362	0.0000000E+000	0.0000000E+000	0.0000000E+000	-60.0362	0.0000000E+000	0.0000000E+000	0.0000000E+000	-29.9638	0.0000000E+000	0.0000000E+000	0.0000000E+000	29.9638	1.73458	60.0362	-4.3635e-07	-1.91857e-06	-1.25409e-10	-1.91845e-06	0.256408	34272.2	2.24022	34270
31.6296	13.0393	4.99197	13.9622	-20.9489	11.0015	0.256421	-0.0083308	1007.99	128.852	1	10	0.00510032	0.000365295	0	5.17486e-05	-0.000231219	6.89015e-06	-28.8995	0.0188619	0.016513	0.00911547	-20.9596	13.9809	13.0558	5.00109	0.0668878	0.0256074	0.071622	20.9489	128852	336569	360391	-69.0511	0.0000000E+000	0.0000000E+000	0.0000000E+000	69.0511	0.0000000E+000	0.0000000E+000	0.0000000E+000	-69.0511	0.0000000E+000	0.0000000E+000	0.0000000E+000	-20.9489	0.0000000E+000	0.0000000E+000	0.0000000E+000	20.9489	2.61205	69.0511	-2.85599e-07	-2.13619e-06	1.92624e-09	-2.13812e-06	0.256653	30779.9	27.7547	30807.7
10.0032	16.5303	3.74257	16.9487	-12.7571	12.5828	0.256445	-0.00459539	4251.19	207.291	1	11	0.00510175	0.000301012	0	5.05846e-05	-2.13895e-05	6.01946e-06	12.028	0.0199974	0.0195584	-0.00416725	-12.7288	16.9668	16.5498	3.7384	0.0575453	0.0130287	0.0590017	12.7571	207291	915568	938741	-77.2429	0.0000000E+000	0.0000000E+000	0.0000000E+000	77.2429	0.0000000E+000	0.0000000E+000	0.0000000E+000	-77.2429	0.0000000E+000	0.0000000E+000	0.0000000E+000	-12.7571	0.0000000E+000	0.0000000E+000	0.0000000E+000	12.7571	4.41682	77.2429	-6.36805e-07	-1.17846e-06	9.8293e-11	-1.17856e-06	0.256466	55804.8	4.65455	55809.4
3.1604	18.7353	2.59867	18.9147	-7.89679	14.0994	0.256455	-0.00329342	19378.9	365.79	1	11	0.00509955	0.000269609	0	5.21307e-05	-0.000212144	1.71829e-06	-23.6356	0.00637327	0.00583864	0.00255517	-7.90202	18.9208	18.7411	2.60122	0.0523677	0.00726363	0.0528691	7.89679	365790	2.6372e+06	2.66244e+06	-82.1032	0.0000000E+000	0.0000000E+000	0.0000000E+000	82.1032	0.0000000E+000	0.0000000E+000	0.0000000E+000	-82.1032	0.0000000E+000	0.0000000E+000	0.0000000E+000	-7.89679	0.0000000E+000	0.0000000E+000	0.0000000E+000	7.89679	7.20958	82.1032	5.63459e-07	-8.44614e-07	6.98679e-10	-8.45313e-07	0.256667	77868.7	64.4143	77933.1
1.00006	20.1118	1.84531	20.1962	-5.24236	19.7396	0.256465	-0.00304045	86243	719.98	1	12	0.00510525	0.000252782	0	3.49387e-05	-0.000231219	2.91269e-06	58.1142	0.0115225	0.00608654	-0.00978382	-5.21315	20.2014	20.1178	1.83552	0.0493071	0.00452406	0.0495142	5.24236	719980	7.84696e+06	7.87992e+06	-84.7576	0.0000000E+000	0.0000000E+000	0.0000000E+000	84.7576	0.0000000E+000	0.0000000E+000	0.0000000E+000	-84.7576	0.0000000E+000	0.0000000E+000	0.0000000E+000	-5.24236	0.0000000E+000	0.0000000E+000	0.0000000E+000	5.24236	10.8989	84.7576	-5.94209e-06	-7.79767e-07	7.03009e-10	-7.8047e-07	0.256696	84350.9	76.0477	84427
0.316193	20.9469	1.8398	21.0276	-5.01949	34.083	0.256459	-0.00273409	273588	2094.4	1	12	0.00510314	0.000242688	0	6.26116e-05	-2.31406e-06	2.36546e-06	8.04783	0.00974694	0.00965094	-0.00136457	-5.01349	21.0371	20.9566	1.83844	0.0473742	0.00416094	0.0475566	5.01949	2.0944e+06	2.38457e+07	2.39375e+07	-84.9805	0.0000000E+000	0.0000000E+000	0.0000000E+000	84.9805	0.0000000E+000	0.0000000E+000	0.0000000E+000	-84.9805	0.0000000E+000	0.0000000E+000	0.0000000E+000	-5.01949	0.0000000E+000	0.0000000E+000	0.0000000E+000	5.01949	11.3854	84.9805	1.45573e-05	-7.01183e-07	6.32684e-12	-7.01189e-07	0.256462	93800.6	0.846372	93801.5
0.0999041	21.9304	3.21461	22.1648	-8.33916	79.291	0.256472	0.000346695	495574	10424.1	1	12	0.00510321	0.00023024	0	5.81559e-06	-7.86157e-05	2.21776e-06	23.6251	0.0096324	0.00882508	-0.00386019	-8.32598	22.173	21.9393	3.21075	0.0446396	0.00654337	0.0451166	8.33916	1.04241e+07	7.11143e+07	7.18742e+07	-81.6608	0.0000000E+000	0.0000000E+000	0.0000000E+000	81.6608	0.0000000E+000	0.0000000E+000	0.0000000E+000	-81.6608	0.0000000E+000	0.0000000E+000	0.0000000E+000	-8.33916	0.0000000E+000	0.0000000E+000	0.0000000E+000	8.33916	6.82211	81.6608	-5.16323e-05	8.89177e-08	-2.72557e-11	8.8945e-08	0.256551	739763	226.758	739990
0.0315922	24.095	6.71004	25.0118	-15.5616	222.176	0.256463	-0.00291593	750785	54034.8	1	12	0.00510645	0.000204161	0	-0.000292572	-0.000154917	1.52199e-06	26.3312	0.00745484	0.00668136	-0.00330667	-15.5502	25.0174	24.1016	6.70673	0.0385155	0.0107259	0.0399811	15.5616	5.40348e+07	1.94033e+08	2.01416e+08	-74.4384	0.0000000E+000	0.0000000E+000	0.0000000E+000	74.4384	0.0000000E+000	0.0000000E+000	0.0000000E+000	-74.4384	0.0000000E+000	0.0000000E+000	0.0000000E+000	-15.5616	0.0000000E+000	0.0000000E+000	0.0000000E+000	15.5616	3.59089	74.4384	-8.46452e-05	-7.4783e-07	4.51729e-10	-7.48282e-07	0.256618	87952.4	53.1279	88005.5
0.0100092	28.1561	14.917	31.8635	-27.9145	673.4	0.256471	-0.00154996	1.06596e+06	233624	1	12	0.00510494	0.000160213	0	0.000366097	-0.000250295	2.42867e-06	18.9402	0.015159	0.0143383	-0.00492035	-27.8946	31.8739	28.1704	14.9121	0.0277323	0.0146925	0.0313839	27.9145	2.33624e+08	4.40968e+08	4.99032e+08	-62.0855	0.0000000E+000	0.0000000E+000	0.0000000E+000	62.0855	0.0000000E+000	0.0000000E+000	0.0000000E+000	-62.0855	0.0000000E+000	0.0000000E+000	0.0000000E+000	-27.9145	0.0000000E+000	0.0000000E+000	0.0000000E+000	27.9145	1.88752	62.0855	0.000343386	-3.97519e-07	3.87946e-10	-3.97907e-07	0.256721	165469	161.485	165631