File: txt/18820_R307_UA701_3p84_SOC00_C07.mpt
EC-Lab ASCII FILE
Nb header lines : 65

Potentio Electrochemical Impedance Spectroscopy

Run on channel : 7 (SN 66126)
User :
CE vs. WE compliance from -10 V to 10 V
Electrode connection : standard
Potential control : Ewe
Ewe ctrl range : min = -10.00 V, max = 10.00 V
Safety Limits :
	Do not start on E overload
Acquisition started on : 11/03/2025 16:09:20.167
Technique started on : 11/03/2025 16:09:22.078
Loaded Setting File :  C:\Users\Celltest\OneDrive - store-dot.com\Documents\EC-Lab\Data\@Biologic Test Protocols\anode half cell EIS SOC00.mps
Saved on :
	File : 18820_R307_UA701_3p84_SOC00_C07.mpr
	Directory : C:\Users\Celltest\OneDrive - store-dot.com\Documents\EC-Lab\Data\Anna\
	Host : 169.254.61.224
Device : VMP-3e (SN .003165)
Address : USB
EC-LAB for windows v11.62 (software)
Internet server v27.00 (firmware)
Command interpretor v12.03 (firmware)
Electrode material :
Initial state :
Electrolyte :
Comments :
Electrode surface area : 0.001 cm²
Characteristic mass : 0.001 g
Equivalent Weight : 0.000 g/eq.
Density : 0.000 g/cm3
Volume (V) : 0.001 cm³
Record Ece
Cycle Definition : Charge/Discharge alternance
Mode                Single sine
E (V)               0.0000
vs.                 Eoc
tE (h:m:s)          0:00:0.0000
record              0
dI                  0.000
unit dI             mA
dt (s)              0.000
fi                  100.000
unit fi             kHz
ff                  10.000
unit ff             mHz
Nd                  6
Points              per decade
spacing             Logarithmic
Va (mV)             5.0
pw                  0.10
Na                  2
corr                0
E range min (V)     -10.000
E range max (V)     10.000
I Range             Auto
Bandwidth           5
nc cycles           0
goto Ns'            0
nr cycles           0
inc. cycle          0

freq/Hz	Re(Z)/Ohm	-Im(Z)/Ohm	|Z|/Ohm	Phase(Z)/deg	time/s	<Ewe>/V	<I>/mA	Cs/µF	Cp/µF	cycle number	I Range	|Ewe|/V	|I|/A	Ns	(Q-Qo)/mA.h	<Ece>/V	|Ece|/V	Phase(Zce)/deg	|Zce|/Ohm	Re(Zce)/Ohm	-Im(Zce)/Ohm	Phase(Zwe-ce)/deg	|Zwe-ce|/Ohm	Re(Zwe-ce)/Ohm	-Im(Zwe-ce)/Ohm	Re(Y)/Ohm-1	Im(Y)/Ohm-1	|Y|/Ohm-1	Phase(Y)/deg	Re(C)/nF	Im(C)/nF	|C|/nF	Phase(C)/deg	Re(M)	Im(M)	|M|	Phase(M)/deg	Re(Permittivity)	Im(Permittivity)	|Permittivity|	Phase(Permittivity)/deg	Re(Resistivity)/Ohm.cm	Im(Resistivity)/Ohm.cm	|Resistivity|/Ohm.cm	Phase(Resistivity)/deg	Re(Conductivity)/mS/cm	Im(Conductivity)/mS/cm	|Conductivity|/mS/cm	Phase(Conductivity)/deg	Tan(Delta)	Loss Angle(Delta)/deg	dq/mA.h	Pwe/W	Pce/W	Pwe-ce/W	<Ewe-Ece>/V	Rwe/Ohm	Rce/Ohm	Rwe-ce/Ohm		Ewe-Ece/V
100004	1.10589	0.424861	1.1847	-21.0157	1.91055	0.250371	0.0472972	3.74591	0.481765	1	9	0.00453376	0.00382693	0	3.9134e-06	-0.000307521	4.54225e-05	92.9309	0.0118692	-0.000606899	-0.0118536	-20.4889	1.17993	1.10529	0.413007	0.78795	0.302713	0.844097	21.0157	481.765	1254.01	1343.37	-68.9843	0.0000000E+000	0.0000000E+000	0.0000000E+000	68.9843	0.0000000E+000	0.0000000E+000	0.0000000E+000	-68.9843	0.0000000E+000	0.0000000E+000	0.0000000E+000	-21.0157	0.0000000E+000	0.0000000E+000	0.0000000E+000	21.0157	2.60296	68.9843	3.9134e-06	1.18418e-05	-1.45449e-08	1.18564e-05	0.250679	5293.57	6.50189	5300.08
31621.1	1.46999	0.560494	1.57322	-20.8714	3.43156	0.250396	0.0522868	8.97991	1.13982	1	9	0.0050744	0.00322549	0	3.26482e-05	-7.86157e-05	1.38005e-05	31.1279	0.00427859	0.00366254	-0.00221182	-20.7488	1.57586	1.47365	0.558282	0.59393	0.226461	0.63564	20.8714	1139.82	2989.36	3199.29	-69.1286	0.0000000E+000	0.0000000E+000	0.0000000E+000	69.1286	0.0000000E+000	0.0000000E+000	0.0000000E+000	-69.1286	0.0000000E+000	0.0000000E+000	0.0000000E+000	-20.8714	0.0000000E+000	0.0000000E+000	0.0000000E+000	20.8714	2.62266	69.1286	8.98075e-06	1.30924e-05	-4.11056e-09	1.30965e-05	0.250475	4788.9	1.50355	4790.4
10002.2	1.89228	0.733833	2.02959	-21.1965	4.58652	0.250399	0.0441321	21.6834	2.83469	1	9	0.0049729	0.0024502	0	4.88152e-05	-0.000441049	1.28825e-05	-42.6911	0.00525775	0.00386455	0.00356499	-21.2507	2.03448	1.89614	0.737398	0.459377	0.178148	0.492711	21.1965	2834.69	7309.58	7839.99	-68.8035	0.0000000E+000	0.0000000E+000	0.0000000E+000	68.8035	0.0000000E+000	0.0000000E+000	0.0000000E+000	-68.8035	0.0000000E+000	0.0000000E+000	0.0000000E+000	-21.1965	0.0000000E+000	0.0000000E+000	0.0000000E+000	21.1965	2.57862	68.8035	5.26006e-06	1.10506e-05	-1.94644e-08	1.10701e-05	0.25084	5673.86	9.99384	5683.85
3163.08	2.44269	1.0512	2.65928	-23.2844	5.66268	0.250143	-0.0483251	47.8658	7.47942	1	9	0.00496242	0.00186608	0	4.65446e-05	-0.000288445	4.22726e-06	-57.7261	0.00226532	0.0012096	0.00191534	-23.312	2.66114	2.4439	1.05311	0.345415	0.148648	0.376042	23.2844	7479.42	17380.1	18921.1	-66.7156	0.0000000E+000	0.0000000E+000	0.0000000E+000	66.7156	0.0000000E+000	0.0000000E+000	0.0000000E+000	-66.7156	0.0000000E+000	0.0000000E+000	0.0000000E+000	-23.2844	0.0000000E+000	0.0000000E+000	0.0000000E+000	23.2844	2.32372	66.7156	-4.37925e-06	-1.20882e-05	1.39392e-08	-1.21021e-05	0.250432	5176.25	5.96885	5182.22
1000.32	3.22412	1.65604	3.62456	-27.1869	7.26078	0.250318	-0.020024	96.0748	20.0559	1	10	0.00498142	0.00137435	0	6.67365e-05	3.58368e-05	7.56141e-06	-76.9164	0.00550181	0.00124546	0.00535898	-27.2532	3.62812	3.22537	1.6614	0.245415	0.126055	0.275896	27.1869	20055.9	39046.5	43896.1	-62.8131	0.0000000E+000	0.0000000E+000	0.0000000E+000	62.8131	0.0000000E+000	0.0000000E+000	0.0000000E+000	-62.8131	0.0000000E+000	0.0000000E+000	0.0000000E+000	-27.1869	0.0000000E+000	0.0000000E+000	0.0000000E+000	27.1869	1.94688	62.8131	4.05874e-06	-5.01235e-06	-7.17594e-10	-5.01163e-06	0.250282	12500.9	1.7897	12499.1
316.316	4.60048	2.86778	5.42112	-31.9379	8.61208	0.250324	-0.0195512	175.45	49.0982	1	10	0.00488758	0.00090158	0	6.03242e-05	-0.000326596	8.99921e-06	73.4502	0.00998159	0.00284324	-0.00956808	-31.8362	5.41848	4.60333	2.85821	0.15654	0.0975813	0.184464	31.9379	49098.2	78763.3	92813.2	-58.0621	0.0000000E+000	0.0000000E+000	0.0000000E+000	58.0621	0.0000000E+000	0.0000000E+000	0.0000000E+000	-58.0621	0.0000000E+000	0.0000000E+000	0.0000000E+000	-31.9379	0.0000000E+000	0.0000000E+000	0.0000000E+000	31.9379	1.6042	58.0621	-1.73567e-06	-4.89412e-06	6.38534e-09	-4.90051e-06	0.25065	12803.5	16.7047	12820.2
100.032	7.59545	4.15362	8.65699	-28.6723	9.95782	0.250319	-0.0198453	383.049	88.1808	1	10	0.00486802	0.000562323	0	5.27872e-05	-0.000173993	8.25924e-06	26.7914	0.0146877	0.013111	-0.00662039	-28.5923	8.66533	7.60857	4.147	0.101349	0.0554234	0.115514	28.6723	88180.8	161250	183787	-61.3277	0.0000000E+000	0.0000000E+000	0.0000000E+000	61.3277	0.0000000E+000	0.0000000E+000	0.0000000E+000	-61.3277	0.0000000E+000	0.0000000E+000	0.0000000E+000	-28.6723	0.0000000E+000	0.0000000E+000	0.0000000E+000	28.6723	1.82864	61.3277	-2.18721e-06	-4.96765e-06	3.45294e-09	-4.9711e-06	0.250493	12613.5	8.76747	12622.3
31.6296	11.2606	3.89328	11.9146	-19.0725	11.2865	0.250312	-0.0240706	1292.44	138.001	1	10	0.00485962	0.000407871	0	4.63662e-05	1.67614e-05	3.67287e-06	9.19419	0.00900498	0.00888929	-0.00143882	-19.052	11.9225	11.2695	3.89184	0.0793232	0.0274256	0.0839306	19.0725	138001	399142	422325	-70.9275	0.0000000E+000	0.0000000E+000	0.0000000E+000	70.9275	0.0000000E+000	0.0000000E+000	0.0000000E+000	-70.9275	0.0000000E+000	0.0000000E+000	0.0000000E+000	-19.0725	0.0000000E+000	0.0000000E+000	0.0000000E+000	19.0725	2.89231	70.9275	-1.79301e-06	-6.02516e-06	-4.03456e-10	-6.02476e-06	0.250295	10399.1	0.696341	10398.4
10.0032	13.8488	2.84296	14.1376	-11.6009	12.8638	0.25036	-0.00613889	5596.41	226.309	1	11	0.00486542	0.000344148	0	4.01017e-05	7.39876e-05	1.08764e-05	135.461	0.0316039	-0.0225265	-0.0221666	-11.5311	14.1111	13.8263	2.8208	0.0692885	0.014224	0.0707335	11.6009	226309	1.10241e+06	1.1254e+06	-78.3991	0.0000000E+000	0.0000000E+000	0.0000000E+000	78.3991	0.0000000E+000	0.0000000E+000	0.0000000E+000	-78.3991	0.0000000E+000	0.0000000E+000	0.0000000E+000	-11.6009	0.0000000E+000	0.0000000E+000	0.0000000E+000	11.6009	4.87125	78.3991	-2.66987e-06	-1.53693e-06	-4.54202e-10	-1.53648e-06	0.250286	40782.6	12.0523	40770.6
3.1604	15.4766	1.9986	15.6051	-7.3583	14.3805	0.250372	-0.00512729	25197.2	413.307	1	11	0.00485813	0.000311317	0	3.78778e-05	-0.0004792	2.98174e-06	-25.5611	0.00957783	0.0086404	0.00413258	-7.36928	15.6142	15.4852	2.00274	0.063554	0.00820719	0.0640817	7.3583	413308	3.20052e+06	3.2271e+06	-82.6417	0.0000000E+000	0.0000000E+000	0.0000000E+000	82.6417	0.0000000E+000	0.0000000E+000	0.0000000E+000	-82.6417	0.0000000E+000	0.0000000E+000	0.0000000E+000	-7.3583	0.0000000E+000	0.0000000E+000	0.0000000E+000	7.3583	7.74369	82.6417	2.71654e-06	-1.28373e-06	2.45699e-09	-1.28619e-06	0.250851	48831.3	93.4607	48924.7
1.00006	16.5249	1.46982	16.5901	-5.08286	20.0199	0.25037	-0.00314874	108275	849.884	1	12	0.00485835	0.000292846	0	2.86872e-05	-0.000383823	4.09128e-06	22.1239	0.0139708	0.0129421	-0.00526154	-5.06082	16.6025	16.5378	1.46456	0.0600399	0.00534032	0.0602769	5.08286	849884	9.55504e+06	9.59276e+06	-84.9171	0.0000000E+000	0.0000000E+000	0.0000000E+000	84.9171	0.0000000E+000	0.0000000E+000	0.0000000E+000	-84.9171	0.0000000E+000	0.0000000E+000	0.0000000E+000	-5.08286	0.0000000E+000	0.0000000E+000	0.0000000E+000	5.08286	11.2428	84.9171	-1.10155e-05	-7.88351e-07	1.20856e-09	-7.89559e-07	0.250754	79514.2	121.897	79636.1
0.316193	17.2606	1.63678	17.338	-5.41703	34.3629	0.250368	-0.00548878	307522	2740.69	1	12	0.00486214	0.000280432	0	-3.56424e-06	-0.000154917	1.42676e-06	76.8955	0.00508773	0.00115353	-0.00495524	-5.40037	17.3387	17.2618	1.63183	0.0574191	0.00544492	0.0576766	5.41703	2.74069e+06	2.89017e+07	2.90314e+07	-84.583	0.0000000E+000	0.0000000E+000	0.0000000E+000	84.583	0.0000000E+000	0.0000000E+000	0.0000000E+000	-84.583	0.0000000E+000	0.0000000E+000	0.0000000E+000	-5.41703	0.0000000E+000	0.0000000E+000	0.0000000E+000	5.41703	10.5454	84.583	-3.53479e-06	-1.37422e-06	8.50307e-10	-1.37507e-06	0.250523	45614.6	28.2244	45642.8
0.0999041	18.2632	2.92748	18.4964	-9.10667	79.571	0.250375	-0.00199488	544181	13631.9	1	12	0.00486025	0.000262768	0	8.93866e-05	-0.000173993	1.68272e-06	7.07094	0.00640382	0.00635512	-0.000788299	-9.10115	18.5025	18.2696	2.92669	0.0533832	0.00855698	0.0540647	9.10667	1.36319e+07	8.50436e+07	8.61292e+07	-80.8933	0.0000000E+000	0.0000000E+000	0.0000000E+000	80.8933	0.0000000E+000	0.0000000E+000	0.0000000E+000	-80.8933	0.0000000E+000	0.0000000E+000	0.0000000E+000	-9.10667	0.0000000E+000	0.0000000E+000	0.0000000E+000	9.10667	6.23856	80.8933	4.16945e-05	-4.99467e-07	3.47094e-10	-4.99814e-07	0.250549	125509	87.2198	125596
0.0315922	20.1789	6.39236	21.1672	-17.5773	222.455	0.250377	-0.00125299	788096	71874.1	1	12	0.00485982	0.000229592	0	-0.000186965	-0.000250295	1.91766e-06	6.89819	0.0083525	0.00829204	-0.00100318	-17.568	21.1748	20.1872	6.39135	0.0450371	0.014267	0.0472428	17.5773	7.18741e+07	2.26887e+08	2.37999e+08	-72.4227	0.0000000E+000	0.0000000E+000	0.0000000E+000	72.4227	0.0000000E+000	0.0000000E+000	0.0000000E+000	-72.4227	0.0000000E+000	0.0000000E+000	0.0000000E+000	-17.5773	0.0000000E+000	0.0000000E+000	0.0000000E+000	17.5773	3.15673	72.4227	-0.000217194	-3.13719e-07	3.13615e-10	-3.14033e-07	0.250627	199824	199.759	200024
0.0100092	24.4097	14.7406	28.5152	-31.1272	673.678	0.250378	-0.00313674	1.07871e+06	288260	1	12	0.00485913	0.000170405	0	-0.000870323	-0.000193068	1.76411e-06	37.6081	0.0103525	0.00820127	-0.00631767	-31.1078	28.519	24.4179	14.7343	0.0300198	0.0181285	0.035069	31.1272	2.8826e+08	4.77343e+08	5.57629e+08	-58.8728	0.0000000E+000	0.0000000E+000	0.0000000E+000	58.8728	0.0000000E+000	0.0000000E+000	0.0000000E+000	-58.8728	0.0000000E+000	0.0000000E+000	0.0000000E+000	-31.1272	0.0000000E+000	0.0000000E+000	0.0000000E+000	31.1272	1.65594	58.8728	-5.00716e-05	-7.85372e-07	6.05606e-10	-7.85977e-07	0.250571	79821	61.5505	79882.5