File: txt/18824_R307_UA701_4p38_SOC00_C03.mpt
EC-Lab ASCII FILE
Nb header lines : 65

Potentio Electrochemical Impedance Spectroscopy

Run on channel : 3 (SN 65921)
User :
CE vs. WE compliance from -10 V to 10 V
Electrode connection : standard
Potential control : Ewe
Ewe ctrl range : min = -10.00 V, max = 10.00 V
Safety Limits :
	Do not start on E overload
Acquisition started on : 11/03/2025 17:10:54.406
Technique started on : 11/03/2025 17:10:56.275
Loaded Setting File :  C:\Users\Celltest\OneDrive - store-dot.com\Documents\EC-Lab\Data\@Biologic Test Protocols\anode half cell EIS SOC00.mps
Saved on :
	File : 18824_R307_UA701_4p38_SOC00_C03.mpr
	Directory : C:\Users\Celltest\OneDrive - store-dot.com\Documents\EC-Lab\Data\Anna\
	Host : 169.254.61.224
Device : VMP-3e (SN .003165)
Address : USB
EC-LAB for windows v11.62 (software)
Internet server v27.00 (firmware)
Command interpretor v12.03 (firmware)
Electrode material :
Initial state :
Electrolyte :
Comments :
Electrode surface area : 0.001 cm²
Characteristic mass : 0.001 g
Equivalent Weight : 0.000 g/eq.
Density : 0.000 g/cm3
Volume (V) : 0.001 cm³
Record Ece
Cycle Definition : Charge/Discharge alternance
Mode                Single sine
E (V)               0.0000
vs.                 Eoc
tE (h:m:s)          0:00:0.0000
record              0
dI                  0.000
unit dI             mA
dt (s)              0.000
fi                  100.000
unit fi             kHz
ff                  10.000
unit ff             mHz
Nd                  6
Points              per decade
spacing             Logarithmic
Va (mV)             5.0
pw                  0.10
Na                  2
corr                0
E range min (V)     -10.000
E range max (V)     10.000
I Range             Auto
Bandwidth           5
nc cycles           0
goto Ns'            0
nr cycles           0
inc. cycle          0

freq/Hz	Re(Z)/Ohm	-Im(Z)/Ohm	|Z|/Ohm	Phase(Z)/deg	time/s	<Ewe>/V	<I>/mA	Cs/µF	Cp/µF	cycle number	I Range	|Ewe|/V	|I|/A	Ns	(Q-Qo)/mA.h	<Ece>/V	|Ece|/V	Phase(Zce)/deg	|Zce|/Ohm	Re(Zce)/Ohm	-Im(Zce)/Ohm	Phase(Zwe-ce)/deg	|Zwe-ce|/Ohm	Re(Zwe-ce)/Ohm	-Im(Zwe-ce)/Ohm	Re(Y)/Ohm-1	Im(Y)/Ohm-1	|Y|/Ohm-1	Phase(Y)/deg	Re(C)/nF	Im(C)/nF	|C|/nF	Phase(C)/deg	Re(M)	Im(M)	|M|	Phase(M)/deg	Re(Permittivity)	Im(Permittivity)	|Permittivity|	Phase(Permittivity)/deg	Re(Resistivity)/Ohm.cm	Im(Resistivity)/Ohm.cm	|Resistivity|/Ohm.cm	Phase(Resistivity)/deg	Re(Conductivity)/mS/cm	Im(Conductivity)/mS/cm	|Conductivity|/mS/cm	Phase(Conductivity)/deg	Tan(Delta)	Loss Angle(Delta)/deg	dq/mA.h	Pwe/W	Pce/W	Pwe-ce/W	<Ewe-Ece>/V	Rwe/Ohm	Rce/Ohm	Rwe-ce/Ohm		Ewe-Ece/V
100004	1.48841	0.539925	1.58332	-19.9383	1.86852	0.249973	0.0316559	2.94761	0.342768	1	9	0.00490167	0.00309582	0	-8.34769e-06	-0.000137797	2.77307e-05	59.875	0.00895746	0.00449564	-0.0077476	-19.6196	1.58493	1.49291	0.532177	0.593728	0.215376	0.631585	19.9383	342.768	944.912	1005.16	-70.0617	0.0000000E+000	0.0000000E+000	0.0000000E+000	70.0617	0.0000000E+000	0.0000000E+000	0.0000000E+000	-70.0617	0.0000000E+000	0.0000000E+000	0.0000000E+000	-19.9383	0.0000000E+000	0.0000000E+000	0.0000000E+000	19.9383	2.75671	70.0617	-8.34769e-06	7.91312e-06	-4.36209e-09	7.91749e-06	0.250111	7896.59	4.35298	7900.95
31621.1	1.99508	0.754131	2.13286	-20.7063	3.01756	0.249958	0.0216239	6.67415	0.834385	1	9	0.00532742	0.00249779	0	6.51545e-06	0.000186802	1.64063e-05	51.6086	0.00656831	0.00407912	-0.00514816	-20.5384	2.13486	1.99916	0.748983	0.438569	0.165777	0.468855	20.7063	834.384	2207.4	2359.83	-69.2937	0.0000000E+000	0.0000000E+000	0.0000000E+000	69.2937	0.0000000E+000	0.0000000E+000	0.0000000E+000	-69.2937	0.0000000E+000	0.0000000E+000	0.0000000E+000	-20.7063	0.0000000E+000	0.0000000E+000	0.0000000E+000	20.7063	2.64554	69.2937	-2.58087e-06	5.40507e-06	4.03938e-09	5.40103e-06	0.249772	11559.4	8.63869	11550.7
10002.2	2.5758	0.948255	2.7448	-20.2107	4.16655	0.249979	0.0249803	16.7803	2.00276	1	9	0.00532477	0.00193995	0	2.38317e-05	0.000263178	7.82532e-06	-54.8032	0.00403377	0.00232501	0.0032963	-20.2585	2.74812	2.57812	0.951551	0.341894	0.125865	0.364326	20.2107	2002.76	5440.19	5797.13	-69.7893	0.0000000E+000	0.0000000E+000	0.0000000E+000	69.7893	0.0000000E+000	0.0000000E+000	0.0000000E+000	-69.7893	0.0000000E+000	0.0000000E+000	0.0000000E+000	-20.2107	0.0000000E+000	0.0000000E+000	0.0000000E+000	20.2107	2.71635	69.7893	-5.50194e-07	6.24453e-06	6.57426e-09	6.23796e-06	0.249716	10007	10.5354	9996.51
3163.08	3.28745	1.29177	3.53214	-21.4518	5.31567	0.249911	0.00864566	38.9515	5.20978	1	9	0.00512779	0.00145175	0	3.37945e-05	7.22374e-05	8.58446e-06	-100.766	0.00591317	-0.0011046	0.00580908	-21.5461	3.53324	3.28635	1.29758	0.263502	0.10354	0.283114	21.4518	5209.78	13258.5	14245.3	-68.5482	0.0000000E+000	0.0000000E+000	0.0000000E+000	68.5482	0.0000000E+000	0.0000000E+000	0.0000000E+000	-68.5482	0.0000000E+000	0.0000000E+000	0.0000000E+000	-21.4518	0.0000000E+000	0.0000000E+000	0.0000000E+000	21.4518	2.54492	68.5482	1.87512e-08	2.16065e-06	6.2454e-10	2.16002e-06	0.249839	28905.9	8.35534	28897.6
1000.32	4.24976	1.89348	4.6525	-24.0153	6.91377	0.249949	-0.0143195	84.0274	13.9177	1	10	0.00500356	0.00107546	0	3.05001e-05	-0.000175985	1.25125e-05	41.8069	0.0116346	0.00867238	-0.00775588	-23.8847	4.65727	4.25843	1.88572	0.196333	0.0874758	0.214938	24.0153	13917.7	31237.3	34197.5	-65.9847	0.0000000E+000	0.0000000E+000	0.0000000E+000	65.9847	0.0000000E+000	0.0000000E+000	0.0000000E+000	-65.9847	0.0000000E+000	0.0000000E+000	0.0000000E+000	-24.0153	0.0000000E+000	0.0000000E+000	0.0000000E+000	24.0153	2.24442	65.9847	-9.86029e-07	-3.57915e-06	2.52003e-09	-3.58167e-06	0.250125	17455.1	12.2899	17467.4
316.316	5.74519	3.03819	6.49906	-27.8709	8.26407	0.249939	-0.014409	165.609	36.192	1	10	0.00487746	0.000750487	0	2.4433e-05	-6.1421e-05	1.0575e-05	-42.7544	0.0140908	0.0103465	0.00956565	-27.9028	6.51268	5.75554	3.04776	0.13602	0.0719306	0.153868	27.8709	36192	68438.7	77419.1	-62.1291	0.0000000E+000	0.0000000E+000	0.0000000E+000	62.1291	0.0000000E+000	0.0000000E+000	0.0000000E+000	-62.1291	0.0000000E+000	0.0000000E+000	0.0000000E+000	-27.8709	0.0000000E+000	0.0000000E+000	0.0000000E+000	27.8709	1.89099	62.1291	-2.27087e-06	-3.60137e-06	8.85017e-10	-3.60226e-06	0.25	17346	4.26267	17350.2
100.032	8.76429	4.56329	9.88111	-27.5046	9.61185	0.249936	-0.0135626	348.661	74.3614	1	10	0.00485579	0.000491422	0	1.94471e-05	-9.96091e-05	5.90976e-06	-4.50221	0.0120258	0.0119887	0.000943998	-27.4773	9.89218	8.77628	4.56423	0.0897646	0.0467376	0.101203	27.5046	74361.4	142819	161018	-62.4954	0.0000000E+000	0.0000000E+000	0.0000000E+000	62.4954	0.0000000E+000	0.0000000E+000	0.0000000E+000	-62.4954	0.0000000E+000	0.0000000E+000	0.0000000E+000	-27.5046	0.0000000E+000	0.0000000E+000	0.0000000E+000	27.5046	1.92061	62.4954	-2.04199e-06	-3.38978e-06	1.35096e-09	-3.39113e-06	0.250036	18428.4	7.34441	18435.7
31.6296	13.005	4.66763	13.8173	-19.7435	10.9416	0.249933	-0.0152816	1078.03	123.02	1	10	0.00483853	0.000350179	0	1.40858e-05	-0.000195079	4.08852e-06	62.0344	0.0116755	0.00547514	-0.0103121	-19.6956	13.819	13.0105	4.65731	0.0681186	0.0244484	0.0723731	19.7435	123020	342762	364170	-70.2565	0.0000000E+000	0.0000000E+000	0.0000000E+000	70.2565	0.0000000E+000	0.0000000E+000	0.0000000E+000	-70.2565	0.0000000E+000	0.0000000E+000	0.0000000E+000	-19.7435	0.0000000E+000	0.0000000E+000	0.0000000E+000	19.7435	2.78622	70.2565	-2.11516e-06	-3.81937e-06	2.98113e-09	-3.82235e-06	0.250128	16355.1	12.7656	16367.9
10.0032	16.2294	3.50667	16.604	-12.1924	12.5228	0.249961	-0.010501	4537.18	202.373	1	11	0.00484177	0.000291603	0	7.53772e-06	-0.000195079	5.96482e-06	0.544298	0.0204552	0.0204543	-0.000194318	-12.1768	16.6239	16.2499	3.50648	0.0588681	0.0127195	0.0602266	12.1924	202373	936615	958229	-77.8076	0.0000000E+000	0.0000000E+000	0.0000000E+000	77.8076	0.0000000E+000	0.0000000E+000	0.0000000E+000	-77.8076	0.0000000E+000	0.0000000E+000	0.0000000E+000	-12.1924	0.0000000E+000	0.0000000E+000	0.0000000E+000	12.1924	4.62816	77.8076	-1.67189e-07	-2.62483e-06	2.04853e-09	-2.62688e-06	0.250156	23803.6	18.5773	23822.1
3.1604	18.3676	2.47348	18.5334	-7.66961	14.0395	0.24996	-0.0100041	20359.7	362.64	1	11	0.0048523	0.000261814	0	1.03201e-06	-0.000156891	4.67011e-06	-5.2198	0.0178375	0.0177636	0.0016228	-7.66725	18.5512	18.3854	2.4751	0.053474	0.00720108	0.0539567	7.66961	362641	2.6929e+06	2.71721e+06	-82.3304	0.0000000E+000	0.0000000E+000	0.0000000E+000	82.3304	0.0000000E+000	0.0000000E+000	0.0000000E+000	-82.3304	0.0000000E+000	0.0000000E+000	0.0000000E+000	-7.66961	0.0000000E+000	0.0000000E+000	0.0000000E+000	7.66961	7.42583	82.3304	-1.32594e-06	-2.50063e-06	1.56955e-09	-2.50219e-06	0.250117	24985.8	15.6827	25001.5
1.00006	19.6334	1.74211	19.7105	-5.0707	19.6798	0.249965	-0.00771163	91351.6	713.63	1	12	0.00484687	0.000245903	0	-3.81665e-06	-4.13882e-06	2.11405e-06	-88.2217	0.00859709	0.000266786	0.00859295	-5.09551	19.7115	19.6336	1.75071	0.0505358	0.00448416	0.0507344	5.0707	713630	8.04251e+06	8.07411e+06	-84.9293	0.0000000E+000	0.0000000E+000	0.0000000E+000	84.9293	0.0000000E+000	0.0000000E+000	0.0000000E+000	-84.9293	0.0000000E+000	0.0000000E+000	0.0000000E+000	-5.0707	0.0000000E+000	0.0000000E+000	0.0000000E+000	5.0707	11.2699	84.9293	-7.60525e-06	-1.92763e-06	3.1917e-11	-1.92766e-06	0.249969	32414	0.536698	32414.5
0.316193	20.4557	1.69799	20.526	-4.74515	34.0228	0.249967	-0.00670146	296437	2028.59	1	12	0.00484869	0.000236222	0	-6.64792e-05	-0.000309644	1.62906e-06	-8.17651	0.00689631	0.0068262	0.000980815	-4.74631	20.5329	20.4625	1.69897	0.0485517	0.0040302	0.0487187	4.74515	2.02859e+06	2.44384e+07	2.45224e+07	-85.2548	0.0000000E+000	0.0000000E+000	0.0000000E+000	85.2548	0.0000000E+000	0.0000000E+000	0.0000000E+000	-85.2548	0.0000000E+000	0.0000000E+000	0.0000000E+000	-4.74515	0.0000000E+000	0.0000000E+000	0.0000000E+000	4.74515	12.047	85.2548	-2.49624e-05	-1.67514e-06	2.07507e-09	-1.67722e-06	0.250277	37300.3	46.2054	37346.5
0.0999041	21.3322	2.9842	21.5399	-7.96352	79.2304	0.249956	-0.00514996	533838	10246.5	1	12	0.00485074	0.000225197	0	-4.85672e-05	-2.32329e-05	1.42168e-06	-8.23301	0.00631305	0.00624799	0.000904024	-7.96359	21.5463	21.3385	2.9851	0.0459777	0.00643189	0.0464254	7.96352	1.02465e+07	7.3246e+07	7.39592e+07	-82.0365	0.0000000E+000	0.0000000E+000	0.0000000E+000	82.0365	0.0000000E+000	0.0000000E+000	0.0000000E+000	-82.0365	0.0000000E+000	0.0000000E+000	0.0000000E+000	-7.96352	0.0000000E+000	0.0000000E+000	0.0000000E+000	7.96352	7.14839	82.0365	3.08057e-05	-1.28726e-06	1.19648e-10	-1.28738e-06	0.249979	48535.5	4.51127	48540
0.0315922	23.323	6.37234	24.1779	-15.2814	222.112	0.249954	-0.000904725	790572	54916.5	1	12	0.00484948	0.000200575	0	-4.18652e-05	0.00012952	3.51317e-06	22.2557	0.0175155	0.0162107	-0.00663382	-15.2562	24.1918	23.3392	6.3657	0.0398978	0.0109009	0.0413601	15.2814	5.49165e+07	2.00997e+08	2.08364e+08	-74.7186	0.0000000E+000	0.0000000E+000	0.0000000E+000	74.7186	0.0000000E+000	0.0000000E+000	0.0000000E+000	-74.7186	0.0000000E+000	0.0000000E+000	0.0000000E+000	-15.2814	0.0000000E+000	0.0000000E+000	0.0000000E+000	15.2814	3.66004	74.7186	-6.91052e-05	-2.2614e-07	-1.1718e-10	-2.26023e-07	0.249824	276276	143.159	276133
0.0100092	27.2946	14.3071	30.817	-27.6623	673.334	0.249957	-0.00217867	1.1114e+06	239548	1	12	0.00484845	0.000157331	0	-0.00112865	-6.1421e-05	2.47284e-06	-10.3219	0.0157175	0.0154631	0.00281623	-27.6536	30.832	27.31	14.3099	0.0287406	0.0150651	0.0324497	27.6623	2.39548e+08	4.57002e+08	5.15979e+08	-62.3377	0.0000000E+000	0.0000000E+000	0.0000000E+000	62.3377	0.0000000E+000	0.0000000E+000	0.0000000E+000	-62.3377	0.0000000E+000	0.0000000E+000	0.0000000E+000	-27.6623	0.0000000E+000	0.0000000E+000	0.0000000E+000	27.6623	1.90777	62.3377	-0.000422027	-5.44574e-07	1.33816e-10	-5.44708e-07	0.250019	114730	28.192	114758