File: txt/18938_R306_UA703_SOC00_C05.mpt
EC-Lab ASCII FILE
Nb header lines : 65

Potentio Electrochemical Impedance Spectroscopy

Run on channel : 5 (SN 65912)
Grouped channel(s) : 1, 2, 3, 4, 5
User :
CE vs. WE compliance from -10 V to 10 V
Electrode connection : standard
Potential control : Ewe
Ewe ctrl range : min = -10.00 V, max = 10.00 V
Safety Limits :
	Do not start on E overload
Acquisition started on : 11/04/2025 15:05:27.163
Loaded Setting File :  C:\Users\Celltest\OneDrive - store-dot.com\Documents\EC-Lab\Data\@Biologic Test Protocols\anode half cell EIS SOC00.mps
Saved on :
	File : 18934_R306_UA703_SOC00_C05.mpr
	Directory : C:\Users\Celltest\OneDrive - store-dot.com\Documents\EC-Lab\Data\Charmaine\
	Host : 169.254.61.224
Device : VMP-3e (SN .003165)
Address : USB
EC-LAB for windows v11.62 (software)
Internet server v27.00 (firmware)
Command interpretor v12.03 (firmware)
Electrode material :
Initial state :
Electrolyte :
Comments :
Electrode surface area : 0.001 cm²
Characteristic mass : 0.001 g
Equivalent Weight : 0.000 g/eq.
Density : 0.000 g/cm3
Volume (V) : 0.001 cm³
Record Ece
Cycle Definition : Charge/Discharge alternance
Mode                Single sine
E (V)               0.0000
vs.                 Eoc
tE (h:m:s)          0:00:0.0000
record              0
dI                  0.000
unit dI             mA
dt (s)              0.000
fi                  100.000
unit fi             kHz
ff                  10.000
unit ff             mHz
Nd                  6
Points              per decade
spacing             Logarithmic
Va (mV)             5.0
pw                  0.10
Na                  2
corr                0
E range min (V)     -10.000
E range max (V)     10.000
I Range             Auto
Bandwidth           5
nc cycles           0
goto Ns'            0
nr cycles           0
inc. cycle          0

freq/Hz	Re(Z)/Ohm	-Im(Z)/Ohm	|Z|/Ohm	Phase(Z)/deg	time/s	<Ewe>/V	<I>/mA	Cs/µF	Cp/µF	cycle number	I Range	|Ewe|/V	|I|/A	Ns	(Q-Qo)/mA.h	<Ece>/V	|Ece|/V	Phase(Zce)/deg	|Zce|/Ohm	Re(Zce)/Ohm	-Im(Zce)/Ohm	Phase(Zwe-ce)/deg	|Zwe-ce|/Ohm	Re(Zwe-ce)/Ohm	-Im(Zwe-ce)/Ohm	Re(Y)/Ohm-1	Im(Y)/Ohm-1	|Y|/Ohm-1	Phase(Y)/deg	Re(C)/nF	Im(C)/nF	|C|/nF	Phase(C)/deg	Re(M)	Im(M)	|M|	Phase(M)/deg	Re(Permittivity)	Im(Permittivity)	|Permittivity|	Phase(Permittivity)/deg	Re(Resistivity)/Ohm.cm	Im(Resistivity)/Ohm.cm	|Resistivity|/Ohm.cm	Phase(Resistivity)/deg	Re(Conductivity)/mS/cm	Im(Conductivity)/mS/cm	|Conductivity|/mS/cm	Phase(Conductivity)/deg	Tan(Delta)	Loss Angle(Delta)/deg	dq/mA.h	Pwe/W	Pce/W	Pwe-ce/W	<Ewe-Ece>/V	Rwe/Ohm	Rce/Ohm	Rwe-ce/Ohm		Ewe-Ece/V
100004	1.45406	0.52269	1.54515	-19.772	1.86854	0.245809	-0.0062778	3.04481	0.348423	1	9	0.00485596	0.00314271	0	-5.70479e-06	-3.90715e-05	3.38968e-05	41.075	0.0107858	0.00813091	-0.00708679	-19.4239	1.55043	1.46219	0.515603	0.609033	0.218929	0.647187	19.772	348.423	969.269	1029.99	-70.228	0.0000000E+000	0.0000000E+000	0.0000000E+000	70.228	0.0000000E+000	0.0000000E+000	0.0000000E+000	-70.228	0.0000000E+000	0.0000000E+000	0.0000000E+000	-19.772	0.0000000E+000	0.0000000E+000	0.0000000E+000	19.772	2.78188	70.228	-5.70479e-06	-1.54314e-06	2.45283e-10	-1.54338e-06	0.245848	39155.2	6.22375	39161.4
31621.1	1.93665	0.731696	2.07026	-20.6974	3.14755	0.245777	0.000574318	6.87879	0.859258	1	9	0.00539999	0.00260836	0	-8.87602e-06	1.82022e-05	1.44827e-05	40.5899	0.00555241	0.00421642	-0.00361262	-20.5628	2.07293	1.94086	0.728083	0.451856	0.170719	0.483031	20.6974	859.258	2274.28	2431.18	-69.3026	0.0000000E+000	0.0000000E+000	0.0000000E+000	69.3026	0.0000000E+000	0.0000000E+000	0.0000000E+000	-69.3026	0.0000000E+000	0.0000000E+000	0.0000000E+000	-20.6974	0.0000000E+000	0.0000000E+000	0.0000000E+000	20.6974	2.64679	69.3026	-3.69559e-06	1.41154e-07	1.04538e-11	1.41144e-07	0.245759	427946	31.6935	427914
10002.2	2.50175	0.949401	2.67584	-20.7815	4.29652	0.245763	-0.0179339	16.76	2.10986	1	9	0.00543558	0.00203136	0	-1.58637e-05	0.000228206	1.33395e-05	-62.1734	0.0065668	0.00306537	0.00580744	-20.8743	2.68077	2.50481	0.955209	0.349401	0.132596	0.373715	20.7815	2109.86	5559.65	5946.53	-69.2185	0.0000000E+000	0.0000000E+000	0.0000000E+000	69.2185	0.0000000E+000	0.0000000E+000	0.0000000E+000	-69.2185	0.0000000E+000	0.0000000E+000	0.0000000E+000	-20.7815	0.0000000E+000	0.0000000E+000	0.0000000E+000	20.7815	2.63508	69.2185	-4.59497e-06	-4.40748e-06	-4.09261e-09	-4.40339e-06	0.245535	13703.8	12.7248	13691.1
3163.08	3.24274	1.3494	3.5123	-22.5937	5.62563	0.245725	-0.0259404	37.2879	5.50387	1	9	0.00504805	0.00143725	0	-1.88189e-05	-8.89057e-07	6.55987e-06	-65.5366	0.00456419	0.00189009	0.00415444	-22.6444	3.51565	3.24463	1.35356	0.262862	0.109385	0.284713	22.5937	5503.87	13226.3	14325.8	-67.4063	0.0000000E+000	0.0000000E+000	0.0000000E+000	67.4063	0.0000000E+000	0.0000000E+000	0.0000000E+000	-67.4063	0.0000000E+000	0.0000000E+000	0.0000000E+000	-22.5937	0.0000000E+000	0.0000000E+000	0.0000000E+000	22.5937	2.40309	67.4063	-5.9498e-06	-6.37422e-06	2.30625e-11	-6.37425e-06	0.245726	9472.67	0.034273	9472.7
1000.32	4.17877	2.01061	4.63731	-25.6945	7.2238	0.24576	-0.0146724	79.1322	14.8757	1	10	0.00500113	0.00107845	0	-2.39883e-05	-0.000134528	1.46393e-05	-101.746	0.0135743	-0.00276344	0.01329	-25.8572	4.6406	4.176	2.0239	0.194319	0.0934965	0.215642	25.6945	14875.7	30917	34309.5	-64.3055	0.0000000E+000	0.0000000E+000	0.0000000E+000	64.3055	0.0000000E+000	0.0000000E+000	0.0000000E+000	-64.3055	0.0000000E+000	0.0000000E+000	0.0000000E+000	-25.6945	0.0000000E+000	0.0000000E+000	0.0000000E+000	25.6945	2.07836	64.3055	-1.65468e-06	-3.60588e-06	1.97384e-09	-3.60786e-06	0.245895	16749.9	9.16878	16759
316.316	5.75097	3.50915	6.73705	-31.3909	8.57303	0.245756	-0.0141809	143.383	38.9011	1	10	0.00483045	0.000716998	0	-2.98272e-05	-1.99803e-05	4.74625e-06	-20.1152	0.00661962	0.00621584	0.00227655	-31.3799	6.74354	5.75719	3.51143	0.126707	0.0773148	0.148433	31.3909	38901.1	63753.1	74684.3	-58.6091	0.0000000E+000	0.0000000E+000	0.0000000E+000	58.6091	0.0000000E+000	0.0000000E+000	0.0000000E+000	-58.6091	0.0000000E+000	0.0000000E+000	0.0000000E+000	-31.3909	0.0000000E+000	0.0000000E+000	0.0000000E+000	31.3909	1.63885	58.6091	-1.54406e-06	-3.48504e-06	2.83338e-10	-3.48533e-06	0.245776	17330.1	1.40896	17331.5
100.032	9.29406	5.63797	10.8704	-31.2419	9.92086	0.245752	-0.0142852	282.201	75.912	1	10	0.00477494	0.00043926	0	-3.4274e-05	-0.000210892	9.85301e-06	89.2043	0.0224309	0.000311483	-0.0224288	-31.1398	10.8591	9.29438	5.61554	0.0786524	0.0477122	0.0919926	31.2419	75912	125139	146364	-58.7581	0.0000000E+000	0.0000000E+000	0.0000000E+000	58.7581	0.0000000E+000	0.0000000E+000	0.0000000E+000	-58.7581	0.0000000E+000	0.0000000E+000	0.0000000E+000	-31.2419	0.0000000E+000	0.0000000E+000	0.0000000E+000	31.2419	1.64848	58.7581	-1.94761e-06	-3.5106e-06	3.01263e-09	-3.51361e-06	0.245962	17203.3	14.7631	17218.1
31.6296	14.745	5.97612	15.91	-22.0626	11.2496	0.245739	-0.0151713	841.991	118.797	1	10	0.00475918	0.000299131	0	-3.89991e-05	-0.000153619	1.01865e-05	-32.3327	0.0340538	0.028774	0.0182132	-22.0845	15.9435	14.7738	5.99433	0.058251	0.023609	0.0628535	22.0626	118797	293110	316269	-67.9374	0.0000000E+000	0.0000000E+000	0.0000000E+000	67.9374	0.0000000E+000	0.0000000E+000	0.0000000E+000	-67.9374	0.0000000E+000	0.0000000E+000	0.0000000E+000	-22.0626	0.0000000E+000	0.0000000E+000	0.0000000E+000	22.0626	2.46732	67.9374	-1.16771e-06	-3.72819e-06	2.3306e-09	-3.73052e-06	0.245893	16197.6	10.1256	16207.7
10.0032	18.9014	4.50031	19.4297	-13.3925	12.8128	0.245743	-0.0103798	3535.4	189.666	1	11	0.00475935	0.000244952	0	-4.47397e-05	1.82022e-05	6.95823e-06	-17.5174	0.0284065	0.0270892	0.00855024	-13.3985	19.458	18.9284	4.50886	0.050068	0.0119209	0.0514676	13.3925	189666	796602	818870	-76.6075	0.0000000E+000	0.0000000E+000	0.0000000E+000	76.6075	0.0000000E+000	0.0000000E+000	0.0000000E+000	-76.6075	0.0000000E+000	0.0000000E+000	0.0000000E+000	-13.3925	0.0000000E+000	0.0000000E+000	0.0000000E+000	13.3925	4.20001	76.6075	-2.903e-06	-2.55075e-06	-1.88934e-10	-2.55056e-06	0.245724	23675.2	1.75362	23673.4
3.1604	21.5367	3.154	21.7664	-8.33163	14.3294	0.245745	-0.00953328	15966.8	335.249	1	11	0.00475853	0.000218618	0	-4.77121e-05	3.72934e-05	2.25495e-06	-4.50009	0.0103145	0.0102828	0.000809286	-8.32981	21.7767	21.5469	3.15481	0.0454575	0.00665716	0.0459424	8.33163	335249	2.2892e+06	2.31362e+06	-81.6684	0.0000000E+000	0.0000000E+000	0.0000000E+000	81.6684	0.0000000E+000	0.0000000E+000	0.0000000E+000	-81.6684	0.0000000E+000	0.0000000E+000	0.0000000E+000	-8.33163	0.0000000E+000	0.0000000E+000	0.0000000E+000	8.33163	6.82836	81.6684	-3.52097e-06	-2.34276e-06	-3.55528e-10	-2.3424e-06	0.245708	25777.6	3.91191	25773.7
1.00006	23.2271	2.28472	23.3392	-5.61781	19.9689	0.24577	-0.00785334	69656	667.506	1	12	0.00475942	0.000203924	0	-6.28042e-05	-9.63451e-05	1.26762e-06	-34.8326	0.00621614	0.00510236	0.00355054	-5.62526	23.3446	23.2322	2.28828	0.0426406	0.00419433	0.0428464	5.61781	667507	6.78603e+06	6.81878e+06	-84.3822	0.0000000E+000	0.0000000E+000	0.0000000E+000	84.3822	0.0000000E+000	0.0000000E+000	0.0000000E+000	-84.3822	0.0000000E+000	0.0000000E+000	0.0000000E+000	-5.61781	0.0000000E+000	0.0000000E+000	0.0000000E+000	5.61781	10.1662	84.3822	-3.4696e-06	-1.93011e-06	7.56631e-10	-1.93087e-06	0.245866	31294.9	12.2681	31307.2
0.316193	24.3029	2.18418	24.4008	-5.13556	34.311	0.24576	-0.00562377	230451	1846.49	1	12	0.00476134	0.00019513	0	-6.78345e-05	0.000228206	2.20347e-06	35.7581	0.0112923	0.00916363	-0.00659885	-5.11821	24.4094	24.312	2.17758	0.0408177	0.00366842	0.0409822	5.13556	1.84649e+06	2.05455e+07	2.06283e+07	-84.8644	0.0000000E+000	0.0000000E+000	0.0000000E+000	84.8644	0.0000000E+000	0.0000000E+000	0.0000000E+000	-84.8644	0.0000000E+000	0.0000000E+000	0.0000000E+000	-5.13556	0.0000000E+000	0.0000000E+000	0.0000000E+000	5.13556	11.1268	84.8644	-7.85132e-06	-1.38209e-06	-1.28337e-09	-1.38081e-06	0.245531	43700.2	40.5788	43659.6
0.0999041	25.3827	3.55271	25.6302	-7.96769	79.52	0.245747	-0.00469807	448411	8615.78	1	12	0.00475951	0.0001857	0	-0.000221495	0.000247297	3.155e-06	-65.5973	0.0169898	0.00701929	0.015472	-7.99975	25.6393	25.3898	3.56819	0.0386399	0.00540826	0.0390165	7.96769	8.61578e+06	6.15563e+07	6.21564e+07	-82.0323	0.0000000E+000	0.0000000E+000	0.0000000E+000	82.0323	0.0000000E+000	0.0000000E+000	0.0000000E+000	-82.0323	0.0000000E+000	0.0000000E+000	0.0000000E+000	-7.96769	0.0000000E+000	0.0000000E+000	0.0000000E+000	7.96769	7.1446	82.0323	-7.63677e-05	-1.15454e-06	-1.16182e-09	-1.15338e-06	0.2455	52308.2	52.638	52255.6
0.0315922	27.5065	7.71203	28.5672	-15.662	222.403	0.245757	-0.00510129	653238	47607.4	1	12	0.00476221	0.000166702	0	-0.000370645	0.00030457	2.92961e-06	2.61132	0.0175739	0.0175557	-0.000800675	-15.6509	28.5839	27.5241	7.71123	0.0337055	0.00945006	0.0350052	15.662	4.76074e+07	1.69801e+08	1.76349e+08	-74.338	0.0000000E+000	0.0000000E+000	0.0000000E+000	74.338	0.0000000E+000	0.0000000E+000	0.0000000E+000	-74.338	0.0000000E+000	0.0000000E+000	0.0000000E+000	-15.662	0.0000000E+000	0.0000000E+000	0.0000000E+000	15.662	3.5667	74.338	5.82836e-06	-1.25368e-06	-1.5537e-09	-1.25213e-06	0.245453	48175.5	59.7045	48115.8
0.0100092	32.7272	17.3085	37.0224	-27.8731	673.625	0.24575	-0.0039633	918676	200795	1	12	0.00475797	0.000128516	0	-0.000354772	0.000151841	7.0336e-07	56.4647	0.00547293	0.00302352	-0.00456194	-27.8647	37.0229	32.7302	17.3039	0.0238771	0.0126279	0.0270107	27.8731	2.00795e+08	3.79667e+08	4.29495e+08	-62.1269	0.0000000E+000	0.0000000E+000	0.0000000E+000	62.1269	0.0000000E+000	0.0000000E+000	0.0000000E+000	-62.1269	0.0000000E+000	0.0000000E+000	0.0000000E+000	-27.8731	0.0000000E+000	0.0000000E+000	0.0000000E+000	27.8731	1.89082	62.1269	-0.00014705	-9.73981e-07	-6.0179e-10	-9.7338e-07	0.245598	62006.4	38.3117	61968.1