File: txt/18936_R306_UA703_SOC00_C03.mpt
EC-Lab ASCII FILE
Nb header lines : 65

Potentio Electrochemical Impedance Spectroscopy

Run on channel : 3 (SN 65921)
Grouped channel(s) : 1, 2, 3, 4, 5
User :
CE vs. WE compliance from -10 V to 10 V
Electrode connection : standard
Potential control : Ewe
Ewe ctrl range : min = -10.00 V, max = 10.00 V
Safety Limits :
	Do not start on E overload
Acquisition started on : 11/04/2025 15:05:27.163
Loaded Setting File :  C:\Users\Celltest\OneDrive - store-dot.com\Documents\EC-Lab\Data\@Biologic Test Protocols\anode half cell EIS SOC00.mps
Saved on :
	File : 18934_R306_UA703_SOC00_C03.mpr
	Directory : C:\Users\Celltest\OneDrive - store-dot.com\Documents\EC-Lab\Data\Charmaine\
	Host : 169.254.61.224
Device : VMP-3e (SN .003165)
Address : USB
EC-LAB for windows v11.62 (software)
Internet server v27.00 (firmware)
Command interpretor v12.03 (firmware)
Electrode material :
Initial state :
Electrolyte :
Comments :
Electrode surface area : 0.001 cm²
Characteristic mass : 0.001 g
Equivalent Weight : 0.000 g/eq.
Density : 0.000 g/cm3
Volume (V) : 0.001 cm³
Record Ece
Cycle Definition : Charge/Discharge alternance
Mode                Single sine
E (V)               0.0000
vs.                 Eoc
tE (h:m:s)          0:00:0.0000
record              0
dI                  0.000
unit dI             mA
dt (s)              0.000
fi                  100.000
unit fi             kHz
ff                  10.000
unit ff             mHz
Nd                  6
Points              per decade
spacing             Logarithmic
Va (mV)             5.0
pw                  0.10
Na                  2
corr                0
E range min (V)     -10.000
E range max (V)     10.000
I Range             Auto
Bandwidth           5
nc cycles           0
goto Ns'            0
nr cycles           0
inc. cycle          0

freq/Hz	Re(Z)/Ohm	-Im(Z)/Ohm	|Z|/Ohm	Phase(Z)/deg	time/s	<Ewe>/V	<I>/mA	Cs/µF	Cp/µF	cycle number	I Range	|Ewe|/V	|I|/A	Ns	(Q-Qo)/mA.h	<Ece>/V	|Ece|/V	Phase(Zce)/deg	|Zce|/Ohm	Re(Zce)/Ohm	-Im(Zce)/Ohm	Phase(Zwe-ce)/deg	|Zwe-ce|/Ohm	Re(Zwe-ce)/Ohm	-Im(Zwe-ce)/Ohm	Re(Y)/Ohm-1	Im(Y)/Ohm-1	|Y|/Ohm-1	Phase(Y)/deg	Re(C)/nF	Im(C)/nF	|C|/nF	Phase(C)/deg	Re(M)	Im(M)	|M|	Phase(M)/deg	Re(Permittivity)	Im(Permittivity)	|Permittivity|	Phase(Permittivity)/deg	Re(Resistivity)/Ohm.cm	Im(Resistivity)/Ohm.cm	|Resistivity|/Ohm.cm	Phase(Resistivity)/deg	Re(Conductivity)/mS/cm	Im(Conductivity)/mS/cm	|Conductivity|/mS/cm	Phase(Conductivity)/deg	Tan(Delta)	Loss Angle(Delta)/deg	dq/mA.h	Pwe/W	Pce/W	Pwe-ce/W	<Ewe-Ece>/V	Rwe/Ohm	Rce/Ohm	Rwe-ce/Ohm		Ewe-Ece/V
100004	1.52891	0.578298	1.63462	-20.7188	1.72652	0.251561	0.00200747	2.75202	0.344447	1	9	0.00471608	0.00288512	0	3.90296e-06	-0.000127916	3.87211e-05	95.148	0.013421	-0.00120426	-0.0133668	-20.294	1.62881	1.5277	0.564931	0.572199	0.21643	0.611763	20.7188	344.447	910.649	973.615	-69.2812	0.0000000E+000	0.0000000E+000	0.0000000E+000	69.2812	0.0000000E+000	0.0000000E+000	0.0000000E+000	-69.2812	0.0000000E+000	0.0000000E+000	0.0000000E+000	-20.7188	0.0000000E+000	0.0000000E+000	0.0000000E+000	20.7188	2.6438	69.2812	3.90296e-06	5.05e-07	-2.56787e-10	5.05257e-07	0.251689	125313	63.72	125376
31621.1	2.08727	0.881149	2.26564	-22.8873	3.24754	0.251578	0.0134566	5.71206	0.863995	1	9	0.00506018	0.00223344	0	1.46618e-05	-3.24455e-05	1.01015e-05	50.8401	0.00452282	0.0028561	-0.00350693	-22.7775	2.26691	2.09012	0.877642	0.406628	0.17166	0.441377	22.8873	863.995	2046.63	2221.53	-67.1127	0.0000000E+000	0.0000000E+000	0.0000000E+000	67.1127	0.0000000E+000	0.0000000E+000	0.0000000E+000	-67.1127	0.0000000E+000	0.0000000E+000	0.0000000E+000	-22.8873	0.0000000E+000	0.0000000E+000	0.0000000E+000	22.8873	2.3688	67.1127	1.16359e-05	3.38538e-06	-4.36605e-10	3.38582e-06	0.251611	18695.6	2.41113	18698
10002.2	2.80411	1.16446	3.03628	-22.5516	4.27456	0.25157	0.00506549	13.6647	2.00985	1	9	0.00491009	0.00161714	0	2.45413e-05	-5.15396e-05	7.29434e-06	-26.0973	0.00451065	0.00405078	0.00198422	-22.5568	3.04079	2.80816	1.16644	0.304166	0.126311	0.32935	22.5516	2009.85	4839.88	5240.6	-67.4484	0.0000000E+000	0.0000000E+000	0.0000000E+000	67.4484	0.0000000E+000	0.0000000E+000	0.0000000E+000	-67.4484	0.0000000E+000	0.0000000E+000	0.0000000E+000	-22.5516	0.0000000E+000	0.0000000E+000	0.0000000E+000	22.5516	2.40808	67.4484	3.33874e-06	1.27432e-06	-2.61073e-10	1.27459e-06	0.251621	49663.5	10.1747	49673.7
3163.08	3.65306	1.57861	3.97956	-23.3708	5.38068	0.251479	-0.0273072	31.8738	5.01552	1	10	0.00472198	0.00118656	0	2.2298e-05	-0.000166104	6.99261e-06	-61.1157	0.00589319	0.00284666	0.00516006	-23.4227	3.98422	3.65591	1.58377	0.230668	0.0996795	0.251284	23.3708	5015.52	11606.4	12643.7	-66.6292	0.0000000E+000	0.0000000E+000	0.0000000E+000	66.6292	0.0000000E+000	0.0000000E+000	0.0000000E+000	-66.6292	0.0000000E+000	0.0000000E+000	0.0000000E+000	-23.3708	0.0000000E+000	0.0000000E+000	0.0000000E+000	23.3708	2.31409	66.6292	-2.06844e-06	-6.86719e-06	4.53584e-09	-6.87173e-06	0.251645	9209.25	6.08279	9215.33
1000.32	4.83517	2.34765	5.37497	-25.8982	6.73383	0.251517	-0.0111761	67.7716	12.9289	1	10	0.00454836	0.000846211	0	1.8201e-05	4.39307e-05	4.53261e-06	5.42691	0.00535636	0.00533235	-0.000506582	-25.8686	5.37955	4.8405	2.34714	0.167363	0.0812607	0.186047	25.8982	12928.9	26628.1	29600.9	-64.1018	0.0000000E+000	0.0000000E+000	0.0000000E+000	64.1018	0.0000000E+000	0.0000000E+000	0.0000000E+000	-64.1018	0.0000000E+000	0.0000000E+000	0.0000000E+000	-25.8982	0.0000000E+000	0.0000000E+000	0.0000000E+000	25.8982	2.05958	64.1018	-1.77574e-06	-2.81098e-06	-4.90973e-10	-2.81049e-06	0.251473	22505	3.93078	22501
316.316	6.64198	3.93287	7.71903	-30.6307	8.29604	0.251527	-0.00963979	127.935	33.2111	1	10	0.00499432	0.000647015	0	1.25331e-05	6.30248e-05	1.06431e-05	30.7323	0.0164495	0.0141394	-0.00840615	-30.5237	7.72692	6.65612	3.92446	0.111474	0.0660061	0.12955	30.6307	33211.1	56088.2	65183.3	-59.3693	0.0000000E+000	0.0000000E+000	0.0000000E+000	59.3693	0.0000000E+000	0.0000000E+000	0.0000000E+000	-59.3693	0.0000000E+000	0.0000000E+000	0.0000000E+000	-30.6307	0.0000000E+000	0.0000000E+000	0.0000000E+000	30.6307	1.68884	59.3693	-3.05526e-06	-2.42467e-06	-6.07546e-10	-2.42406e-06	0.251464	26092.5	6.53798	26086
100.032	10.4569	6.37386	12.2464	-31.3638	9.64284	0.251531	-0.0107622	249.62	67.6192	1	10	0.00497651	0.000406367	0	9.07777e-06	-5.15396e-05	4.2732e-06	33.9155	0.0105156	0.00872651	-0.0058674	-31.3191	12.2508	10.4656	6.36799	0.0697253	0.0425	0.081657	31.3638	67619.2	110936	129920	-58.6362	0.0000000E+000	0.0000000E+000	0.0000000E+000	58.6362	0.0000000E+000	0.0000000E+000	0.0000000E+000	-58.6362	0.0000000E+000	0.0000000E+000	0.0000000E+000	-31.3638	0.0000000E+000	0.0000000E+000	0.0000000E+000	31.3638	1.64059	58.6362	-1.57979e-06	-2.70702e-06	5.54679e-10	-2.70757e-06	0.251582	23371.7	4.78895	23376.5
31.6296	16.7952	7.31386	18.3186	-23.5319	11.2066	0.251563	-0.00682081	687.987	109.671	1	11	0.00497984	0.000271847	0	4.88683e-06	-0.000204292	5.24944e-06	-111.196	0.0193103	-0.00698196	0.0180039	-23.5922	18.3194	16.7882	7.33186	0.0500496	0.0217953	0.0545894	23.5319	109671	251842	274685	-66.4681	0.0000000E+000	0.0000000E+000	0.0000000E+000	66.4681	0.0000000E+000	0.0000000E+000	0.0000000E+000	-66.4681	0.0000000E+000	0.0000000E+000	0.0000000E+000	-23.5319	0.0000000E+000	0.0000000E+000	0.0000000E+000	23.5319	2.29635	66.4681	-1.57304e-06	-1.71586e-06	1.39344e-09	-1.71725e-06	0.251767	36881.7	29.9513	36911.6
10.0032	22.1722	5.87522	22.9374	-14.8412	12.5398	0.251563	-0.00658886	2708.05	177.671	1	11	0.0049677	0.000216576	0	3.97621e-06	-8.97277e-05	8.32541e-06	-67.3708	0.038441	0.0147908	0.0354816	-14.9173	22.9608	22.187	5.9107	0.0421424	0.0111669	0.0435969	14.8412	177671	670503	693644	-75.1588	0.0000000E+000	0.0000000E+000	0.0000000E+000	75.1588	0.0000000E+000	0.0000000E+000	0.0000000E+000	-75.1588	0.0000000E+000	0.0000000E+000	0.0000000E+000	-14.8412	0.0000000E+000	0.0000000E+000	0.0000000E+000	14.8412	3.77386	75.1588	1.66713e-07	-1.65752e-06	5.91204e-10	-1.65811e-06	0.251653	38180.1	13.6181	38193.7
3.1604	25.8165	4.27755	26.1684	-9.40791	14.0575	0.251562	-0.00623759	11772.9	314.571	1	11	0.00496637	0.000189785	0	-1.88781e-07	-0.000127916	1.30058e-06	91.0505	0.00685293	-0.000125641	-0.00685178	-9.39316	26.1672	25.8163	4.2707	0.0377	0.00624654	0.038214	9.40791	314571	1.89854e+06	1.92442e+06	-80.5921	0.0000000E+000	0.0000000E+000	0.0000000E+000	80.5921	0.0000000E+000	0.0000000E+000	0.0000000E+000	-80.5921	0.0000000E+000	0.0000000E+000	0.0000000E+000	-9.40791	0.0000000E+000	0.0000000E+000	0.0000000E+000	9.40791	6.03534	80.5921	-5.50719e-07	-1.56914e-06	7.97887e-10	-1.56994e-06	0.25169	40330	20.5072	40350.5
1.00006	28.1888	3.1019	28.359	-6.27957	19.696	0.251566	-0.00466536	51305.6	613.817	1	12	0.00496886	0.000175213	0	-2.45999e-06	0.000158495	5.00455e-06	47.3275	0.0285627	0.01936	-0.0210004	-6.23314	28.3759	28.2082	3.0809	0.0350506	0.00385698	0.0352622	6.27957	613817	5.57813e+06	5.6118e+06	-83.7204	0.0000000E+000	0.0000000E+000	0.0000000E+000	83.7204	0.0000000E+000	0.0000000E+000	0.0000000E+000	-83.7204	0.0000000E+000	0.0000000E+000	0.0000000E+000	-6.27957	0.0000000E+000	0.0000000E+000	0.0000000E+000	6.27957	9.0876	83.7204	-4.99633e-06	-1.17364e-06	-7.39437e-10	-1.1729e-06	0.251407	53922	33.9727	53888
0.316193	29.7184	2.78615	29.8487	-5.35592	34.0397	0.25157	-0.00451038	180660	1574.06	1	12	0.00496783	0.000166434	0	-4.51142e-05	-5.15396e-05	2.27587e-06	-9.24814	0.0136743	0.0134966	0.00219761	-5.3577	29.8624	29.7319	2.78835	0.033356	0.00312718	0.0335023	5.35592	1.57406e+06	1.67897e+07	1.68633e+07	-84.6441	0.0000000E+000	0.0000000E+000	0.0000000E+000	84.6441	0.0000000E+000	0.0000000E+000	0.0000000E+000	-84.6441	0.0000000E+000	0.0000000E+000	0.0000000E+000	-5.35592	0.0000000E+000	0.0000000E+000	0.0000000E+000	5.35592	10.6665	84.6441	-1.64919e-05	-1.13468e-06	2.32463e-10	-1.13491e-06	0.251621	55775.8	11.4269	55787.2
0.0999041	31.1012	4.27098	31.3931	-7.81924	79.2474	0.251551	-0.00448693	373001	6903.92	1	12	0.00496541	0.000158169	0	-3.63897e-05	-0.000261574	2.32082e-06	27.8442	0.014673	0.0129742	-0.00685331	-7.80363	31.405	31.1142	4.26412	0.031558	0.0043337	0.0318541	7.81924	6.90392e+06	5.02743e+07	5.07461e+07	-82.1808	0.0000000E+000	0.0000000E+000	0.0000000E+000	82.1808	0.0000000E+000	0.0000000E+000	0.0000000E+000	-82.1808	0.0000000E+000	0.0000000E+000	0.0000000E+000	-7.81924	0.0000000E+000	0.0000000E+000	0.0000000E+000	7.81924	7.28199	82.1808	1.75104e-05	-1.12869e-06	1.17367e-09	-1.12986e-06	0.251812	56063	58.297	56121.3
0.0315922	33.9672	8.6873	35.0605	-14.3462	222.13	0.251562	-0.00238995	579903	35603.1	1	12	0.0049699	0.000141752	0	-0.000109854	-5.15396e-05	2.61637e-06	42.5686	0.0184574	0.0135933	-0.0124859	-14.3209	35.0706	33.9808	8.67481	0.0276327	0.0070672	0.0285221	14.3462	3.56031e+07	1.39208e+08	1.43688e+08	-75.6538	0.0000000E+000	0.0000000E+000	0.0000000E+000	75.6538	0.0000000E+000	0.0000000E+000	0.0000000E+000	-75.6538	0.0000000E+000	0.0000000E+000	0.0000000E+000	-14.3462	0.0000000E+000	0.0000000E+000	0.0000000E+000	14.3462	3.90999	75.6538	-8.91647e-05	-6.01221e-07	1.23177e-10	-6.01345e-07	0.251614	105258	21.5651	105280
0.0100092	39.788	18.615	43.9272	-25.0728	673.352	0.251559	-0.00429534	854199	153397	1	12	0.00496997	0.000113141	0	-0.00117856	0.000215777	1.87062e-06	38.1488	0.0165335	0.0130021	-0.0102129	-25.0535	43.9347	39.801	18.6048	0.0206198	0.00964707	0.0227649	25.0728	1.53397e+08	3.27874e+08	3.61983e+08	-64.9272	0.0000000E+000	0.0000000E+000	0.0000000E+000	64.9272	0.0000000E+000	0.0000000E+000	0.0000000E+000	-64.9272	0.0000000E+000	0.0000000E+000	0.0000000E+000	-25.0728	0.0000000E+000	0.0000000E+000	0.0000000E+000	25.0728	2.13741	64.9272	-0.000447882	-1.08053e-06	-9.26837e-10	-1.0796e-06	0.251343	58565.5	50.2352	58515.2