File: txt/18934_R306_UA703_SOC00_C01.mpt
EC-Lab ASCII FILE
Nb header lines : 66

Potentio Electrochemical Impedance Spectroscopy

Run on channel : 1 (SN 66354)
Grouped channel(s) : 1, 2, 3, 4, 5
User :
CE vs. WE compliance from -10 V to 10 V
Electrode connection : standard
Potential control : Ewe
Ewe ctrl range : min = -10.00 V, max = 10.00 V
Safety Limits :
	Do not start on E overload
Acquisition started on : 11/04/2025 15:05:27.163
Technique started on : 11/04/2025 15:05:29.075
Loaded Setting File :  C:\Users\Celltest\OneDrive - store-dot.com\Documents\EC-Lab\Data\@Biologic Test Protocols\anode half cell EIS SOC00.mps
Saved on :
	File : 18934_R306_UA703_SOC00_C01.mpr
	Directory : C:\Users\Celltest\OneDrive - store-dot.com\Documents\EC-Lab\Data\Charmaine\
	Host : 169.254.61.224
Device : VMP-3e (SN .003165)
Address : USB
EC-LAB for windows v11.62 (software)
Internet server v27.00 (firmware)
Command interpretor v12.03 (firmware)
Electrode material :
Initial state :
Electrolyte :
Comments :
Electrode surface area : 0.001 cm²
Characteristic mass : 0.001 g
Equivalent Weight : 0.000 g/eq.
Density : 0.000 g/cm3
Volume (V) : 0.001 cm³
Record Ece
Cycle Definition : Charge/Discharge alternance
Mode                Single sine
E (V)               0.0000
vs.                 Eoc
tE (h:m:s)          0:00:0.0000
record              0
dI                  0.000
unit dI             mA
dt (s)              0.000
fi                  100.000
unit fi             kHz
ff                  10.000
unit ff             mHz
Nd                  6
Points              per decade
spacing             Logarithmic
Va (mV)             5.0
pw                  0.10
Na                  2
corr                0
E range min (V)     -10.000
E range max (V)     10.000
I Range             Auto
Bandwidth           5
nc cycles           0
goto Ns'            0
nr cycles           0
inc. cycle          0

freq/Hz	Re(Z)/Ohm	-Im(Z)/Ohm	|Z|/Ohm	Phase(Z)/deg	time/s	<Ewe>/V	<I>/mA	Cs/µF	Cp/µF	cycle number	I Range	|Ewe|/V	|I|/A	Ns	(Q-Qo)/mA.h	<Ece>/V	|Ece|/V	Phase(Zce)/deg	|Zce|/Ohm	Re(Zce)/Ohm	-Im(Zce)/Ohm	Phase(Zwe-ce)/deg	|Zwe-ce|/Ohm	Re(Zwe-ce)/Ohm	-Im(Zwe-ce)/Ohm	Re(Y)/Ohm-1	Im(Y)/Ohm-1	|Y|/Ohm-1	Phase(Y)/deg	Re(C)/nF	Im(C)/nF	|C|/nF	Phase(C)/deg	Re(M)	Im(M)	|M|	Phase(M)/deg	Re(Permittivity)	Im(Permittivity)	|Permittivity|	Phase(Permittivity)/deg	Re(Resistivity)/Ohm.cm	Im(Resistivity)/Ohm.cm	|Resistivity|/Ohm.cm	Phase(Resistivity)/deg	Re(Conductivity)/mS/cm	Im(Conductivity)/mS/cm	|Conductivity|/mS/cm	Phase(Conductivity)/deg	Tan(Delta)	Loss Angle(Delta)/deg	dq/mA.h	Pwe/W	Pce/W	Pwe-ce/W	<Ewe-Ece>/V	Rwe/Ohm	Rce/Ohm	Rwe-ce/Ohm		Ewe-Ece/V
100004	1.71093	0.656148	1.83244	-20.982	1.91156	0.250846	0.0578514	2.4255	0.310991	1	9	0.00455317	0.00248476	0	2.68316e-06	0.000315732	3.6489e-05	102.698	0.0146851	-0.00322798	-0.0143259	-20.5982	1.82433	1.70771	0.641822	0.509536	0.195409	0.545721	20.982	310.991	810.922	868.51	-69.018	0.0000000E+000	0.0000000E+000	0.0000000E+000	69.018	0.0000000E+000	0.0000000E+000	0.0000000E+000	-69.018	0.0000000E+000	0.0000000E+000	0.0000000E+000	-20.982	0.0000000E+000	0.0000000E+000	0.0000000E+000	20.982	2.60754	69.018	2.68316e-06	1.45118e-05	1.82655e-08	1.44935e-05	0.25053	4336.03	5.45764	4330.57
31621.1	2.34034	0.991012	2.54152	-22.9501	3.43657	0.250876	0.0673885	5.07883	0.772209	1	9	0.00495322	0.00194892	0	4.30901e-05	-8.58219e-06	1.30878e-05	13.6807	0.00671538	0.00652486	-0.00158826	-22.86	2.54691	2.34687	0.989424	0.362321	0.153424	0.393466	22.9501	772.209	1823.63	1980.38	-67.0499	0.0000000E+000	0.0000000E+000	0.0000000E+000	67.0499	0.0000000E+000	0.0000000E+000	0.0000000E+000	-67.0499	0.0000000E+000	0.0000000E+000	0.0000000E+000	-22.9501	0.0000000E+000	0.0000000E+000	0.0000000E+000	22.9501	2.36157	67.0499	1.28639e-05	1.69061e-05	-5.78341e-10	1.69067e-05	0.250884	3722.83	0.127354	3722.95
10002.2	3.16388	1.28701	3.41563	-22.1357	4.58552	0.250853	0.0623219	12.3635	1.75535	1	9	0.00490427	0.00143583	0	6.19774e-05	-8.58219e-06	9.94538e-06	-116.825	0.00692657	-0.00312579	0.00618117	-22.2515	3.41507	3.16076	1.2932	0.271192	0.110317	0.292771	22.1357	1755.35	4315.2	4658.56	-67.8643	0.0000000E+000	0.0000000E+000	0.0000000E+000	67.8643	0.0000000E+000	0.0000000E+000	0.0000000E+000	-67.8643	0.0000000E+000	0.0000000E+000	0.0000000E+000	-22.1357	0.0000000E+000	0.0000000E+000	0.0000000E+000	22.1357	2.45831	67.8643	5.54436e-06	1.56336e-05	-5.34858e-10	1.56342e-05	0.250861	4025.12	0.137707	4025.25
3163.08	4.15567	1.77202	4.51771	-23.0939	5.64167	0.250792	-0.0184488	28.3949	4.36862	1	10	0.00477862	0.00105775	0	6.33866e-05	0.000239423	1.26484e-05	107.959	0.0119577	-0.00368702	-0.0113751	-22.9794	4.50986	4.15198	1.76065	0.203613	0.0868228	0.221351	23.0939	4368.62	10245.1	11137.6	-66.9061	0.0000000E+000	0.0000000E+000	0.0000000E+000	66.9061	0.0000000E+000	0.0000000E+000	0.0000000E+000	-66.9061	0.0000000E+000	0.0000000E+000	0.0000000E+000	-23.0939	0.0000000E+000	0.0000000E+000	0.0000000E+000	23.0939	2.34515	66.9061	-9.05737e-07	-4.62681e-06	-4.41706e-09	-4.62239e-06	0.250552	13593.9	12.9777	13581
1000.32	5.49579	2.58803	6.07466	-25.2163	6.99482	0.250798	-0.00830407	61.477	11.1585	1	10	0.00462795	0.000761845	0	6.0366e-05	0.000163114	9.9849e-06	-38.3601	0.0131062	0.0102769	0.00813373	-25.2443	6.08743	5.50606	2.59616	0.148931	0.0701333	0.164618	25.2163	11158.5	23695.5	26191.4	-64.7837	0.0000000E+000	0.0000000E+000	0.0000000E+000	64.7837	0.0000000E+000	0.0000000E+000	0.0000000E+000	-64.7837	0.0000000E+000	0.0000000E+000	0.0000000E+000	-25.2163	0.0000000E+000	0.0000000E+000	0.0000000E+000	25.2163	2.12354	64.7837	-1.54512e-06	-2.08265e-06	-1.35451e-09	-2.08129e-06	0.250635	30201.9	19.6426	30182.2
316.316	7.48526	4.17552	8.57112	-29.1542	8.34403	0.250796	-0.00828171	120.5	28.5979	1	10	0.00457597	0.000533883	0	5.73558e-05	0.000220346	7.12304e-06	-24.4787	0.0133419	0.0121427	0.0055283	-29.1469	8.58442	7.4974	4.18105	0.10189	0.0568376	0.116671	29.1542	28597.9	51266.2	58703.2	-60.8458	0.0000000E+000	0.0000000E+000	0.0000000E+000	60.8458	0.0000000E+000	0.0000000E+000	0.0000000E+000	-60.8458	0.0000000E+000	0.0000000E+000	0.0000000E+000	-29.1542	0.0000000E+000	0.0000000E+000	0.0000000E+000	29.1542	1.79265	60.8458	-1.49728e-06	-2.07702e-06	-1.82484e-09	-2.0752e-06	0.250576	30283.2	26.6063	30256.6
100.032	11.3945	6.70637	13.2215	-30.4796	9.68979	0.250792	-0.00942961	237.243	61.0386	1	10	0.00456286	0.000345108	0	5.35033e-05	-8.58219e-06	1.10208e-05	-119.633	0.0319344	-0.0157896	0.0277577	-30.6179	13.222	11.3787	6.73413	0.0651823	0.038364	0.0756342	30.4796	61038.7	103708	120337	-59.5204	0.0000000E+000	0.0000000E+000	0.0000000E+000	59.5204	0.0000000E+000	0.0000000E+000	0.0000000E+000	-59.5204	0.0000000E+000	0.0000000E+000	0.0000000E+000	-30.4796	0.0000000E+000	0.0000000E+000	0.0000000E+000	30.4796	1.69905	59.5204	-6.78224e-07	-2.36487e-06	8.09267e-11	-2.36495e-06	0.250801	26596.2	0.910132	26597.1
31.6296	18.1197	7.87773	19.7581	-23.4975	11.2526	0.250845	-0.00610391	638.743	101.54	1	11	0.00456601	0.000231096	0	4.9495e-05	0.000277577	1.08922e-05	-41.2406	0.0471327	0.0354414	0.0310709	-23.5391	19.803	18.1551	7.9088	0.0464153	0.0201795	0.0506122	23.4975	101540	233554	254673	-66.5025	0.0000000E+000	0.0000000E+000	0.0000000E+000	66.5025	0.0000000E+000	0.0000000E+000	0.0000000E+000	-66.5025	0.0000000E+000	0.0000000E+000	0.0000000E+000	-23.4975	0.0000000E+000	0.0000000E+000	0.0000000E+000	23.4975	2.30012	66.5025	-1.76433e-06	-1.53114e-06	-1.69431e-09	-1.52944e-06	0.250568	41095.9	45.4754	41050.4
10.0032	24.0653	6.3853	24.898	-14.86	12.5859	0.250849	-0.00528911	2491.72	163.882	1	11	0.00456118	0.000183195	0	4.66131e-05	0.000239423	1.27304e-05	95.6871	0.0694911	-0.00688624	-0.069149	-14.7101	24.8737	24.0584	6.31615	0.0388206	0.0103003	0.0401638	14.86	163882	617651	639023	-75.14	0.0000000E+000	0.0000000E+000	0.0000000E+000	75.14	0.0000000E+000	0.0000000E+000	0.0000000E+000	-75.14	0.0000000E+000	0.0000000E+000	0.0000000E+000	-14.86	0.0000000E+000	0.0000000E+000	0.0000000E+000	14.86	3.76887	75.14	-6.06386e-07	-1.32677e-06	-1.26633e-09	-1.3255e-06	0.25061	47427.4	45.2671	47382.2
3.1604	28.0001	4.63731	28.3815	-9.40384	14.1024	0.250866	-0.00336292	10859.6	289.917	1	11	0.00456212	0.000160743	0	4.68316e-05	0.000315732	6.12933e-06	40.1433	0.0381313	0.0291489	-0.0245833	-9.34531	28.4062	28.0292	4.61273	0.0347607	0.00575699	0.0352342	9.40384	289918	1.75052e+06	1.77437e+06	-80.5962	0.0000000E+000	0.0000000E+000	0.0000000E+000	80.5962	0.0000000E+000	0.0000000E+000	0.0000000E+000	-80.5962	0.0000000E+000	0.0000000E+000	0.0000000E+000	-9.40384	0.0000000E+000	0.0000000E+000	0.0000000E+000	9.40384	6.038	80.5962	1.66418e-07	-8.43642e-07	-1.06178e-09	-8.4258e-07	0.25055	74597.6	93.8862	74503.7
1.00006	30.6393	3.40015	30.8274	-6.3324	19.7419	0.250861	-0.00354055	46805.2	569.399	1	12	0.00456761	0.000148167	0	3.42512e-05	0.000201268	3.30495e-06	-12.4772	0.0223055	0.0217787	0.00481913	-6.33683	30.8496	30.6611	3.40497	0.0322408	0.00357787	0.0324387	6.3324	569399	5.13095e+06	5.16245e+06	-83.6676	0.0000000E+000	0.0000000E+000	0.0000000E+000	83.6676	0.0000000E+000	0.0000000E+000	0.0000000E+000	-83.6676	0.0000000E+000	0.0000000E+000	0.0000000E+000	-6.3324	0.0000000E+000	0.0000000E+000	0.0000000E+000	6.3324	9.01117	83.6676	-5.08494e-06	-8.88184e-07	-7.126e-10	-8.87472e-07	0.25066	70853.7	56.8466	70796.8
0.316193	32.3155	2.99279	32.4538	-5.29117	34.084	0.250858	-0.0034778	168187	1430.26	1	12	0.00456608	0.000140695	0	4.25159e-05	-2.76595e-05	1.86319e-06	-24.9102	0.0132427	0.0120107	0.00557779	-5.29901	32.4662	32.3275	2.99837	0.0306818	0.00284149	0.0308131	5.29117	1.43026e+06	1.54436e+07	1.55097e+07	-84.7088	0.0000000E+000	0.0000000E+000	0.0000000E+000	84.7088	0.0000000E+000	0.0000000E+000	0.0000000E+000	-84.7088	0.0000000E+000	0.0000000E+000	0.0000000E+000	-5.29117	0.0000000E+000	0.0000000E+000	0.0000000E+000	5.29117	10.7978	84.7088	5.20585e-06	-8.72435e-07	9.61942e-11	-8.72531e-07	0.250886	72131.4	7.95316	72139.3
0.0999041	33.9075	4.46541	34.2003	-7.50232	79.293	0.250852	-0.00197069	356760	6081.89	1	12	0.00456697	0.000133536	0	-1.14643e-05	-8.58219e-06	2.27296e-06	-0.590518	0.0170213	0.0170204	0.000175427	-7.49889	34.2172	33.9245	4.46558	0.0289892	0.0038177	0.0292395	7.50232	6.08189e+06	4.61821e+07	4.65808e+07	-82.4977	0.0000000E+000	0.0000000E+000	0.0000000E+000	82.4977	0.0000000E+000	0.0000000E+000	0.0000000E+000	-82.4977	0.0000000E+000	0.0000000E+000	0.0000000E+000	-7.50232	0.0000000E+000	0.0000000E+000	0.0000000E+000	7.50232	7.59338	82.4977	-4.04966e-05	-4.94353e-07	1.69129e-11	-4.9437e-07	0.250861	127291	4.35491	127296
0.0315922	36.9074	8.75725	37.9321	-13.3481	222.177	0.250856	-0.00401036	575271	30661.6	1	12	0.00456286	0.00012029	0	-0.000289455	0.000372964	2.96854e-06	2.4207	0.0246781	0.0246561	-0.00104232	-13.338	37.9558	36.932	8.75621	0.0256507	0.00608631	0.0263629	13.3481	3.06616e+07	1.29223e+08	1.32811e+08	-76.6519	0.0000000E+000	0.0000000E+000	0.0000000E+000	76.6519	0.0000000E+000	0.0000000E+000	0.0000000E+000	-76.6519	0.0000000E+000	0.0000000E+000	0.0000000E+000	-13.3481	0.0000000E+000	0.0000000E+000	0.0000000E+000	13.3481	4.21449	76.6519	-0.000103652	-1.00602e-06	-1.49572e-09	-1.00452e-06	0.250483	62551.9	93.0002	62458.9
0.0100092	42.5405	18.9253	46.5603	-23.9832	673.399	0.250854	-0.0041658	840194	138814	1	12	0.00456495	9.80438e-05	0	-0.000280103	-0.000199355	2.27036e-06	-8.14403	0.0231566	0.022923	0.0032804	-23.9754	46.5826	42.5634	18.9286	0.0196233	0.00872994	0.0214775	23.9832	1.38814e+08	3.12028e+08	3.41512e+08	-66.0168	0.0000000E+000	0.0000000E+000	0.0000000E+000	66.0168	0.0000000E+000	0.0000000E+000	0.0000000E+000	-66.0168	0.0000000E+000	0.0000000E+000	0.0000000E+000	-23.9832	0.0000000E+000	0.0000000E+000	0.0000000E+000	23.9832	2.24781	66.0168	3.92571e-05	-1.04501e-06	8.30475e-10	-1.04584e-06	0.251053	60217.4	47.8552	60265.3