File: txt/18939_R308_UA704_SOC00_C06.mpt
EC-Lab ASCII FILE
Nb header lines : 66

Potentio Electrochemical Impedance Spectroscopy

Run on channel : 6 (SN 65795)
Grouped channel(s) : 6, 7, 8
User :
CE vs. WE compliance from -10 V to 10 V
Electrode connection : standard
Potential control : Ewe
Ewe ctrl range : min = -10.00 V, max = 10.00 V
Safety Limits :
	Do not start on E overload
Acquisition started on : 11/04/2025 15:06:24.562
Loaded Setting File :  C:\Users\Celltest\OneDrive - store-dot.com\Documents\EC-Lab\Data\@Biologic Test Protocols\anode half cell EIS SOC00.mps
Saved on :
	File : 18939_R308_UA704_SOC00_C06.mpr
	Directory : C:\Users\Celltest\OneDrive - store-dot.com\Documents\EC-Lab\Data\Charmaine\
	Host : 169.254.61.224
Device : VMP-3e (SN .003165)
Address : USB
EC-LAB for windows v11.62 (software)
Internet server v27.00 (firmware)
Command interpretor v12.03 (firmware)
Electrode material :
Initial state :
Electrolyte :
Comments :
Electrode surface area : 0.001 cm²
Characteristic mass : 0.001 g
Equivalent Weight : 0.000 g/eq.
Density : 0.000 g/cm3
Volume (V) : 0.001 cm³
Record Ece
Cycle Definition : Charge/Discharge alternance
Mode                Single sine
E (V)               0.0000
vs.                 Eoc
tE (h:m:s)          0:00:0.0000
record              0
dI                  0.000
unit dI             mA
dt (s)              0.000
fi                  100.000
unit fi             kHz
ff                  10.000
unit ff             mHz
Nd                  6
Points              per decade
spacing             Logarithmic
Va (mV)             5.0
pw                  0.10
Na                  2
corr                0
E range min (V)     -10.000
E range max (V)     10.000
I Range             Auto
Bandwidth           5
nc cycles           0
goto Ns'            0
nr cycles           0
inc. cycle          0

freq/Hz	Re(Z)/Ohm	-Im(Z)/Ohm	|Z|/Ohm	Phase(Z)/deg	time/s	<Ewe>/V	<I>/mA	Cs/µF	Cp/µF	cycle number	I Range	|Ewe|/V	|I|/A	Ns	(Q-Qo)/mA.h	<Ece>/V	|Ece|/V	Phase(Zce)/deg	|Zce|/Ohm	Re(Zce)/Ohm	-Im(Zce)/Ohm	Phase(Zwe-ce)/deg	|Zwe-ce|/Ohm	Re(Zwe-ce)/Ohm	-Im(Zwe-ce)/Ohm	Re(Y)/Ohm-1	Im(Y)/Ohm-1	|Y|/Ohm-1	Phase(Y)/deg	Re(C)/nF	Im(C)/nF	|C|/nF	Phase(C)/deg	Re(M)	Im(M)	|M|	Phase(M)/deg	Re(Permittivity)	Im(Permittivity)	|Permittivity|	Phase(Permittivity)/deg	Re(Resistivity)/Ohm.cm	Im(Resistivity)/Ohm.cm	|Resistivity|/Ohm.cm	Phase(Resistivity)/deg	Re(Conductivity)/mS/cm	Im(Conductivity)/mS/cm	|Conductivity|/mS/cm	Phase(Conductivity)/deg	Tan(Delta)	Loss Angle(Delta)/deg	dq/mA.h	Pwe/W	Pce/W	Pwe-ce/W	<Ewe-Ece>/V	Rwe/Ohm	Rce/Ohm	Rwe-ce/Ohm		Ewe-Ece/V
100004	1.75192	0.648116	1.86796	-20.3017	1.72554	0.228466	-0.00384358	2.45557	0.295611	1	9	0.00455118	0.00243644	0	-2.25752e-06	-4.17831e-06	4.24689e-05	96.4997	0.0174307	-0.00197311	-0.0173187	-19.8225	1.86017	1.74995	0.630797	0.502086	0.185745	0.535343	20.3017	295.611	799.066	851.993	-69.6983	0.0000000E+000	0.0000000E+000	0.0000000E+000	69.6983	0.0000000E+000	0.0000000E+000	0.0000000E+000	-69.6983	0.0000000E+000	0.0000000E+000	0.0000000E+000	-20.3017	0.0000000E+000	0.0000000E+000	0.0000000E+000	20.3017	2.7031	69.6983	-2.25752e-06	-8.78126e-07	1.60597e-11	-8.78142e-07	0.22847	59440.8	1.08709	59441.9
31621.1	2.39554	0.919082	2.5658	-20.99	3.24951	0.22849	0.0178359	5.47631	0.702672	1	9	0.00507979	0.00197981	0	1.75757e-05	0.000263194	1.68621e-05	43.5676	0.00851704	0.00617112	-0.00587003	-20.8185	2.56947	2.40171	0.913212	0.36388	0.139608	0.389742	20.99	702.671	1831.47	1961.64	-69.01	0.0000000E+000	0.0000000E+000	0.0000000E+000	69.01	0.0000000E+000	0.0000000E+000	0.0000000E+000	-69.01	0.0000000E+000	0.0000000E+000	0.0000000E+000	-20.99	0.0000000E+000	0.0000000E+000	0.0000000E+000	20.99	2.60645	69.01	-2.82337e-07	4.07532e-06	4.6943e-09	4.07062e-06	0.228227	12810.7	14.7564	12795.9
10002.2	3.11688	1.07611	3.29742	-19.0474	4.27853	0.228483	0.00740588	14.7865	1.57483	1	9	0.00462939	0.00140395	0	1.92004e-05	0.000148606	3.65626e-06	-83.4401	0.00260428	0.000297517	0.00258723	-19.0882	3.29854	3.11718	1.0787	0.286663	0.0989714	0.303268	19.0474	1574.83	4561.37	4825.58	-70.9526	0.0000000E+000	0.0000000E+000	0.0000000E+000	70.9526	0.0000000E+000	0.0000000E+000	0.0000000E+000	-70.9526	0.0000000E+000	0.0000000E+000	0.0000000E+000	-19.0474	0.0000000E+000	0.0000000E+000	0.0000000E+000	19.0474	2.89643	70.9526	5.92464e-07	1.69212e-06	1.10056e-09	1.69102e-06	0.228334	30851.6	20.0659	30831.5
3163.08	3.89726	1.38016	4.13443	-19.5009	5.51162	0.228399	-0.0300665	36.4568	4.06265	1	10	0.00500899	0.00121153	0	1.37453e-05	0.000435077	1.36666e-06	48.9898	0.00112804	0.000740213	-0.000851212	-19.4864	4.13485	3.898	1.37931	0.227997	0.0807419	0.241871	19.5009	4062.65	11472	12170.1	-70.4991	0.0000000E+000	0.0000000E+000	0.0000000E+000	70.4991	0.0000000E+000	0.0000000E+000	0.0000000E+000	-70.4991	0.0000000E+000	0.0000000E+000	0.0000000E+000	-19.5009	0.0000000E+000	0.0000000E+000	0.0000000E+000	19.5009	2.82377	70.4991	-2.98275e-06	-6.86718e-06	-1.30812e-08	-6.85409e-06	0.227964	7596.47	14.4705	7582
1000.32	4.95851	1.98348	5.34051	-21.8021	6.86483	0.228432	-0.0116946	80.2147	11.0648	1	10	0.00488492	0.000914693	0	9.33201e-06	0.000415978	9.71402e-06	125.594	0.01062	-0.00618117	-0.0086358	-21.7406	5.33156	4.95233	1.97484	0.173855	0.0695444	0.187248	21.8021	11064.8	27661	29791.9	-68.1979	0.0000000E+000	0.0000000E+000	0.0000000E+000	68.1979	0.0000000E+000	0.0000000E+000	0.0000000E+000	-68.1979	0.0000000E+000	0.0000000E+000	0.0000000E+000	-21.8021	0.0000000E+000	0.0000000E+000	0.0000000E+000	21.8021	2.49991	68.1979	-1.50201e-06	-2.67142e-06	-4.8647e-09	-2.66655e-06	0.228016	19533.1	35.5701	19497.5
316.316	6.57594	3.05261	7.24992	-24.9012	8.21504	0.22843	-0.0116872	164.827	29.2216	1	10	0.00482646	0.000665725	0	4.65655e-06	0.000129508	4.6544e-06	44.301	0.00699147	0.00500366	-0.00488303	-24.8495	7.25241	6.58094	3.04773	0.12511	0.0580771	0.137932	24.9012	29221.6	62949.2	69401	-65.0988	0.0000000E+000	0.0000000E+000	0.0000000E+000	65.0988	0.0000000E+000	0.0000000E+000	0.0000000E+000	-65.0988	0.0000000E+000	0.0000000E+000	0.0000000E+000	-24.9012	0.0000000E+000	0.0000000E+000	0.0000000E+000	24.9012	2.1542	65.0988	-1.85324e-06	-2.6697e-06	-1.51358e-09	-2.66818e-06	0.2283	19545.4	11.0812	19534.3
100.032	9.65901	4.19246	10.5296	-23.4631	9.56176	0.228429	-0.010763	379.501	60.1621	1	10	0.00481739	0.000457508	0	-1.67595e-07	-6.14724e-05	6.22619e-06	60.6444	0.0136089	0.00667149	-0.0118615	-23.3894	10.531	9.66569	4.18059	0.0871176	0.0378131	0.09497	23.4631	60162.1	138608	151101	-66.5369	0.0000000E+000	0.0000000E+000	0.0000000E+000	66.5369	0.0000000E+000	0.0000000E+000	0.0000000E+000	-66.5369	0.0000000E+000	0.0000000E+000	0.0000000E+000	-23.4631	0.0000000E+000	0.0000000E+000	0.0000000E+000	23.4631	2.3039	66.5369	-7.66689e-07	-2.45857e-06	6.61626e-10	-2.45923e-06	0.22849	21223.6	5.71147	21229.3
31.6296	13.3624	3.56308	13.8293	-14.9305	10.8905	0.228413	-0.0166845	1412.22	93.7464	1	10	0.00481541	0.000348204	0	-4.73554e-06	3.40178e-05	1.31045e-05	1.97207	0.0376346	0.0376123	-0.00129509	-14.8853	13.8653	13.4	3.56179	0.0698691	0.0186306	0.0723104	14.9305	93746.4	351570	363854	-75.0695	0.0000000E+000	0.0000000E+000	0.0000000E+000	75.0695	0.0000000E+000	0.0000000E+000	0.0000000E+000	-75.0695	0.0000000E+000	0.0000000E+000	0.0000000E+000	-14.9305	0.0000000E+000	0.0000000E+000	0.0000000E+000	14.9305	3.75023	75.0695	-1.99182e-06	-3.81096e-06	-5.67569e-10	-3.81039e-06	0.228379	13690.2	2.03889	13688.1
10.0032	15.4508	2.13695	15.5978	-7.87446	12.4719	0.228477	-0.00836446	7445.38	139.748	1	11	0.00481977	0.000309002	0	-8.40533e-06	0.000263194	7.62554e-06	-85.757	0.0246779	0.00182584	0.0246103	-7.96306	15.603	15.4526	2.16156	0.0635069	0.00878346	0.0641115	7.87446	139748	1.01042e+06	1.02004e+06	-82.1255	0.0000000E+000	0.0000000E+000	0.0000000E+000	82.1255	0.0000000E+000	0.0000000E+000	0.0000000E+000	-82.1255	0.0000000E+000	0.0000000E+000	0.0000000E+000	-7.87446	0.0000000E+000	0.0000000E+000	0.0000000E+000	7.87446	7.23029	82.1255	-3.31093e-06	-1.91108e-06	-2.20148e-09	-1.90888e-06	0.228213	27315.2	31.4658	27283.7
3.1604	16.4018	1.31334	16.4543	-4.57808	13.9894	0.228476	-0.00713989	38344.3	244.285	1	11	0.00481518	0.000292639	0	-1.07428e-05	1.49197e-05	7.96031e-06	-15.3372	0.0272018	0.026233	0.00719483	-4.59573	16.481	16.428	1.32054	0.0605805	0.00485086	0.0607744	4.57808	244285	3.05078e+06	3.06055e+06	-85.4219	0.0000000E+000	0.0000000E+000	0.0000000E+000	85.4219	0.0000000E+000	0.0000000E+000	0.0000000E+000	-85.4219	0.0000000E+000	0.0000000E+000	0.0000000E+000	-4.57808	0.0000000E+000	0.0000000E+000	0.0000000E+000	4.57808	12.4886	85.4219	-4.19939e-06	-1.63129e-06	-1.06525e-10	-1.63119e-06	0.228461	32000	2.08963	31997.9
1.00006	16.9678	1.03852	16.9995	-3.50245	19.6279	0.228482	-0.0073331	153242	571.918	1	12	0.00481291	0.00028312	0	-2.17194e-05	5.31158e-05	1.55531e-06	70.9035	0.00549348	0.00179725	-0.00519117	-3.48462	17.001	16.9696	1.03333	0.0587152	0.00359369	0.0588251	3.50245	571918	9.34422e+06	9.36171e+06	-86.4976	0.0000000E+000	0.0000000E+000	0.0000000E+000	86.4976	0.0000000E+000	0.0000000E+000	0.0000000E+000	-86.4976	0.0000000E+000	0.0000000E+000	0.0000000E+000	-3.50245	0.0000000E+000	0.0000000E+000	0.0000000E+000	3.50245	16.3384	86.4976	-3.8613e-08	-1.67548e-06	-3.89504e-10	-1.67509e-06	0.228428	31157.6	7.24329	31150.3
0.316193	17.4323	1.39822	17.4883	-4.5858	33.9718	0.228462	-0.0047995	359990	2301.17	1	12	0.00481316	0.000275222	0	-2.33169e-05	0.000282292	6.27008e-07	75.9296	0.00227819	0.000553859	-0.00220984	-4.57844	17.4887	17.4329	1.39601	0.056998	0.00457174	0.0571811	4.5858	2.30117e+06	2.86898e+07	2.87819e+07	-85.4142	0.0000000E+000	0.0000000E+000	0.0000000E+000	85.4142	0.0000000E+000	0.0000000E+000	0.0000000E+000	-85.4142	0.0000000E+000	0.0000000E+000	0.0000000E+000	-4.5858	0.0000000E+000	0.0000000E+000	0.0000000E+000	4.5858	12.4675	85.4142	-1.0545e-05	-1.0965e-06	-1.35486e-09	-1.09515e-06	0.228179	47601.1	58.8171	47542.3
0.0999041	18.1482	2.88241	18.3757	-9.0247	79.1797	0.228476	-0.00602542	552689	13599	1	12	0.00481602	0.000262086	0	-0.000224313	1.49197e-05	3.63066e-06	67.4604	0.0138529	0.00531013	-0.0127947	-8.98271	18.3789	18.1535	2.86962	0.0537461	0.0085363	0.0544198	9.0247	1.3599e+07	8.56217e+07	8.66949e+07	-80.9753	0.0000000E+000	0.0000000E+000	0.0000000E+000	80.9753	0.0000000E+000	0.0000000E+000	0.0000000E+000	-80.9753	0.0000000E+000	0.0000000E+000	0.0000000E+000	-9.0247	0.0000000E+000	0.0000000E+000	0.0000000E+000	9.0247	6.29618	80.9753	-9.7948e-05	-1.37666e-06	-8.98976e-11	-1.37657e-06	0.228461	37918.6	2.47613	37916.1
0.0315922	19.7259	6.86093	20.885	-19.1784	222.063	0.228471	-0.00787709	734272	79242	1	12	0.00481692	0.000230641	0	-0.000357578	-4.17831e-06	2.63254e-06	13.3591	0.011414	0.0111052	-0.00263726	-19.1616	20.8946	19.737	6.8583	0.0452239	0.0157295	0.0478813	19.1784	7.92419e+07	2.27829e+08	2.41216e+08	-70.8216	0.0000000E+000	0.0000000E+000	0.0000000E+000	70.8216	0.0000000E+000	0.0000000E+000	0.0000000E+000	-70.8216	0.0000000E+000	0.0000000E+000	0.0000000E+000	-19.1784	0.0000000E+000	0.0000000E+000	0.0000000E+000	19.1784	2.8751	70.8216	3.33932e-05	-1.79968e-06	3.29129e-11	-1.79972e-06	0.228475	29004.4	0.530438	29005
0.0146812	22.3136	12.2969	25.4776	-28.8589	463.104	0.228469	-0.00772831	881585	205370	1	12	0.00481545	0.000189007	0	-0.000343578	0.000244096	9.53636e-07	-7.17693	0.0050455	0.00500597	0.000630354	-28.8547	25.4823	22.3186	12.2975	0.0343757	0.0189442	0.0392501	28.8589	2.0537e+08	3.72658e+08	4.25501e+08	-61.1411	0.0000000E+000	0.0000000E+000	0.0000000E+000	61.1411	0.0000000E+000	0.0000000E+000	0.0000000E+000	-61.1411	0.0000000E+000	0.0000000E+000	0.0000000E+000	-28.8589	0.0000000E+000	0.0000000E+000	0.0000000E+000	28.8589	1.81457	61.1411	-7.06766e-05	-1.76568e-06	-1.88645e-09	-1.76379e-06	0.228225	29562.7	31.5847	29531.1

0.0100092	24.1753	16.7278	29.3984	-34.6809	673.286	0.228465	-0.00817789	950567	307762	1	12	0.00481914	0.000163925	0	-0.000889378	-4.17831e-06	3.81241e-06	-26.9936	0.023257	0.0207233	0.0105561	-34.6748	29.4214	24.196	16.7384	0.0279721	0.019355	0.0340155	34.6809	3.07762e+08	4.44782e+08	5.40878e+08	-55.3191	0.0000000E+000	0.0000000E+000	0.0000000E+000	55.3191	0.0000000E+000	0.0000000E+000	0.0000000E+000	-55.3191	0.0000000E+000	0.0000000E+000	0.0000000E+000	-34.6809	0.0000000E+000	0.0000000E+000	0.0000000E+000	34.6809	1.44521	55.3191	-0.0005458	-1.86836e-06	3.41698e-11	-1.86839e-06	0.228469	27936.9	0.510928	27937.4