File: txt/18937_R306_UA703_SOC00_C04.mpt
EC-Lab ASCII FILE
Nb header lines : 65

Potentio Electrochemical Impedance Spectroscopy

Run on channel : 4 (SN 66756)
Grouped channel(s) : 1, 2, 3, 4, 5
User :
CE vs. WE compliance from -10 V to 10 V
Electrode connection : standard
Potential control : Ewe
Ewe ctrl range : min = -10.00 V, max = 10.00 V
Safety Limits :
	Do not start on E overload
Acquisition started on : 11/04/2025 15:05:27.163
Loaded Setting File :  C:\Users\Celltest\OneDrive - store-dot.com\Documents\EC-Lab\Data\@Biologic Test Protocols\anode half cell EIS SOC00.mps
Saved on :
	File : 18934_R306_UA703_SOC00_C04.mpr
	Directory : C:\Users\Celltest\OneDrive - store-dot.com\Documents\EC-Lab\Data\Charmaine\
	Host : 169.254.61.224
Device : VMP-3e (SN .003165)
Address : USB
EC-LAB for windows v11.62 (software)
Internet server v27.00 (firmware)
Command interpretor v12.03 (firmware)
Electrode material :
Initial state :
Electrolyte :
Comments :
Electrode surface area : 0.001 cm²
Characteristic mass : 0.001 g
Equivalent Weight : 0.000 g/eq.
Density : 0.000 g/cm3
Volume (V) : 0.001 cm³
Record Ece
Cycle Definition : Charge/Discharge alternance
Mode                Single sine
E (V)               0.0000
vs.                 Eoc
tE (h:m:s)          0:00:0.0000
record              0
dI                  0.000
unit dI             mA
dt (s)              0.000
fi                  100.000
unit fi             kHz
ff                  10.000
unit ff             mHz
Nd                  6
Points              per decade
spacing             Logarithmic
Va (mV)             5.0
pw                  0.10
Na                  2
corr                0
E range min (V)     -10.000
E range max (V)     10.000
I Range             Auto
Bandwidth           5
nc cycles           0
goto Ns'            0
nr cycles           0
inc. cycle          0

freq/Hz	Re(Z)/Ohm	-Im(Z)/Ohm	|Z|/Ohm	Phase(Z)/deg	time/s	<Ewe>/V	<I>/mA	Cs/µF	Cp/µF	cycle number	I Range	|Ewe|/V	|I|/A	Ns	(Q-Qo)/mA.h	<Ece>/V	|Ece|/V	Phase(Zce)/deg	|Zce|/Ohm	Re(Zce)/Ohm	-Im(Zce)/Ohm	Phase(Zwe-ce)/deg	|Zwe-ce|/Ohm	Re(Zwe-ce)/Ohm	-Im(Zwe-ce)/Ohm	Re(Y)/Ohm-1	Im(Y)/Ohm-1	|Y|/Ohm-1	Phase(Y)/deg	Re(C)/nF	Im(C)/nF	|C|/nF	Phase(C)/deg	Re(M)	Im(M)	|M|	Phase(M)/deg	Re(Permittivity)	Im(Permittivity)	|Permittivity|	Phase(Permittivity)/deg	Re(Resistivity)/Ohm.cm	Im(Resistivity)/Ohm.cm	|Resistivity|/Ohm.cm	Phase(Resistivity)/deg	Re(Conductivity)/mS/cm	Im(Conductivity)/mS/cm	|Conductivity|/mS/cm	Phase(Conductivity)/deg	Tan(Delta)	Loss Angle(Delta)/deg	dq/mA.h	Pwe/W	Pce/W	Pwe-ce/W	<Ewe-Ece>/V	Rwe/Ohm	Rce/Ohm	Rwe-ce/Ohm		Ewe-Ece/V
100004	1.4025	0.50247	1.48979	-19.711	2.05354	0.246619	-0.012368	3.16733	0.360298	1	9	0.00483682	0.00324664	0	-1.06886e-06	-0.000190262	4.22192e-05	43.2708	0.013004	0.00946848	-0.00891354	-19.2672	1.49575	1.41197	0.493557	0.631904	0.226391	0.671234	19.711	360.298	1005.67	1068.26	-70.289	0.0000000E+000	0.0000000E+000	0.0000000E+000	70.289	0.0000000E+000	0.0000000E+000	0.0000000E+000	-70.289	0.0000000E+000	0.0000000E+000	0.0000000E+000	-19.711	0.0000000E+000	0.0000000E+000	0.0000000E+000	19.711	2.79121	70.289	-1.06886e-06	-3.05019e-06	2.35316e-09	-3.05254e-06	0.24681	19940.1	15.3834	19955.5
31621.1	1.87655	0.747685	2.02002	-21.7241	3.32856	0.246609	-0.0112118	6.73169	0.922253	1	9	0.00543105	0.00268861	0	-1.08187e-05	-3.73825e-05	1.11489e-05	5.51923	0.00414671	0.00412749	-0.00039883	-21.6704	2.02371	1.88068	0.747286	0.459885	0.183235	0.495045	21.7241	922.253	2314.69	2491.65	-68.2759	0.0000000E+000	0.0000000E+000	0.0000000E+000	68.2759	0.0000000E+000	0.0000000E+000	0.0000000E+000	-68.2759	0.0000000E+000	0.0000000E+000	0.0000000E+000	-21.7241	0.0000000E+000	0.0000000E+000	0.0000000E+000	21.7241	2.50982	68.2759	-3.94602e-07	-2.76492e-06	4.19125e-10	-2.76534e-06	0.246646	21995.5	3.33421	21998.8
10002.2	2.47129	0.992667	2.6632	-21.8843	4.60152	0.246586	-0.0141956	16.0295	2.22699	1	9	0.00542931	0.00203864	0	-1.35646e-05	-9.47124e-05	1.18657e-05	-53.0801	0.00582038	0.00349629	0.00465326	-21.9491	2.66818	2.47479	0.99732	0.348429	0.139957	0.375488	21.8843	2226.99	5544.19	5974.74	-68.1157	0.0000000E+000	0.0000000E+000	0.0000000E+000	68.1157	0.0000000E+000	0.0000000E+000	0.0000000E+000	-68.1157	0.0000000E+000	0.0000000E+000	0.0000000E+000	-21.8843	0.0000000E+000	0.0000000E+000	0.0000000E+000	21.8843	2.48954	68.1157	-3.59309e-06	-3.50043e-06	1.3445e-09	-3.50178e-06	0.246681	17370.6	6.67196	17377.3
3163.08	3.22359	1.38602	3.50893	-23.2659	5.92866	0.246594	-0.0216178	36.3028	5.66408	1	9	0.00510433	0.00145467	0	-1.82053e-05	-0.000362252	9.73602e-06	6.69041	0.00669296	0.00664738	-0.00077976	-23.2114	3.51473	3.23024	1.38524	0.261812	0.112569	0.284987	23.2659	5664.08	13173.5	14339.5	-66.7341	0.0000000E+000	0.0000000E+000	0.0000000E+000	66.7341	0.0000000E+000	0.0000000E+000	0.0000000E+000	-66.7341	0.0000000E+000	0.0000000E+000	0.0000000E+000	-23.2659	0.0000000E+000	0.0000000E+000	0.0000000E+000	23.2659	2.32579	66.7341	-3.2283e-06	-5.33081e-06	7.83108e-09	-5.33864e-06	0.246956	11407	16.7571	11423.8
1000.32	4.24743	2.11376	4.74432	-26.4575	7.52686	0.246601	-0.00578773	75.2708	14.9413	1	10	0.00533528	0.00112456	0	-2.1941e-05	-0.000132932	3.84133e-06	-85.7045	0.00341584	0.000255847	0.00340625	-26.4929	4.74607	4.24768	2.11716	0.188702	0.0939088	0.210778	26.4575	14941.3	30023.3	33535.7	-63.5425	0.0000000E+000	0.0000000E+000	0.0000000E+000	63.5425	0.0000000E+000	0.0000000E+000	0.0000000E+000	-63.5425	0.0000000E+000	0.0000000E+000	0.0000000E+000	-26.4575	0.0000000E+000	0.0000000E+000	0.0000000E+000	26.4575	2.00942	63.5425	-7.7267e-07	-1.42726e-06	7.69376e-10	-1.42803e-06	0.246734	42607.5	22.9679	42630.5
316.316	5.87806	3.65286	6.92062	-31.8585	8.87605	0.246594	-0.00596307	137.742	38.3745	1	10	0.00509927	0.000736824	0	-2.3525e-05	-0.000400472	5.39655e-06	42.0231	0.00732408	0.00544087	-0.00490296	-31.8002	6.92265	5.8835	3.64796	0.122728	0.0762682	0.144496	31.8585	38374.5	61750.9	72703.3	-58.1415	0.0000000E+000	0.0000000E+000	0.0000000E+000	58.1415	0.0000000E+000	0.0000000E+000	0.0000000E+000	-58.1415	0.0000000E+000	0.0000000E+000	0.0000000E+000	-31.8585	0.0000000E+000	0.0000000E+000	0.0000000E+000	31.8585	1.60917	58.1415	-9.13018e-07	-1.47046e-06	2.38804e-09	-1.47285e-06	0.246994	41353.5	67.1586	41420.6
100.032	9.51629	5.90865	11.2014	-31.8361	10.2238	0.246602	-0.00577284	269.273	74.9243	1	10	0.00500453	0.000446776	0	-2.64203e-05	3.90573e-05	2.86162e-06	-84.2387	0.00640504	0.000642965	0.00637269	-31.862	11.2053	9.51693	5.91502	0.075844	0.0470914	0.0892744	31.8361	74924.3	120671	142039	-58.1639	0.0000000E+000	0.0000000E+000	0.0000000E+000	58.1639	0.0000000E+000	0.0000000E+000	0.0000000E+000	-58.1639	0.0000000E+000	0.0000000E+000	0.0000000E+000	-31.8361	0.0000000E+000	0.0000000E+000	0.0000000E+000	31.8361	1.61057	58.1639	-4.14647e-07	-1.42359e-06	-2.25472e-10	-1.42337e-06	0.246563	42717.6	6.76571	42710.8
31.6296	15.249	6.45284	16.5582	-22.9363	11.5535	0.246594	-0.00708213	779.787	118.428	1	10	0.00499089	0.000301416	0	-2.90601e-05	-0.000228482	6.26125e-06	34.0413	0.0207728	0.0172131	-0.0116284	-22.8761	16.5695	15.2663	6.44121	0.0556184	0.0235357	0.0603932	22.9363	118428	279863	303889	-67.0637	0.0000000E+000	0.0000000E+000	0.0000000E+000	67.0637	0.0000000E+000	0.0000000E+000	0.0000000E+000	-67.0637	0.0000000E+000	0.0000000E+000	0.0000000E+000	-22.9363	0.0000000E+000	0.0000000E+000	0.0000000E+000	22.9363	2.36315	67.0637	-1.44881e-06	-1.74641e-06	1.61814e-09	-1.74803e-06	0.246822	34819.1	32.2618	34851.4
10.0032	19.8646	4.94033	20.4697	-13.9662	13.1168	0.246605	-0.00249126	3220.51	187.592	1	11	0.00499075	0.000243812	0	-2.96149e-05	-0.000247592	9.84971e-06	100.376	0.0403988	-0.00727634	-0.0397381	-13.863	20.4531	19.8573	4.90059	0.0474086	0.0117905	0.0488527	13.9662	187592	754289	777266	-76.0339	0.0000000E+000	0.0000000E+000	0.0000000E+000	76.0339	0.0000000E+000	0.0000000E+000	0.0000000E+000	-76.0339	0.0000000E+000	0.0000000E+000	0.0000000E+000	-13.9662	0.0000000E+000	0.0000000E+000	0.0000000E+000	13.9662	4.0209	76.0339	1.56883e-06	-6.14358e-07	6.16817e-10	-6.14975e-07	0.246853	98987.9	99.3841	99087.3
3.1604	22.7878	3.46802	23.0502	-8.6533	14.6334	0.246613	-0.0017951	14521	328.709	1	11	0.00498879	0.000216432	0	-3.09505e-05	-0.000228482	2.68471e-06	69.2225	0.0124044	0.00440033	-0.0115977	-8.62316	23.0528	22.7922	3.45642	0.0428898	0.00652728	0.0433836	8.6533	328709	2.15989e+06	2.18476e+06	-81.3467	0.0000000E+000	0.0000000E+000	0.0000000E+000	81.3467	0.0000000E+000	0.0000000E+000	0.0000000E+000	-81.3467	0.0000000E+000	0.0000000E+000	0.0000000E+000	-8.6533	0.0000000E+000	0.0000000E+000	0.0000000E+000	8.6533	6.57084	81.3467	1.89563e-06	-4.42695e-07	4.10148e-10	-4.43105e-07	0.246841	137381	127.281	137508
1.00006	24.6864	2.52032	24.8147	-5.82933	20.2726	0.246622	-0.000473774	63144.6	651.372	1	12	0.00499559	0.000201315	0	-3.27097e-05	1.99474e-05	3.68375e-06	-47.0886	0.0182984	0.0124588	0.0134019	-5.85718	24.8285	24.6989	2.53372	0.0400902	0.00409295	0.0402986	5.82933	651372	6.38015e+06	6.41332e+06	-84.1707	0.0000000E+000	0.0000000E+000	0.0000000E+000	84.1707	0.0000000E+000	0.0000000E+000	0.0000000E+000	-84.1707	0.0000000E+000	0.0000000E+000	0.0000000E+000	-5.82933	0.0000000E+000	0.0000000E+000	0.0000000E+000	5.82933	9.79494	84.1707	-5.23797e-06	-1.16843e-07	-9.45054e-12	-1.16833e-07	0.246602	520547	42.1032	520505
0.316193	25.9115	2.36251	26.019	-5.20961	34.6149	0.246615	-0.00248488	213056	1756.55	1	12	0.00499202	0.000191861	0	-5.45369e-05	8.3741e-07	3.68582e-06	4.93993	0.019211	0.0191396	-0.00165428	-5.20216	26.0379	25.9307	2.36086	0.0382747	0.00348974	0.0384335	5.20961	1.75655e+06	1.92655e+07	1.93454e+07	-84.7904	0.0000000E+000	0.0000000E+000	0.0000000E+000	84.7904	0.0000000E+000	0.0000000E+000	0.0000000E+000	-84.7904	0.0000000E+000	0.0000000E+000	0.0000000E+000	-5.20961	0.0000000E+000	0.0000000E+000	0.0000000E+000	5.20961	10.9678	84.7904	-3.1034e-06	-6.12809e-07	-2.08086e-12	-6.12807e-07	0.246614	99246.3	0.337002	99246
0.0999041	27.1097	3.71124	27.3626	-7.79517	79.8229	0.246602	-0.00204717	429257	7896.64	1	12	0.00499406	0.000182514	0	1.12244e-05	1.99474e-05	3.67523e-06	46.7713	0.0201367	0.0137919	-0.0146721	-7.76083	27.3743	27.1235	3.69657	0.0362085	0.00495684	0.0365463	7.79517	7.89663e+06	5.7683e+07	5.8221e+07	-82.2048	0.0000000E+000	0.0000000E+000	0.0000000E+000	82.2048	0.0000000E+000	0.0000000E+000	0.0000000E+000	-82.2048	0.0000000E+000	0.0000000E+000	0.0000000E+000	-7.79517	0.0000000E+000	0.0000000E+000	0.0000000E+000	7.79517	7.30476	82.2048	3.1869e-05	-5.04836e-07	-4.08356e-11	-5.04795e-07	0.246582	120460	9.74389	120451
0.0315922	29.3319	7.90831	30.3793	-15.089	222.706	0.246608	-0.00168096	637025	43168.5	1	12	0.00498668	0.000164147	0	-0.000167168	3.90573e-05	2.12408e-06	12.32	0.0129401	0.0126421	-0.00276105	-15.0777	30.3908	29.3446	7.90555	0.0317822	0.00856894	0.0329171	15.089	4.31685e+07	1.60112e+08	1.6583e+08	-74.911	0.0000000E+000	0.0000000E+000	0.0000000E+000	74.911	0.0000000E+000	0.0000000E+000	0.0000000E+000	-74.911	0.0000000E+000	0.0000000E+000	0.0000000E+000	-15.089	0.0000000E+000	0.0000000E+000	0.0000000E+000	15.089	3.709	74.911	-0.000154266	-4.14538e-07	-6.56539e-11	-4.14473e-07	0.246568	146706	23.2351	146683
0.0100092	34.7729	17.7161	39.0258	-26.998	673.928	0.246615	-0.00423969	897539	184964	1	12	0.00499142	0.0001279	0	-0.00101573	-0.000113822	2.55555e-06	0.0680611	0.0199808	0.0199808	-2.3735e-05	-26.9846	39.0436	34.7929	17.7161	0.0228316	0.0116323	0.0256241	26.998	1.84964e+08	3.63043e+08	4.07446e+08	-63.002	0.0000000E+000	0.0000000E+000	0.0000000E+000	63.002	0.0000000E+000	0.0000000E+000	0.0000000E+000	-63.002	0.0000000E+000	0.0000000E+000	0.0000000E+000	-26.998	0.0000000E+000	0.0000000E+000	0.0000000E+000	26.998	1.96278	63.002	-0.000236094	-1.04557e-06	4.82571e-10	-1.04606e-06	0.246729	58168.3	26.8468	58195.1