File: txt/18935_R306_UA703_SOC00_C02.mpt
EC-Lab ASCII FILE
Nb header lines : 65

Potentio Electrochemical Impedance Spectroscopy

Run on channel : 2 (SN 66139)
Grouped channel(s) : 1, 2, 3, 4, 5
User :
CE vs. WE compliance from -10 V to 10 V
Electrode connection : standard
Potential control : Ewe
Ewe ctrl range : min = -10.00 V, max = 10.00 V
Safety Limits :
	Do not start on E overload
Acquisition started on : 11/04/2025 15:05:27.163
Loaded Setting File :  C:\Users\Celltest\OneDrive - store-dot.com\Documents\EC-Lab\Data\@Biologic Test Protocols\anode half cell EIS SOC00.mps
Saved on :
	File : 18934_R306_UA703_SOC00_C02.mpr
	Directory : C:\Users\Celltest\OneDrive - store-dot.com\Documents\EC-Lab\Data\Charmaine\
	Host : 169.254.61.224
Device : VMP-3e (SN .003165)
Address : USB
EC-LAB for windows v11.62 (software)
Internet server v27.00 (firmware)
Command interpretor v12.03 (firmware)
Electrode material :
Initial state :
Electrolyte :
Comments :
Electrode surface area : 0.001 cm²
Characteristic mass : 0.001 g
Equivalent Weight : 0.000 g/eq.
Density : 0.000 g/cm3
Volume (V) : 0.001 cm³
Record Ece
Cycle Definition : Charge/Discharge alternance
Mode                Single sine
E (V)               0.0000
vs.                 Eoc
tE (h:m:s)          0:00:0.0000
record              0
dI                  0.000
unit dI             mA
dt (s)              0.000
fi                  100.000
unit fi             kHz
ff                  10.000
unit ff             mHz
Nd                  6
Points              per decade
spacing             Logarithmic
Va (mV)             5.0
pw                  0.10
Na                  2
corr                0
E range min (V)     -10.000
E range max (V)     10.000
I Range             Auto
Bandwidth           5
nc cycles           0
goto Ns'            0
nr cycles           0
inc. cycle          0

freq/Hz	Re(Z)/Ohm	-Im(Z)/Ohm	|Z|/Ohm	Phase(Z)/deg	time/s	<Ewe>/V	<I>/mA	Cs/µF	Cp/µF	cycle number	I Range	|Ewe|/V	|I|/A	Ns	(Q-Qo)/mA.h	<Ece>/V	|Ece|/V	Phase(Zce)/deg	|Zce|/Ohm	Re(Zce)/Ohm	-Im(Zce)/Ohm	Phase(Zwe-ce)/deg	|Zwe-ce|/Ohm	Re(Zwe-ce)/Ohm	-Im(Zwe-ce)/Ohm	Re(Y)/Ohm-1	Im(Y)/Ohm-1	|Y|/Ohm-1	Phase(Y)/deg	Re(C)/nF	Im(C)/nF	|C|/nF	Phase(C)/deg	Re(M)	Im(M)	|M|	Phase(M)/deg	Re(Permittivity)	Im(Permittivity)	|Permittivity|	Phase(Permittivity)/deg	Re(Resistivity)/Ohm.cm	Im(Resistivity)/Ohm.cm	|Resistivity|/Ohm.cm	Phase(Resistivity)/deg	Re(Conductivity)/mS/cm	Im(Conductivity)/mS/cm	|Conductivity|/mS/cm	Phase(Conductivity)/deg	Tan(Delta)	Loss Angle(Delta)/deg	dq/mA.h	Pwe/W	Pce/W	Pwe-ce/W	<Ewe-Ece>/V	Rwe/Ohm	Rce/Ohm	Rwe-ce/Ohm		Ewe-Ece/V
100004	1.62363	0.617426	1.73706	-20.8206	1.86853	0.246514	0.0153849	2.57762	0.325655	1	9	0.00495847	0.00285451	0	-7.70083e-06	-0.000109239	2.5057e-05	52.585	0.00877802	0.00533338	-0.006972	-20.5435	1.73959	1.62896	0.610454	0.538091	0.204623	0.575685	20.8206	325.655	856.367	916.196	-69.1794	0.0000000E+000	0.0000000E+000	0.0000000E+000	69.1794	0.0000000E+000	0.0000000E+000	0.0000000E+000	-69.1794	0.0000000E+000	0.0000000E+000	0.0000000E+000	-20.8206	0.0000000E+000	0.0000000E+000	0.0000000E+000	20.8206	2.62967	69.1794	-7.70083e-06	3.79258e-06	-1.68063e-09	3.79426e-06	0.246623	16023.2	7.10042	16030.3
31621.1	2.20702	0.923764	2.39255	-22.7121	3.01753	0.246514	0.0170237	5.44856	0.812237	1	9	0.00542286	0.00226657	0	-1.38397e-05	0.000291669	1.07916e-05	-7.17827	0.00476121	0.00472389	0.000594946	-22.6816	2.39713	2.21174	0.924359	0.385554	0.161376	0.417965	22.7121	812.237	1940.57	2103.69	-67.2879	0.0000000E+000	0.0000000E+000	0.0000000E+000	67.2879	0.0000000E+000	0.0000000E+000	0.0000000E+000	-67.2879	0.0000000E+000	0.0000000E+000	0.0000000E+000	-22.7121	0.0000000E+000	0.0000000E+000	0.0000000E+000	22.7121	2.38916	67.2879	-2.18435e-06	4.19657e-06	4.96527e-09	4.19161e-06	0.246223	14480.7	17.1331	14463.5
10002.2	2.93145	1.20305	3.16872	-22.313	4.16654	0.246492	0.00815912	13.2263	1.90652	1	9	0.0052092	0.00164395	0	-2.13488e-05	0.000196215	2.4956e-06	104.239	0.00151805	-0.000373388	-0.00147142	-22.2909	3.16781	2.93108	1.20158	0.291955	0.119817	0.315585	22.313	1906.52	4645.58	5021.58	-67.687	0.0000000E+000	0.0000000E+000	0.0000000E+000	67.687	0.0000000E+000	0.0000000E+000	0.0000000E+000	-67.687	0.0000000E+000	0.0000000E+000	0.0000000E+000	-22.313	0.0000000E+000	0.0000000E+000	0.0000000E+000	22.313	2.43668	67.687	4.53428e-07	2.01116e-06	1.60094e-09	2.00956e-06	0.246296	30210.6	24.0485	30186.6
3163.08	3.84825	1.65993	4.19099	-23.3327	5.39761	0.246451	-0.0133286	30.3125	4.75516	1	10	0.00525893	0.00125482	0	-2.57103e-05	2.4397e-05	1.2964e-05	20.3399	0.0103314	0.0096872	-0.00359107	-23.2354	4.19847	3.85794	1.65633	0.219094	0.094505	0.238607	23.3327	4755.16	11024	12005.9	-66.6673	0.0000000E+000	0.0000000E+000	0.0000000E+000	66.6673	0.0000000E+000	0.0000000E+000	0.0000000E+000	-66.6673	0.0000000E+000	0.0000000E+000	0.0000000E+000	-23.3327	0.0000000E+000	0.0000000E+000	0.0000000E+000	23.3327	2.31833	66.6673	-2.19938e-06	-3.28485e-06	-3.25177e-10	-3.28452e-06	0.246427	18490.5	1.83043	18488.6
1000.32	5.11827	2.43606	5.66843	-25.4523	6.75077	0.246459	-0.011466	65.3119	12.0627	1	10	0.00505777	0.00089227	0	-3.04994e-05	-9.01481e-05	6.39466e-06	-132.422	0.00716673	-0.00483455	0.00529048	-25.5216	5.66634	5.11344	2.44135	0.159293	0.0758163	0.176416	25.4523	12062.7	25344.2	28068.4	-64.5477	0.0000000E+000	0.0000000E+000	0.0000000E+000	64.5477	0.0000000E+000	0.0000000E+000	0.0000000E+000	-64.5477	0.0000000E+000	0.0000000E+000	0.0000000E+000	-25.4523	0.0000000E+000	0.0000000E+000	0.0000000E+000	25.4523	2.10104	64.5477	-1.34694e-06	-2.82589e-06	1.03364e-09	-2.82693e-06	0.246549	21494.8	7.86223	21502.7
316.316	7.033	3.96761	8.07497	-29.4291	8.10002	0.246459	-0.0120844	126.815	30.6159	1	10	0.00495727	0.000613906	0	-3.52209e-05	0.000138942	3.93363e-06	-65.0927	0.00640754	0.00269854	0.00581158	-29.4556	8.08017	7.0357	3.97342	0.10786	0.0608482	0.12384	29.4291	30615.9	54269.9	62310.1	-60.5709	0.0000000E+000	0.0000000E+000	0.0000000E+000	60.5709	0.0000000E+000	0.0000000E+000	0.0000000E+000	-60.5709	0.0000000E+000	0.0000000E+000	0.0000000E+000	-29.4291	0.0000000E+000	0.0000000E+000	0.0000000E+000	29.4291	1.77261	60.5709	-1.26012e-06	-2.9783e-06	-1.67903e-09	-2.97662e-06	0.24632	20394.8	11.4977	20383.4
100.032	10.8971	6.22534	12.55	-29.7387	9.44686	0.246456	-0.0110748	255.575	62.8868	1	10	0.00491775	0.000391854	0	-3.86693e-05	8.16695e-05	6.10853e-06	1.73193	0.0155888	0.0155817	-0.000471143	-29.7015	12.5633	10.9127	6.22487	0.0691873	0.0395256	0.0796816	29.7387	62886.8	110080	126777	-60.2613	0.0000000E+000	0.0000000E+000	0.0000000E+000	60.2613	0.0000000E+000	0.0000000E+000	0.0000000E+000	-60.2613	0.0000000E+000	0.0000000E+000	0.0000000E+000	-29.7387	0.0000000E+000	0.0000000E+000	0.0000000E+000	29.7387	1.75044	60.2613	-1.82268e-06	-2.72946e-06	-9.04477e-10	-2.72855e-06	0.246374	22253.6	7.37433	22246.3
31.6296	16.9522	6.91815	18.3095	-22.2003	11.0105	0.246473	-0.00654762	727.339	103.84	1	11	0.00491556	0.00026847	0	-4.2639e-05	8.16695e-05	1.11513e-05	39.3907	0.0415363	0.0321007	-0.0263591	-22.0861	18.3293	16.9843	6.89179	0.0505677	0.0206366	0.0546165	22.2003	103840	254449	274822	-67.7997	0.0000000E+000	0.0000000E+000	0.0000000E+000	67.7997	0.0000000E+000	0.0000000E+000	0.0000000E+000	-67.7997	0.0000000E+000	0.0000000E+000	0.0000000E+000	-22.2003	0.0000000E+000	0.0000000E+000	0.0000000E+000	22.2003	2.45039	67.7997	-1.27937e-06	-1.61381e-06	-5.34741e-10	-1.61328e-06	0.246391	37643.1	12.4732	37630.7
10.0032	21.9361	5.30877	22.5693	-13.6046	12.3418	0.246469	-0.00612518	2997	165.82	1	11	0.00491584	0.000217811	0	-4.50853e-05	-0.000147421	9.84052e-06	-55.0257	0.0451793	0.0258972	0.0370203	-13.6804	22.6032	21.962	5.34579	0.0430647	0.0104221	0.0443079	13.6046	165820	685177	704956	-76.3954	0.0000000E+000	0.0000000E+000	0.0000000E+000	76.3954	0.0000000E+000	0.0000000E+000	0.0000000E+000	-76.3954	0.0000000E+000	0.0000000E+000	0.0000000E+000	-13.6046	0.0000000E+000	0.0000000E+000	0.0000000E+000	13.6046	4.13205	76.3954	-2.20158e-06	-1.50967e-06	9.02978e-10	-1.51057e-06	0.246616	40238.7	24.068	40262.7
3.1604	25.0542	3.72985	25.3303	-8.46751	13.8585	0.246488	-0.00491136	13501.7	292.745	1	11	0.00491177	0.000193909	0	-4.88906e-05	0.000215305	6.63658e-06	-39.2144	0.0342252	0.0265172	0.021638	-8.50704	25.3597	25.0807	3.75148	0.0390481	0.00581314	0.0394784	8.46751	292745	1.96643e+06	1.9881e+06	-81.5325	0.0000000E+000	0.0000000E+000	0.0000000E+000	81.5325	0.0000000E+000	0.0000000E+000	0.0000000E+000	-81.5325	0.0000000E+000	0.0000000E+000	0.0000000E+000	-8.46751	0.0000000E+000	0.0000000E+000	0.0000000E+000	8.46751	6.71721	81.5325	-3.56268e-06	-1.21059e-06	-1.05744e-09	-1.20953e-06	0.246272	50187.3	43.8382	50143.4
1.00006	27.1237	2.70007	27.2578	-5.68486	19.4958	0.246489	-0.004521	58941.1	578.344	1	12	0.00491658	0.000180373	0	-4.72057e-05	5.30614e-06	2.0071e-06	-58.9574	0.0111275	0.00573815	0.00953383	-5.7036	27.2644	27.1294	2.7096	0.0365064	0.00363407	0.0366868	5.68486	578344	5.8098e+06	5.83851e+06	-84.3151	0.0000000E+000	0.0000000E+000	0.0000000E+000	84.3151	0.0000000E+000	0.0000000E+000	0.0000000E+000	-84.3151	0.0000000E+000	0.0000000E+000	0.0000000E+000	-5.68486	0.0000000E+000	0.0000000E+000	0.0000000E+000	5.68486	10.0456	84.3151	2.16705e-06	-1.11438e-06	-2.3989e-11	-1.11435e-06	0.246484	54520.9	1.17366	54519.7
0.316193	28.4151	2.53884	28.5283	-5.10573	33.839	0.246485	-0.00287591	198259	1570.19	1	12	0.00491251	0.000172198	0	-7.46364e-05	0.000138942	1.86152e-06	30.0591	0.0108104	0.00935648	-0.00541484	-5.09323	28.5371	28.4245	2.53343	0.0349138	0.00311949	0.0350529	5.10573	1.57019e+06	1.75738e+07	1.76438e+07	-84.8943	0.0000000E+000	0.0000000E+000	0.0000000E+000	84.8943	0.0000000E+000	0.0000000E+000	0.0000000E+000	-84.8943	0.0000000E+000	0.0000000E+000	0.0000000E+000	-5.10573	0.0000000E+000	0.0000000E+000	0.0000000E+000	5.10573	11.1921	84.8943	-1.93254e-05	-7.08868e-07	-3.99584e-10	-7.08468e-07	0.246346	85706.9	48.3124	85658.6
0.0999041	29.8566	4.01496	30.1253	-7.6589	79.047	0.24648	-0.00466522	396786	7047.82	1	12	0.00491102	0.00016302	0	-0.000168981	8.16695e-05	1.99185e-06	-19.0536	0.0122185	0.0115491	0.00398874	-7.66349	30.1373	29.8681	4.01894	0.0328986	0.00442403	0.0331947	7.6589	7.04782e+06	5.241e+07	5.28817e+07	-82.3411	0.0000000E+000	0.0000000E+000	0.0000000E+000	82.3411	0.0000000E+000	0.0000000E+000	0.0000000E+000	-82.3411	0.0000000E+000	0.0000000E+000	0.0000000E+000	-7.6589	0.0000000E+000	0.0000000E+000	0.0000000E+000	7.6589	7.43633	82.3411	-2.77948e-05	-1.14988e-06	-3.81006e-10	-1.1495e-06	0.246398	52833.5	17.5061	52816
0.0315922	32.3702	8.09559	33.3672	-14.0413	221.932	0.246478	-0.00339988	622288	36631.1	1	12	0.00491304	0.000147242	0	-8.18057e-05	-0.000300147	2.61168e-06	9.41209	0.0177374	0.0174986	-0.00290066	-14.0292	33.3835	32.3877	8.09269	0.0290741	0.00727126	0.0299696	14.0413	3.66311e+07	1.46469e+08	1.5098e+08	-75.9587	0.0000000E+000	0.0000000E+000	0.0000000E+000	75.9587	0.0000000E+000	0.0000000E+000	0.0000000E+000	-75.9587	0.0000000E+000	0.0000000E+000	0.0000000E+000	-14.0413	0.0000000E+000	0.0000000E+000	0.0000000E+000	14.0413	3.9985	75.9587	5.95674e-05	-8.37995e-07	1.02047e-09	-8.39016e-07	0.246778	72496	88.2817	72584.3
0.0100092	37.6028	18.4915	41.9035	-26.186	673.155	0.24648	-0.00349175	859906	167453	1	12	0.00491332	0.000117253	0	-0.000749733	0.000253487	1.62829e-06	18.1088	0.0138869	0.0131991	-0.00431638	-26.1727	41.9134	37.616	18.4871	0.0214151	0.010531	0.0238644	26.186	1.67453e+08	3.40519e+08	3.79465e+08	-63.814	0.0000000E+000	0.0000000E+000	0.0000000E+000	63.814	0.0000000E+000	0.0000000E+000	0.0000000E+000	-63.814	0.0000000E+000	0.0000000E+000	0.0000000E+000	-26.186	0.0000000E+000	0.0000000E+000	0.0000000E+000	26.186	2.03352	63.814	-0.000491661	-8.60646e-07	-8.85113e-10	-8.59761e-07	0.246226	70589.3	72.596	70516.7