File: txt/18943_R308_UA704_SOC00_C08.mpt
EC-Lab ASCII FILE
Nb header lines : 65

Potentio Electrochemical Impedance Spectroscopy

Run on channel : 8 (SN 65398)
Grouped channel(s) : 7, 8
User :
CE vs. WE compliance from -10 V to 10 V
Electrode connection : standard
Potential control : Ewe
Ewe ctrl range : min = -10.00 V, max = 10.00 V
Safety Limits :
	Do not start on E overload
Acquisition started on : 11/04/2025 15:28:53.628
Loaded Setting File :  C:\Users\Celltest\OneDrive - store-dot.com\Documents\EC-Lab\Data\@Biologic Test Protocols\anode half cell EIS SOC00.mps
Saved on :
	File : 18942_R308_UA704_SOC00_C08.mpr
	Directory : C:\Users\Celltest\OneDrive - store-dot.com\Documents\EC-Lab\Data\Charmaine\
	Host : 169.254.61.224
Device : VMP-3e (SN .003165)
Address : USB
EC-LAB for windows v11.62 (software)
Internet server v27.00 (firmware)
Command interpretor v12.03 (firmware)
Electrode material :
Initial state :
Electrolyte :
Comments :
Electrode surface area : 0.001 cm²
Characteristic mass : 0.001 g
Equivalent Weight : 0.000 g/eq.
Density : 0.000 g/cm3
Volume (V) : 0.001 cm³
Record Ece
Cycle Definition : Charge/Discharge alternance
Mode                Single sine
E (V)               0.0000
vs.                 Eoc
tE (h:m:s)          0:00:0.0000
record              0
dI                  0.000
unit dI             mA
dt (s)              0.000
fi                  100.000
unit fi             kHz
ff                  10.000
unit ff             mHz
Nd                  6
Points              per decade
spacing             Logarithmic
Va (mV)             5.0
pw                  0.10
Na                  2
corr                0
E range min (V)     -10.000
E range max (V)     10.000
I Range             Auto
Bandwidth           5
nc cycles           0
goto Ns'            0
nr cycles           0
inc. cycle          0

freq/Hz	Re(Z)/Ohm	-Im(Z)/Ohm	|Z|/Ohm	Phase(Z)/deg	time/s	<Ewe>/V	<I>/mA	Cs/µF	Cp/µF	cycle number	I Range	|Ewe|/V	|I|/A	Ns	(Q-Qo)/mA.h	<Ece>/V	|Ece|/V	Phase(Zce)/deg	|Zce|/Ohm	Re(Zce)/Ohm	-Im(Zce)/Ohm	Phase(Zwe-ce)/deg	|Zwe-ce|/Ohm	Re(Zwe-ce)/Ohm	-Im(Zwe-ce)/Ohm	Re(Y)/Ohm-1	Im(Y)/Ohm-1	|Y|/Ohm-1	Phase(Y)/deg	Re(C)/nF	Im(C)/nF	|C|/nF	Phase(C)/deg	Re(M)	Im(M)	|M|	Phase(M)/deg	Re(Permittivity)	Im(Permittivity)	|Permittivity|	Phase(Permittivity)/deg	Re(Resistivity)/Ohm.cm	Im(Resistivity)/Ohm.cm	|Resistivity|/Ohm.cm	Phase(Resistivity)/deg	Re(Conductivity)/mS/cm	Im(Conductivity)/mS/cm	|Conductivity|/mS/cm	Phase(Conductivity)/deg	Tan(Delta)	Loss Angle(Delta)/deg	dq/mA.h	Pwe/W	Pce/W	Pwe-ce/W	<Ewe-Ece>/V	Rwe/Ohm	Rce/Ohm	Rwe-ce/Ohm		Ewe-Ece/V
100004	1.49526	0.515409	1.5816	-19.0188	1.91153	0.242882	-0.0184499	3.08782	0.327916	1	9	0.00468796	0.00296406	0	-7.23135e-06	0.000305037	4.54026e-05	99.1615	0.0153177	-0.00243884	-0.0151223	-18.5274	1.57443	1.49283	0.500287	0.597756	0.206043	0.632271	19.0188	327.916	951.323	1006.25	-70.9812	0.0000000E+000	0.0000000E+000	0.0000000E+000	70.9812	0.0000000E+000	0.0000000E+000	0.0000000E+000	-70.9812	0.0000000E+000	0.0000000E+000	0.0000000E+000	-19.0188	0.0000000E+000	0.0000000E+000	0.0000000E+000	19.0188	2.90112	70.9812	-7.23135e-06	-4.48115e-06	-5.62791e-09	-4.47552e-06	0.242577	13164.4	16.5333	13147.9
31621.1	1.98244	0.702854	2.10335	-19.5214	3.43256	0.242878	-0.017185	7.16107	0.799624	1	9	0.00512806	0.00243805	0	5.4955e-06	0.000190509	1.34961e-05	4.76373	0.00553563	0.0055165	-0.000459718	-19.4596	2.10839	1.98796	0.702394	0.448103	0.15887	0.475433	19.5214	799.624	2255.38	2392.94	-70.4786	0.0000000E+000	0.0000000E+000	0.0000000E+000	70.4786	0.0000000E+000	0.0000000E+000	0.0000000E+000	-70.4786	0.0000000E+000	0.0000000E+000	0.0000000E+000	-19.5214	0.0000000E+000	0.0000000E+000	0.0000000E+000	19.5214	2.82056	70.4786	5.01211e-08	-4.17387e-06	-3.2739e-09	-4.1706e-06	0.242688	14133.1	11.0858	14122
10002.2	2.52091	0.854939	2.66194	-18.7338	4.45955	0.242877	-0.0104142	18.6118	1.91983	1	9	0.00488449	0.00183494	0	1.03329e-06	0.00038139	1.30011e-05	-116.657	0.00708528	-0.00317881	0.00633217	-18.8849	2.66097	2.51773	0.861271	0.355764	0.120654	0.375667	18.7338	1919.83	5660.9	5977.59	-71.2662	0.0000000E+000	0.0000000E+000	0.0000000E+000	71.2662	0.0000000E+000	0.0000000E+000	0.0000000E+000	-71.2662	0.0000000E+000	0.0000000E+000	0.0000000E+000	-18.7338	0.0000000E+000	0.0000000E+000	0.0000000E+000	18.7338	2.94864	71.2662	-1.90042e-06	-2.52938e-06	-3.97188e-09	-2.5254e-06	0.242495	23321.6	36.6219	23285
3163.08	3.15781	1.17855	3.37057	-20.4664	5.35768	0.242643	-0.0335168	42.6936	5.21976	1	9	0.00455243	0.00135064	0	-4.49565e-06	0.000305037	3.6979e-06	-56.1443	0.00273788	0.00152528	0.00227366	-20.4935	3.37279	3.15934	1.18082	0.277958	0.103739	0.296686	20.4664	5219.76	13985.9	14928.2	-69.5336	0.0000000E+000	0.0000000E+000	0.0000000E+000	69.5336	0.0000000E+000	0.0000000E+000	0.0000000E+000	-69.5336	0.0000000E+000	0.0000000E+000	0.0000000E+000	-20.4664	0.0000000E+000	0.0000000E+000	0.0000000E+000	20.4664	2.67941	69.5336	-2.30939e-06	-8.13261e-06	-1.02239e-08	-8.12239e-06	0.242338	7239.43	9.10102	7230.32
1000.32	4.04294	1.72709	4.39638	-23.1316	6.95686	0.242798	-0.018793	92.1224	14.2169	1	10	0.00456387	0.0010381	0	-5.19226e-06	0.000190509	6.19141e-06	26.6134	0.0059642	0.00533229	-0.00267177	-23.0723	4.40024	4.04827	1.72442	0.209173	0.0893562	0.22746	23.1316	14216.9	33280.3	36189.8	-66.8684	0.0000000E+000	0.0000000E+000	0.0000000E+000	66.8684	0.0000000E+000	0.0000000E+000	0.0000000E+000	-66.8684	0.0000000E+000	0.0000000E+000	0.0000000E+000	-23.1316	0.0000000E+000	0.0000000E+000	0.0000000E+000	23.1316	2.34089	66.8684	-2.99662e-06	-4.56291e-06	-3.58024e-09	-4.55933e-06	0.242608	12919.6	10.1372	12909.5
316.316	5.46501	2.81102	6.14558	-27.2198	8.30709	0.242811	-0.0178593	178.993	37.4487	1	10	0.00450576	0.000733172	0	-1.11121e-05	0.000171421	1.01127e-05	95.8028	0.0137931	-0.00139454	-0.0137224	-27.1118	6.13807	5.46361	2.7973	0.144699	0.0744283	0.162719	27.2198	37448.7	72805.5	81872.2	-62.7802	0.0000000E+000	0.0000000E+000	0.0000000E+000	62.7802	0.0000000E+000	0.0000000E+000	0.0000000E+000	-62.7802	0.0000000E+000	0.0000000E+000	0.0000000E+000	-27.2198	0.0000000E+000	0.0000000E+000	0.0000000E+000	27.2198	1.94414	62.7802	-2.10171e-06	-4.33643e-06	-3.06146e-09	-4.33337e-06	0.242639	13595.8	9.59841	13586.2
100.032	8.40022	3.97395	9.29279	-25.3178	9.86682	0.242806	-0.0178221	400.367	73.2169	1	10	0.00500409	0.000538491	0	-1.88057e-05	3.78045e-05	4.56188e-06	76.2434	0.00847159	0.00201452	-0.00822858	-25.2666	9.2911	8.40223	3.96572	0.0972743	0.0460183	0.10761	25.3178	73216.9	154767	171212	-64.6822	0.0000000E+000	0.0000000E+000	0.0000000E+000	64.6822	0.0000000E+000	0.0000000E+000	0.0000000E+000	-64.6822	0.0000000E+000	0.0000000E+000	0.0000000E+000	-25.3178	0.0000000E+000	0.0000000E+000	0.0000000E+000	25.3178	2.11382	64.6822	-1.39942e-06	-4.32732e-06	-6.73756e-10	-4.32665e-06	0.242769	13623.9	2.12122	13621.8
31.6296	11.8864	3.37266	12.3556	-15.8408	11.1956	0.242782	-0.025024	1491.95	111.166	1	10	0.00500134	0.000404783	0	-2.53647e-05	1.87165e-05	6.98093e-06	-29.0439	0.0172461	0.0150774	0.00837265	-15.859	12.3724	11.9015	3.38103	0.0778613	0.0220924	0.0809349	15.8408	111166	391786	407252	-74.1592	0.0000000E+000	0.0000000E+000	0.0000000E+000	74.1592	0.0000000E+000	0.0000000E+000	0.0000000E+000	-74.1592	0.0000000E+000	0.0000000E+000	0.0000000E+000	-15.8408	0.0000000E+000	0.0000000E+000	0.0000000E+000	15.8408	3.52434	74.1592	-2.68165e-06	-6.07536e-06	-4.68361e-10	-6.07489e-06	0.242763	9701.97	0.747943	9701.23
10.0032	13.8518	2.08264	14.0075	-8.55046	12.7719	0.242853	-0.00654649	7639.53	168.878	1	11	0.00499436	0.000356549	0	-3.16183e-05	3.78045e-05	6.75598e-06	40.3957	0.0189482	0.0144307	-0.0122796	-8.49206	14.02	13.8662	2.07036	0.0705968	0.0106143	0.0713903	8.55046	168878	1.12322e+06	1.13585e+06	-81.4495	0.0000000E+000	0.0000000E+000	0.0000000E+000	81.4495	0.0000000E+000	0.0000000E+000	0.0000000E+000	-81.4495	0.0000000E+000	0.0000000E+000	0.0000000E+000	-8.55046	0.0000000E+000	0.0000000E+000	0.0000000E+000	8.55046	6.65108	81.4495	-3.3834e-06	-1.58984e-06	-2.47487e-10	-1.58959e-06	0.242815	37096.7	5.77478	37090.9
3.1604	14.8131	1.24376	14.8653	-4.7995	14.2885	0.242855	-0.00511077	40489.3	283.447	1	11	0.00499447	0.000335983	0	-3.01704e-05	-1.94596e-05	6.65344e-06	-24.5614	0.0198029	0.0180111	0.00823145	-4.82528	14.8839	14.8311	1.252	0.0670351	0.0056285	0.0672709	4.7995	283447	3.37583e+06	3.38771e+06	-85.2005	0.0000000E+000	0.0000000E+000	0.0000000E+000	85.2005	0.0000000E+000	0.0000000E+000	0.0000000E+000	-85.2005	0.0000000E+000	0.0000000E+000	0.0000000E+000	-4.7995	0.0000000E+000	0.0000000E+000	0.0000000E+000	4.7995	11.9099	85.2005	2.08988e-06	-1.24118e-06	9.94538e-11	-1.24128e-06	0.242875	47518.3	3.80757	47522.1
1.00006	15.3881	0.955566	15.4178	-3.55337	18.8837	0.242861	-0.00359763	166545	639.749	1	11	0.00499775	0.000324155	0	-5.32382e-05	9.50687e-05	2.78292e-06	20.1132	0.00858516	0.00806159	-0.00295224	-3.54057	15.4256	15.3962	0.952614	0.0647355	0.00401992	0.0648602	3.55337	639749	1.03023e+07	1.03222e+07	-86.4466	0.0000000E+000	0.0000000E+000	0.0000000E+000	86.4466	0.0000000E+000	0.0000000E+000	0.0000000E+000	-86.4466	0.0000000E+000	0.0000000E+000	0.0000000E+000	-3.55337	0.0000000E+000	0.0000000E+000	0.0000000E+000	3.55337	16.1037	86.4466	-1.01219e-05	-8.73725e-07	-3.42022e-10	-8.73382e-07	0.242766	67506	26.4254	67479.6
0.316193	15.7873	1.27222	15.8384	-4.60726	33.225	0.242852	-0.00547352	395643	2552.74	1	11	0.00500091	0.000315746	0	-3.58578e-05	0.000324125	2.88702e-06	47.4022	0.0091435	0.00618875	-0.00673074	-4.5812	15.8441	15.7934	1.26549	0.0629335	0.00507153	0.0631376	4.60726	2.55274e+06	3.16774e+07	3.17801e+07	-85.3927	0.0000000E+000	0.0000000E+000	0.0000000E+000	85.3927	0.0000000E+000	0.0000000E+000	0.0000000E+000	-85.3927	0.0000000E+000	0.0000000E+000	0.0000000E+000	-4.60726	0.0000000E+000	0.0000000E+000	0.0000000E+000	4.60726	12.4092	85.3927	1.78048e-05	-1.32925e-06	-1.77411e-09	-1.32748e-06	0.242528	44368.5	59.217	44309.3
0.0999041	16.4563	2.71773	16.6792	-9.37768	83.1293	0.242852	8.89411e-05	586179	15563	1	12	0.00499091	0.00029923	0	-3.18713e-05	5.68926e-05	3.00111e-06	44.2563	0.0100294	0.00718334	-0.00699923	-9.34995	16.6851	16.4635	2.71073	0.0591537	0.00976916	0.059955	9.37768	1.5563e+07	9.42365e+07	9.55129e+07	-80.6223	0.0000000E+000	0.0000000E+000	0.0000000E+000	80.6223	0.0000000E+000	0.0000000E+000	0.0000000E+000	-80.6223	0.0000000E+000	0.0000000E+000	0.0000000E+000	-9.37768	0.0000000E+000	0.0000000E+000	0.0000000E+000	9.37768	6.05515	80.6223	-3.0957e-05	2.15995e-08	5.06009e-12	2.15945e-08	0.242795	2.73048e+06	639.666	2.72984e+06
0.0315922	18.0169	6.39642	19.1186	-19.5461	226.013	0.242842	-0.00369597	787595	88158.4	1	12	0.00500112	0.000261584	0	-0.000563098	0.000209597	2.44796e-06	-10.0536	0.00935822	0.00921452	0.00163366	-19.5415	19.1279	18.0261	6.39806	0.0492908	0.0174994	0.052305	19.5461	8.81584e+07	2.48317e+08	2.63502e+08	-70.4539	0.0000000E+000	0.0000000E+000	0.0000000E+000	70.4539	0.0000000E+000	0.0000000E+000	0.0000000E+000	-70.4539	0.0000000E+000	0.0000000E+000	0.0000000E+000	-19.5461	0.0000000E+000	0.0000000E+000	0.0000000E+000	19.5461	2.81671	70.4539	-0.000227833	-8.97537e-07	-7.74665e-10	-8.96763e-07	0.242632	65704.4	56.7096	65647.7
0.0100092	21.9209	15.6054	26.9083	-35.4469	677.236	0.24284	-0.00363636	1.01894e+06	342709	1	12	0.00500212	0.000185895	0	-0.000133119	0.000133245	3.41235e-06	-1.25767	0.0183563	0.0183519	0.000402897	-35.425	26.9235	21.9393	15.6058	0.0302752	0.0215528	0.0371633	35.4469	3.42709e+08	4.81403e+08	5.9093e+08	-54.5531	0.0000000E+000	0.0000000E+000	0.0000000E+000	54.5531	0.0000000E+000	0.0000000E+000	0.0000000E+000	-54.5531	0.0000000E+000	0.0000000E+000	0.0000000E+000	-35.4469	0.0000000E+000	0.0000000E+000	0.0000000E+000	35.4469	1.4047	54.5531	0.000355191	-8.83054e-07	-4.84526e-10	-8.82569e-07	0.242707	66781	36.6423	66744.4