File: txt/18945_R308_UA705_SOC00_C02.mpt
EC-Lab ASCII FILE
Nb header lines : 65

Potentio Electrochemical Impedance Spectroscopy

Run on channel : 2 (SN 66139)
Grouped channel(s) : 1, 2, 3, 4, 5
User :
CE vs. WE compliance from -10 V to 10 V
Electrode connection : standard
Potential control : Ewe
Ewe ctrl range : min = -10.00 V, max = 10.00 V
Safety Limits :
	Do not start on E overload
Acquisition started on : 11/04/2025 15:30:07.703
Loaded Setting File :  C:\Users\Celltest\OneDrive - store-dot.com\Documents\EC-Lab\Data\@Biologic Test Protocols\anode half cell EIS SOC00.mps
Saved on :
	File : 18944_R308_UA705_SOC00_C02.mpr
	Directory : C:\Users\Celltest\OneDrive - store-dot.com\Documents\EC-Lab\Data\Charmaine\
	Host : 169.254.61.224
Device : VMP-3e (SN .003165)
Address : USB
EC-LAB for windows v11.62 (software)
Internet server v27.00 (firmware)
Command interpretor v12.03 (firmware)
Electrode material :
Initial state :
Electrolyte :
Comments :
Electrode surface area : 0.001 cm²
Characteristic mass : 0.001 g
Equivalent Weight : 0.000 g/eq.
Density : 0.000 g/cm3
Volume (V) : 0.001 cm³
Record Ece
Cycle Definition : Charge/Discharge alternance
Mode                Single sine
E (V)               0.0000
vs.                 Eoc
tE (h:m:s)          0:00:0.0000
record              0
dI                  0.000
unit dI             mA
dt (s)              0.000
fi                  100.000
unit fi             kHz
ff                  10.000
unit ff             mHz
Nd                  6
Points              per decade
spacing             Logarithmic
Va (mV)             5.0
pw                  0.10
Na                  2
corr                0
E range min (V)     -10.000
E range max (V)     10.000
I Range             Auto
Bandwidth           5
nc cycles           0
goto Ns'            0
nr cycles           0
inc. cycle          0

freq/Hz	Re(Z)/Ohm	-Im(Z)/Ohm	|Z|/Ohm	Phase(Z)/deg	time/s	<Ewe>/V	<I>/mA	Cs/µF	Cp/µF	cycle number	I Range	|Ewe|/V	|I|/A	Ns	(Q-Qo)/mA.h	<Ece>/V	|Ece|/V	Phase(Zce)/deg	|Zce|/Ohm	Re(Zce)/Ohm	-Im(Zce)/Ohm	Phase(Zwe-ce)/deg	|Zwe-ce|/Ohm	Re(Zwe-ce)/Ohm	-Im(Zwe-ce)/Ohm	Re(Y)/Ohm-1	Im(Y)/Ohm-1	|Y|/Ohm-1	Phase(Y)/deg	Re(C)/nF	Im(C)/nF	|C|/nF	Phase(C)/deg	Re(M)	Im(M)	|M|	Phase(M)/deg	Re(Permittivity)	Im(Permittivity)	|Permittivity|	Phase(Permittivity)/deg	Re(Resistivity)/Ohm.cm	Im(Resistivity)/Ohm.cm	|Resistivity|/Ohm.cm	Phase(Resistivity)/deg	Re(Conductivity)/mS/cm	Im(Conductivity)/mS/cm	|Conductivity|/mS/cm	Phase(Conductivity)/deg	Tan(Delta)	Loss Angle(Delta)/deg	dq/mA.h	Pwe/W	Pce/W	Pwe-ce/W	<Ewe-Ece>/V	Rwe/Ohm	Rce/Ohm	Rwe-ce/Ohm		Ewe-Ece/V
100004	2.04152	1.43385	2.49474	-35.082	1.58353	0.200469	-0.0302042	1.10994	0.366654	1	9	0.00462274	0.00185299	0	-1.13476e-05	0.000387123	2.6737e-05	87.9776	0.0144291	0.000509206	-0.0144201	-34.8034	2.4869	2.04203	1.41943	0.328022	0.230384	0.400843	35.082	366.654	522.044	637.939	-54.918	0.0000000E+000	0.0000000E+000	0.0000000E+000	54.918	0.0000000E+000	0.0000000E+000	0.0000000E+000	-54.918	0.0000000E+000	0.0000000E+000	0.0000000E+000	-35.082	0.0000000E+000	0.0000000E+000	0.0000000E+000	35.082	1.42381	54.918	-1.13476e-05	-6.05501e-06	-1.16927e-08	-6.04332e-06	0.200082	6637.14	12.8169	6624.33
31621.1	3.43104	2.65855	4.3405	-37.7705	2.98255	0.200439	-0.0402233	1.8932	0.710246	1	9	0.00480341	0.00110665	0	-3.44092e-05	0.000177124	2.36361e-06	-58.7021	0.00213583	0.00110954	0.00182502	-37.7805	4.34249	3.43215	2.66038	0.182115	0.141113	0.230388	37.7705	710.246	916.619	1159.59	-52.2295	0.0000000E+000	0.0000000E+000	0.0000000E+000	52.2295	0.0000000E+000	0.0000000E+000	0.0000000E+000	-52.2295	0.0000000E+000	0.0000000E+000	0.0000000E+000	-37.7705	0.0000000E+000	0.0000000E+000	0.0000000E+000	37.7705	1.29056	52.2295	-5.66135e-06	-8.06234e-06	-7.12451e-09	-8.05522e-06	0.200262	4983.16	4.40351	4978.76
10002.2	5.90437	3.82959	7.03756	-32.9675	4.16256	0.200573	-0.0358736	4.15501	1.23036	1	10	0.00532482	0.000756628	0	-4.41747e-05	4.34878e-05	1.17592e-05	-34.6911	0.0155416	0.0127788	0.00884553	-32.9713	7.0531	5.91715	3.83843	0.119214	0.0773227	0.142095	32.9675	1230.36	1896.93	2261	-57.0325	0.0000000E+000	0.0000000E+000	0.0000000E+000	57.0325	0.0000000E+000	0.0000000E+000	0.0000000E+000	-57.0325	0.0000000E+000	0.0000000E+000	0.0000000E+000	-32.9675	0.0000000E+000	0.0000000E+000	0.0000000E+000	32.9675	1.54178	57.0325	-2.20719e-06	-7.19529e-06	-1.56007e-09	-7.19373e-06	0.20053	5591.11	1.21225	5589.89
3163.08	8.96647	4.92776	10.2313	-28.7922	5.06064	0.200435	-0.0174859	10.2108	2.36861	1	10	0.00492018	0.000480893	0	-5.14276e-05	-3.28756e-05	7.80725e-06	-82.2848	0.0162349	0.00217952	0.0160879	-28.8652	10.241	8.96865	4.94385	0.0856557	0.0470744	0.0977389	28.7922	2368.61	4309.89	4917.88	-61.2078	0.0000000E+000	0.0000000E+000	0.0000000E+000	61.2078	0.0000000E+000	0.0000000E+000	0.0000000E+000	-61.2078	0.0000000E+000	0.0000000E+000	0.0000000E+000	-28.7922	0.0000000E+000	0.0000000E+000	0.0000000E+000	28.7922	1.81958	61.2078	-1.87931e-06	-3.50479e-06	5.7486e-10	-3.50537e-06	0.200468	11462.6	1.88011	11464.5
1000.32	12.6287	6.74565	14.3174	-28.109	6.4138	0.200509	-0.0014228	23.5862	5.23573	1	10	0.0048241	0.00033694	0	-5.2557e-05	0.000520759	3.16701e-06	-73.9182	0.00939933	0.00260371	0.00903151	-28.136	14.3239	12.6313	6.75468	0.0616071	0.0329076	0.0698451	28.109	5235.73	9801.93	11112.6	-61.891	0.0000000E+000	0.0000000E+000	0.0000000E+000	61.891	0.0000000E+000	0.0000000E+000	0.0000000E+000	-61.891	0.0000000E+000	0.0000000E+000	0.0000000E+000	-28.109	0.0000000E+000	0.0000000E+000	0.0000000E+000	28.109	1.87212	61.891	-8.50595e-09	-2.85285e-07	-7.40938e-10	-2.84544e-07	0.199988	140925	366.009	140559
316.316	18.0774	10.3787	20.8449	-29.8613	7.76403	0.200497	-0.00184375	48.4791	12.0183	1	10	0.00479536	0.000230049	0	-5.39894e-05	-0.000109239	7.49719e-06	-62.5381	0.0325895	0.0150289	0.0289173	-29.9096	20.8724	18.0925	10.4076	0.041604	0.023886	0.0479733	29.8613	12018.3	20933.2	24137.8	-60.1387	0.0000000E+000	0.0000000E+000	0.0000000E+000	60.1387	0.0000000E+000	0.0000000E+000	0.0000000E+000	-60.1387	0.0000000E+000	0.0000000E+000	0.0000000E+000	-29.8613	0.0000000E+000	0.0000000E+000	0.0000000E+000	29.8613	1.74178	60.1387	-4.59472e-07	-3.69666e-07	2.0141e-10	-3.69868e-07	0.200606	108744	59.2481	108803
100.032	28.7907	14.2738	32.1348	-26.3713	9.35583	0.200533	-0.0104245	111.466	21.9923	1	11	0.00480729	0.000149598	0	-5.69106e-05	6.25787e-05	5.25576e-06	-18.7464	0.0351326	0.0332689	0.0112909	-26.363	32.1696	28.8239	14.2851	0.0278805	0.0138226	0.0311189	26.3713	21992.3	44359	49511.5	-63.6287	0.0000000E+000	0.0000000E+000	0.0000000E+000	63.6287	0.0000000E+000	0.0000000E+000	0.0000000E+000	-63.6287	0.0000000E+000	0.0000000E+000	0.0000000E+000	-26.3713	0.0000000E+000	0.0000000E+000	0.0000000E+000	26.3713	2.01702	63.6287	-1.27997e-06	-2.09047e-06	-6.52354e-10	-2.08982e-06	0.200471	19236.7	6.00302	19230.7
31.6296	41.2619	11.2197	42.7601	-15.2118	10.6836	0.200536	-0.0101867	448.482	30.8767	1	11	0.00479076	0.000112038	0	-6.07976e-05	4.34878e-05	1.02028e-05	13.2195	0.0910657	0.0886526	-0.0208251	-15.1538	42.8402	41.3506	11.1989	0.0225669	0.00613627	0.0233863	15.2118	30876.7	113553	117676	-74.7882	0.0000000E+000	0.0000000E+000	0.0000000E+000	74.7882	0.0000000E+000	0.0000000E+000	0.0000000E+000	-74.7882	0.0000000E+000	0.0000000E+000	0.0000000E+000	-15.2118	0.0000000E+000	0.0000000E+000	0.0000000E+000	15.2118	3.67762	74.7882	-1.4378e-06	-2.04279e-06	-4.42996e-10	-2.04235e-06	0.200492	19686.1	4.2691	19681.9
10.0032	46.7734	5.72023	47.1218	-6.97246	12.0158	0.200537	-0.00990068	2781.43	40.9874	1	11	0.00479446	0.000101746	0	-6.39043e-05	0.00031076	4.94401e-06	78.1892	0.0485917	0.00994578	-0.047563	-6.9136	47.126	46.7833	5.67267	0.0210646	0.00257614	0.0212216	6.97246	40987.4	335147	337644	-83.0275	0.0000000E+000	0.0000000E+000	0.0000000E+000	83.0275	0.0000000E+000	0.0000000E+000	0.0000000E+000	-83.0275	0.0000000E+000	0.0000000E+000	0.0000000E+000	-6.97246	0.0000000E+000	0.0000000E+000	0.0000000E+000	6.97246	8.17683	83.0275	-3.53786e-07	-1.98545e-06	-3.07673e-09	-1.98237e-06	0.200226	20254.8	31.3877	20223.4
3.1604	48.7042	3.24721	48.8123	-3.81438	13.5324	0.200556	-0.00831942	15508.4	68.6325	1	11	0.00479002	9.81313e-05	0	-6.71679e-05	0.000138942	5.01272e-06	-6.89437	0.0510818	0.0507124	0.00613182	-3.8176	48.8634	48.7549	3.25334	0.0204412	0.00136286	0.0204866	3.81438	68632.5	1.0294e+06	1.03169e+06	-86.1856	0.0000000E+000	0.0000000E+000	0.0000000E+000	86.1856	0.0000000E+000	0.0000000E+000	0.0000000E+000	-86.1856	0.0000000E+000	0.0000000E+000	0.0000000E+000	-3.81438	0.0000000E+000	0.0000000E+000	0.0000000E+000	3.81438	14.9988	86.1856	-2.67103e-07	-1.66851e-06	-1.15592e-09	-1.66735e-06	0.200417	24107	16.7009	24090.3
1.00006	50.2347	3.12696	50.3319	-3.5619	18.8518	0.200554	-0.00635293	50894.4	196.439	1	12	0.00479094	9.51869e-05	0	-8.00159e-05	4.34878e-05	3.4648e-06	87.7066	0.0364	0.00145663	-0.0363708	-3.52047	50.3311	50.2361	3.09059	0.0198297	0.00123434	0.0198681	3.5619	196440	3.1558e+06	3.16191e+06	-86.4381	0.0000000E+000	0.0000000E+000	0.0000000E+000	86.4381	0.0000000E+000	0.0000000E+000	0.0000000E+000	-86.4381	0.0000000E+000	0.0000000E+000	0.0000000E+000	-3.5619	0.0000000E+000	0.0000000E+000	0.0000000E+000	3.5619	16.065	86.4381	-6.87122e-06	-1.27411e-06	-2.76275e-10	-1.27383e-06	0.200511	31568.8	6.84532	31562
0.316193	52.4598	4.07132	52.6175	-4.43775	33.1949	0.200546	-0.00595357	123632	740.19	1	12	0.00478944	9.10238e-05	0	-0.000101955	0.000196215	1.82441e-06	-59.9359	0.0200432	0.010041	0.0173467	-4.45573	52.6289	52.4698	4.08867	0.0189481	0.00147053	0.0190051	4.43775	740189	9.53748e+06	9.56616e+06	-85.5623	0.0000000E+000	0.0000000E+000	0.0000000E+000	85.5623	0.0000000E+000	0.0000000E+000	0.0000000E+000	-85.5623	0.0000000E+000	0.0000000E+000	0.0000000E+000	-4.43775	0.0000000E+000	0.0000000E+000	0.0000000E+000	4.43775	12.8852	85.5623	-5.63498e-06	-1.19396e-06	-1.16818e-09	-1.1928e-06	0.20035	33685	32.9575	33652.1
0.0999041	54.9121	6.13807	55.2541	-6.37804	78.403	0.200542	-0.00358841	259541	3202.87	1	12	0.00479223	8.67308e-05	0	-0.000121999	-0.000109239	1.58936e-06	-17.7471	0.0183251	0.0174531	0.00558579	-6.38178	55.2721	54.9296	6.14365	0.0179862	0.00201049	0.0180982	6.37804	3.20287e+06	2.86534e+07	2.88318e+07	-83.622	0.0000000E+000	0.0000000E+000	0.0000000E+000	83.622	0.0000000E+000	0.0000000E+000	0.0000000E+000	-83.622	0.0000000E+000	0.0000000E+000	0.0000000E+000	-6.37804	0.0000000E+000	0.0000000E+000	0.0000000E+000	6.37804	8.94616	83.622	-1.28286e-05	-7.19628e-07	3.91994e-10	-7.2002e-07	0.200651	55886	30.4421	55916.5
0.0315922	58.1245	13.0275	59.5666	-12.6329	221.288	0.200548	-0.00300195	386706	18496.7	1	12	0.00479097	8.04305e-05	0	-0.000356247	0.000234396	1.5882e-06	-34.5456	0.0197462	0.0162644	0.0111973	-12.64	59.5849	58.1408	13.0387	0.0163815	0.00367159	0.0167879	12.6329	1.84967e+07	8.25267e+07	8.45741e+07	-77.3671	0.0000000E+000	0.0000000E+000	0.0000000E+000	77.3671	0.0000000E+000	0.0000000E+000	0.0000000E+000	-77.3671	0.0000000E+000	0.0000000E+000	0.0000000E+000	-12.6329	0.0000000E+000	0.0000000E+000	0.0000000E+000	12.6329	4.4617	77.3671	-0.000128163	-6.02037e-07	-7.03647e-10	-6.01333e-07	0.200314	66805.9	78.0812	66727.8
0.0100092	67.1262	31.5448	74.1687	-25.1704	672.511	0.200541	-0.00371359	504073	91181.9	1	12	0.00479003	6.45829e-05	0	-0.000785879	4.34878e-05	7.23797e-07	66.7158	0.0112073	0.00443014	-0.0102945	-25.1617	74.1684	67.1306	31.5345	0.0122025	0.00573438	0.0134828	25.1704	9.11819e+07	1.94032e+08	2.14388e+08	-64.8296	0.0000000E+000	0.0000000E+000	0.0000000E+000	64.8296	0.0000000E+000	0.0000000E+000	0.0000000E+000	-64.8296	0.0000000E+000	0.0000000E+000	0.0000000E+000	-25.1704	0.0000000E+000	0.0000000E+000	0.0000000E+000	25.1704	2.12796	64.8296	-0.000102843	-7.44725e-07	-1.61496e-10	-7.44564e-07	0.200497	54001.9	11.7105	53990.2