File: txt/18948_R308_UA705_SOC00_C05.mpt
EC-Lab ASCII FILE
Nb header lines : 65

Potentio Electrochemical Impedance Spectroscopy

Run on channel : 5 (SN 65912)
Grouped channel(s) : 1, 2, 3, 4, 5
User :
CE vs. WE compliance from -10 V to 10 V
Electrode connection : standard
Potential control : Ewe
Ewe ctrl range : min = -10.00 V, max = 10.00 V
Safety Limits :
	Do not start on E overload
Acquisition started on : 11/04/2025 15:30:07.703
Loaded Setting File :  C:\Users\Celltest\OneDrive - store-dot.com\Documents\EC-Lab\Data\@Biologic Test Protocols\anode half cell EIS SOC00.mps
Saved on :
	File : 18944_R308_UA705_SOC00_C05.mpr
	Directory : C:\Users\Celltest\OneDrive - store-dot.com\Documents\EC-Lab\Data\Charmaine\
	Host : 169.254.61.224
Device : VMP-3e (SN .003165)
Address : USB
EC-LAB for windows v11.62 (software)
Internet server v27.00 (firmware)
Command interpretor v12.03 (firmware)
Electrode material :
Initial state :
Electrolyte :
Comments :
Electrode surface area : 0.001 cm²
Characteristic mass : 0.001 g
Equivalent Weight : 0.000 g/eq.
Density : 0.000 g/cm3
Volume (V) : 0.001 cm³
Record Ece
Cycle Definition : Charge/Discharge alternance
Mode                Single sine
E (V)               0.0000
vs.                 Eoc
tE (h:m:s)          0:00:0.0000
record              0
dI                  0.000
unit dI             mA
dt (s)              0.000
fi                  100.000
unit fi             kHz
ff                  10.000
unit ff             mHz
Nd                  6
Points              per decade
spacing             Logarithmic
Va (mV)             5.0
pw                  0.10
Na                  2
corr                0
E range min (V)     -10.000
E range max (V)     10.000
I Range             Auto
Bandwidth           5
nc cycles           0
goto Ns'            0
nr cycles           0
inc. cycle          0

freq/Hz	Re(Z)/Ohm	-Im(Z)/Ohm	|Z|/Ohm	Phase(Z)/deg	time/s	<Ewe>/V	<I>/mA	Cs/µF	Cp/µF	cycle number	I Range	|Ewe|/V	|I|/A	Ns	(Q-Qo)/mA.h	<Ece>/V	|Ece|/V	Phase(Zce)/deg	|Zce|/Ohm	Re(Zce)/Ohm	-Im(Zce)/Ohm	Phase(Zwe-ce)/deg	|Zwe-ce|/Ohm	Re(Zwe-ce)/Ohm	-Im(Zwe-ce)/Ohm	Re(Y)/Ohm-1	Im(Y)/Ohm-1	|Y|/Ohm-1	Phase(Y)/deg	Re(C)/nF	Im(C)/nF	|C|/nF	Phase(C)/deg	Re(M)	Im(M)	|M|	Phase(M)/deg	Re(Permittivity)	Im(Permittivity)	|Permittivity|	Phase(Permittivity)/deg	Re(Resistivity)/Ohm.cm	Im(Resistivity)/Ohm.cm	|Resistivity|/Ohm.cm	Phase(Resistivity)/deg	Re(Conductivity)/mS/cm	Im(Conductivity)/mS/cm	|Conductivity|/mS/cm	Phase(Conductivity)/deg	Tan(Delta)	Loss Angle(Delta)/deg	dq/mA.h	Pwe/W	Pce/W	Pwe-ce/W	<Ewe-Ece>/V	Rwe/Ohm	Rce/Ohm	Rwe-ce/Ohm		Ewe-Ece/V
100004	2.50524	1.74088	3.05072	-34.7952	2.18456	0.19797	-0.02851	0.914189	0.297693	1	9	0.00450821	0.00147775	0	-4.41963e-06	-3.90715e-05	3.37459e-05	66.8341	0.022836	0.00898354	-0.0209947	-34.3745	3.0462	2.51422	1.71988	0.269182	0.187053	0.327792	34.7952	297.693	428.4	521.677	-55.2048	0.0000000E+000	0.0000000E+000	0.0000000E+000	55.2048	0.0000000E+000	0.0000000E+000	0.0000000E+000	-55.2048	0.0000000E+000	0.0000000E+000	0.0000000E+000	-34.7952	0.0000000E+000	0.0000000E+000	0.0000000E+000	34.7952	1.43907	55.2048	-4.41963e-06	-5.64412e-06	1.11393e-09	-5.64524e-06	0.198009	6943.88	1.37045	6945.25
31621.1	4.1285	3.04699	5.13115	-36.4287	3.86252	0.198017	-0.0237612	1.65185	0.582485	1	10	0.00470269	0.000916499	0	-1.78139e-05	3.72934e-05	1.17948e-05	-33.6275	0.0128694	0.0107158	0.00712694	-36.4217	5.144	4.13922	3.05412	0.156806	0.115729	0.194888	36.4287	582.485	789.234	980.908	-53.5713	0.0000000E+000	0.0000000E+000	0.0000000E+000	53.5713	0.0000000E+000	0.0000000E+000	0.0000000E+000	-53.5713	0.0000000E+000	0.0000000E+000	0.0000000E+000	-36.4287	0.0000000E+000	0.0000000E+000	0.0000000E+000	36.4287	1.35494	53.5713	-3.54964e-06	-4.70511e-06	-8.86136e-10	-4.70423e-06	0.197979	8333.61	1.56951	8332.04
10002.2	6.8135	4.47252	8.15029	-33.2817	5.01055	0.197998	-0.0219032	3.55772	1.07135	1	10	0.00499894	0.000613345	0	-2.48999e-05	-5.81627e-05	9.94936e-06	-59.4485	0.0162215	0.00824558	0.0139695	-33.3319	8.16485	6.82174	4.48649	0.102571	0.0673297	0.122695	33.2817	1071.35	1632.1	1952.32	-56.7183	0.0000000E+000	0.0000000E+000	0.0000000E+000	56.7183	0.0000000E+000	0.0000000E+000	0.0000000E+000	-56.7183	0.0000000E+000	0.0000000E+000	0.0000000E+000	-33.2817	0.0000000E+000	0.0000000E+000	0.0000000E+000	33.2817	1.52341	56.7183	-2.84845e-06	-4.33681e-06	1.27395e-09	-4.33808e-06	0.198057	9039.69	2.65544	9042.34
3163.08	10.3816	6.1979	12.0909	-30.8376	5.90962	0.197877	-0.0143671	8.11831	2.13321	1	10	0.00467757	0.000386866	0	-2.91258e-05	0.000132749	4.68884e-06	-30.8372	0.0121201	0.0104066	0.00621275	-30.8376	12.1031	10.392	6.20411	0.0710138	0.042396	0.0827066	30.8376	2133.21	3573.16	4161.5	-59.1624	0.0000000E+000	0.0000000E+000	0.0000000E+000	59.1624	0.0000000E+000	0.0000000E+000	0.0000000E+000	-59.1624	0.0000000E+000	0.0000000E+000	0.0000000E+000	-30.8376	0.0000000E+000	0.0000000E+000	0.0000000E+000	30.8376	1.67501	59.1624	-1.77338e-06	-2.84291e-06	-1.90722e-09	-2.841e-06	0.197744	13772.9	9.23984	13763.7
1000.32	15.1154	9.07066	17.6281	-30.9677	7.26286	0.19795	0.000824446	17.5405	4.64415	1	10	0.00452982	0.000256965	0	-2.89162e-05	0.000132749	7.26537e-06	27.7734	0.0282738	0.0250166	-0.0131749	-30.8893	17.6428	15.1404	9.05748	0.0486414	0.0291894	0.0567275	30.9677	4644.15	7739.04	9025.57	-59.0323	0.0000000E+000	0.0000000E+000	0.0000000E+000	59.0323	0.0000000E+000	0.0000000E+000	0.0000000E+000	-59.0323	0.0000000E+000	0.0000000E+000	0.0000000E+000	-30.9677	0.0000000E+000	0.0000000E+000	0.0000000E+000	30.9677	1.6664	59.0323	2.66567e-07	1.63199e-07	1.09445e-10	1.6309e-07	0.197817	240101	161.016	239940
316.316	23.0305	14.0157	26.9601	-31.3235	8.82608	0.197948	6.85893e-05	35.8991	9.70225	1	10	0.00499697	0.000185347	0	-2.91603e-05	-0.000363622	7.34726e-06	-50.404	0.0396405	0.0252657	0.0305453	-31.351	26.9975	23.0558	14.0463	0.0316856	0.019283	0.0370919	31.3235	9702.25	15942.7	18662.9	-58.6765	0.0000000E+000	0.0000000E+000	0.0000000E+000	58.6765	0.0000000E+000	0.0000000E+000	0.0000000E+000	-58.6765	0.0000000E+000	0.0000000E+000	0.0000000E+000	-31.3235	0.0000000E+000	0.0000000E+000	0.0000000E+000	31.3235	1.64319	58.6765	-3.18415e-07	1.35771e-08	-2.49406e-11	1.3602e-08	0.198311	2.88598e+06	5301.44	2.89128e+06
100.032	37.2576	18.5509	41.6205	-26.4692	10.4189	0.197996	-0.00352608	85.7661	17.0386	1	11	0.00499533	0.000120021	0	-3.01724e-05	0.000247297	4.89911e-06	57.7234	0.0408188	0.0217976	-0.0345115	-26.4133	41.6246	37.2794	18.5164	0.021508	0.0107091	0.0240266	26.4692	17038.6	34220.1	38227.4	-63.5308	0.0000000E+000	0.0000000E+000	0.0000000E+000	63.5308	0.0000000E+000	0.0000000E+000	0.0000000E+000	-63.5308	0.0000000E+000	0.0000000E+000	0.0000000E+000	-26.4692	0.0000000E+000	0.0000000E+000	0.0000000E+000	26.4692	2.00839	63.5308	-5.71379e-07	-6.98151e-07	-8.71989e-10	-6.97279e-07	0.197749	56151.9	70.1335	56081.7
31.6296	53.0909	14.006	54.9073	-14.7785	11.7475	0.197984	-0.00405925	359.264	23.3765	1	11	0.00499614	9.09922e-05	0	-3.15411e-05	0.000209114	7.22352e-06	22.3221	0.0793861	0.0734372	-0.0301518	-14.7286	54.9706	53.1643	13.9758	0.01761	0.00464572	0.0182125	14.7785	23376.5	88610.9	91642.5	-75.2215	0.0000000E+000	0.0000000E+000	0.0000000E+000	75.2215	0.0000000E+000	0.0000000E+000	0.0000000E+000	-75.2215	0.0000000E+000	0.0000000E+000	0.0000000E+000	-14.7785	0.0000000E+000	0.0000000E+000	0.0000000E+000	14.7785	3.79059	75.2215	-4.24424e-07	-8.03666e-07	-8.48847e-10	-8.02817e-07	0.197775	48773.6	51.5155	48722.1
10.0032	59.6568	7.03223	60.0698	-6.7229	13.0788	0.197983	-0.00377442	2262.5	31.0072	1	11	0.00499074	8.30824e-05	0	-3.33722e-05	0.000228206	7.53673e-06	-49.3564	0.0907139	0.0590866	0.0688316	-6.78144	60.1366	59.7158	7.10107	0.0165328	0.00194886	0.0166473	6.7229	31007.2	263044	264865	-83.2771	0.0000000E+000	0.0000000E+000	0.0000000E+000	83.2771	0.0000000E+000	0.0000000E+000	0.0000000E+000	-83.2771	0.0000000E+000	0.0000000E+000	0.0000000E+000	-6.7229	0.0000000E+000	0.0000000E+000	0.0000000E+000	6.7229	8.48333	83.2771	-5.45018e-07	-7.47271e-07	-8.61344e-10	-7.4641e-07	0.197755	52453.8	60.4611	52393.4
3.1604	62.0382	4.23376	62.1825	-3.90406	14.5955	0.197994	-0.00303388	11894.7	55.1402	1	11	0.00499357	8.03051e-05	0	-3.38975e-05	5.63846e-05	4.40582e-06	-102.676	0.0548635	-0.0120393	0.0535263	-3.95403	62.1742	62.0262	4.28728	0.0160444	0.00109494	0.0160817	3.90406	55140.2	807981	809861	-86.0959	0.0000000E+000	0.0000000E+000	0.0000000E+000	86.0959	0.0000000E+000	0.0000000E+000	0.0000000E+000	-86.0959	0.0000000E+000	0.0000000E+000	0.0000000E+000	-3.90406	0.0000000E+000	0.0000000E+000	0.0000000E+000	3.90406	14.6532	86.0959	-3.55263e-07	-6.00688e-07	-1.71064e-10	-6.00517e-07	0.197937	65260.9	18.585	65242.3
1.00006	64.1463	4.50177	64.304	-4.01442	19.6968	0.198	-0.00197376	35351.6	173.26	1	12	0.00499025	7.76039e-05	0	-3.82316e-05	0.000170932	2.54331e-06	-56.3124	0.0327729	0.018178	0.0272695	-4.03752	64.3241	64.1644	4.52904	0.015513	0.0010887	0.0155511	4.01442	173261	2.46881e+06	2.47488e+06	-85.9856	0.0000000E+000	0.0000000E+000	0.0000000E+000	85.9856	0.0000000E+000	0.0000000E+000	0.0000000E+000	-85.9856	0.0000000E+000	0.0000000E+000	0.0000000E+000	-4.01442	0.0000000E+000	0.0000000E+000	0.0000000E+000	4.01442	14.2491	85.9856	-3.69868e-07	-3.90803e-07	-3.37378e-10	-3.90465e-07	0.197829	100316	86.6023	100230
0.316193	67.6119	5.80864	67.8609	-4.91031	34.0399	0.197984	-0.00179077	86655	634.896	1	12	0.00499198	7.3562e-05	0	-3.47523e-05	-3.90715e-05	1.79019e-06	-67.4713	0.0243358	0.00932417	0.0224787	-4.92854	67.8721	67.6212	5.83111	0.0146819	0.00126135	0.014736	4.91031	634896	7.39011e+06	7.41734e+06	-85.0897	0.0000000E+000	0.0000000E+000	0.0000000E+000	85.0897	0.0000000E+000	0.0000000E+000	0.0000000E+000	-85.0897	0.0000000E+000	0.0000000E+000	0.0000000E+000	-4.91031	0.0000000E+000	0.0000000E+000	0.0000000E+000	4.91031	11.6399	85.0897	1.88365e-07	-3.54544e-07	6.99681e-11	-3.54614e-07	0.198023	110558	21.8183	110580
0.0999041	71.3054	8.23823	71.7798	-6.59041	79.2478	0.197988	-0.00151292	193376	2547.22	1	12	0.00499341	6.95657e-05	0	-8.35426e-05	0.000113658	2.43693e-06	-15.528	0.0350307	0.033752	0.00937801	-6.59475	71.8144	71.3392	8.24761	0.0138394	0.00159893	0.0139315	6.59041	2.54722e+06	2.20473e+07	2.2194e+07	-83.4096	0.0000000E+000	0.0000000E+000	0.0000000E+000	83.4096	0.0000000E+000	0.0000000E+000	0.0000000E+000	-83.4096	0.0000000E+000	0.0000000E+000	0.0000000E+000	-6.59041	0.0000000E+000	0.0000000E+000	0.0000000E+000	6.59041	8.65543	83.4096	-2.79957e-05	-2.9954e-07	-1.71956e-10	-2.99368e-07	0.197875	130865	75.1251	130790
0.0315922	76.1773	16.5724	77.9591	-12.2735	222.131	0.197996	-0.0026856	303986	13737	1	12	0.00499756	6.41049e-05	0	-0.000195922	0.000285479	1.75112e-06	25.9506	0.0273165	0.0245622	-0.0119536	-12.2611	77.9805	76.2018	16.5605	0.0125341	0.0027268	0.0128272	12.2735	1.3737e+07	6.3144e+07	6.4621e+07	-77.7265	0.0000000E+000	0.0000000E+000	0.0000000E+000	77.7265	0.0000000E+000	0.0000000E+000	0.0000000E+000	-77.7265	0.0000000E+000	0.0000000E+000	0.0000000E+000	-12.2735	0.0000000E+000	0.0000000E+000	0.0000000E+000	12.2735	4.59663	77.7265	-2.96985e-05	-5.31738e-07	-7.66682e-10	-5.30971e-07	0.197711	73725.2	106.3	73618.9
0.0100092	88.4813	37.1897	95.9792	-22.7976	673.354	0.197991	-0.00297898	427562	64193.4	1	12	0.00499441	5.20363e-05	0	-0.000271191	0.000151841	2.53273e-06	16.2747	0.0486724	0.046722	-0.0136401	-22.7793	96.017	88.528	37.1761	0.00960499	0.00403709	0.0104189	22.7976	6.41934e+07	1.52728e+08	1.6567e+08	-67.2024	0.0000000E+000	0.0000000E+000	0.0000000E+000	67.2024	0.0000000E+000	0.0000000E+000	0.0000000E+000	-67.2024	0.0000000E+000	0.0000000E+000	0.0000000E+000	-22.7976	0.0000000E+000	0.0000000E+000	0.0000000E+000	22.7976	2.37919	67.2024	-7.32174e-05	-5.89813e-07	-4.52331e-10	-5.89361e-07	0.19784	66462.7	50.9706	66411.8