File: txt/18949_R308_UA706_SOC00_C06.mpt
EC-Lab ASCII FILE
Nb header lines : 65

Potentio Electrochemical Impedance Spectroscopy

Run on channel : 6 (SN 65795)
User :
CE vs. WE compliance from -10 V to 10 V
Electrode connection : standard
Potential control : Ewe
Ewe ctrl range : min = -10.00 V, max = 10.00 V
Safety Limits :
	Do not start on E overload
Acquisition started on : 11/04/2025 15:30:36.441
Technique started on : 11/04/2025 15:30:38.352
Loaded Setting File :  C:\Users\Celltest\OneDrive - store-dot.com\Documents\EC-Lab\Data\@Biologic Test Protocols\anode half cell EIS SOC00.mps
Saved on :
	File : 18949_R308_UA706_SOC00_C06.mpr
	Directory : C:\Users\Celltest\OneDrive - store-dot.com\Documents\EC-Lab\Data\Charmaine\
	Host : 169.254.61.224
Device : VMP-3e (SN .003165)
Address : USB
EC-LAB for windows v11.62 (software)
Internet server v27.00 (firmware)
Command interpretor v12.03 (firmware)
Electrode material :
Initial state :
Electrolyte :
Comments :
Electrode surface area : 0.001 cm²
Characteristic mass : 0.001 g
Equivalent Weight : 0.000 g/eq.
Density : 0.000 g/cm3
Volume (V) : 0.001 cm³
Record Ece
Cycle Definition : Charge/Discharge alternance
Mode                Single sine
E (V)               0.0000
vs.                 Eoc
tE (h:m:s)          0:00:0.0000
record              0
dI                  0.000
unit dI             mA
dt (s)              0.000
fi                  100.000
unit fi             kHz
ff                  10.000
unit ff             mHz
Nd                  6
Points              per decade
spacing             Logarithmic
Va (mV)             5.0
pw                  0.10
Na                  2
corr                0
E range min (V)     -10.000
E range max (V)     10.000
I Range             Auto
Bandwidth           5
nc cycles           0
goto Ns'            0
nr cycles           0
inc. cycle          0

freq/Hz	Re(Z)/Ohm	-Im(Z)/Ohm	|Z|/Ohm	Phase(Z)/deg	time/s	<Ewe>/V	<I>/mA	Cs/µF	Cp/µF	cycle number	I Range	|Ewe|/V	|I|/A	Ns	(Q-Qo)/mA.h	<Ece>/V	|Ece|/V	Phase(Zce)/deg	|Zce|/Ohm	Re(Zce)/Ohm	-Im(Zce)/Ohm	Phase(Zwe-ce)/deg	|Zwe-ce|/Ohm	Re(Zwe-ce)/Ohm	-Im(Zwe-ce)/Ohm	Re(Y)/Ohm-1	Im(Y)/Ohm-1	|Y|/Ohm-1	Phase(Y)/deg	Re(C)/nF	Im(C)/nF	|C|/nF	Phase(C)/deg	Re(M)	Im(M)	|M|	Phase(M)/deg	Re(Permittivity)	Im(Permittivity)	|Permittivity|	Phase(Permittivity)/deg	Re(Resistivity)/Ohm.cm	Im(Resistivity)/Ohm.cm	|Resistivity|/Ohm.cm	Phase(Resistivity)/deg	Re(Conductivity)/mS/cm	Im(Conductivity)/mS/cm	|Conductivity|/mS/cm	Phase(Conductivity)/deg	Tan(Delta)	Loss Angle(Delta)/deg	dq/mA.h	Pwe/W	Pce/W	Pwe-ce/W	<Ewe-Ece>/V	Rwe/Ohm	Rce/Ohm	Rwe-ce/Ohm		Ewe-Ece/V
100004	2.01465	0.965501	2.23406	-25.6056	1.91052	0.212835	0.0128071	1.64836	0.307871	1	9	0.00459901	0.00205859	0	-5.31178e-07	0.000129508	3.33509e-05	80.1555	0.0162008	0.00276992	-0.0159623	-25.205	2.22971	2.01742	0.949539	0.403656	0.193448	0.447616	25.6056	307.871	642.415	712.377	-64.3944	0.0000000E+000	0.0000000E+000	0.0000000E+000	64.3944	0.0000000E+000	0.0000000E+000	0.0000000E+000	-64.3944	0.0000000E+000	0.0000000E+000	0.0000000E+000	-25.6056	0.0000000E+000	0.0000000E+000	0.0000000E+000	25.6056	2.08664	64.3944	-5.31178e-07	2.72581e-06	1.65863e-09	2.72415e-06	0.212706	16618.5	10.1122	16608.4
31621.1	3.01252	1.51238	3.37084	-26.658	3.30754	0.212805	0.00308489	3.328	0.669925	1	9	0.00534453	0.00158552	0	-3.02041e-07	7.22138e-05	8.3163e-06	-0.874393	0.00524516	0.00524455	8.00434e-05	-26.6193	3.37556	3.01776	1.51246	0.265127	0.133102	0.296662	26.658	669.925	1334.43	1493.15	-63.342	0.0000000E+000	0.0000000E+000	0.0000000E+000	63.342	0.0000000E+000	0.0000000E+000	0.0000000E+000	-63.342	0.0000000E+000	0.0000000E+000	0.0000000E+000	-26.658	0.0000000E+000	0.0000000E+000	0.0000000E+000	26.658	1.99191	63.342	1.66029e-06	6.56478e-07	2.22771e-10	6.56255e-07	0.212732	68983	23.4089	68959.6
10002.2	4.31931	1.71927	4.64891	-21.7046	4.49055	0.212852	-0.0148883	9.25507	1.2658	1	10	0.00492375	0.00105912	0	-4.03928e-07	-0.000176061	6.59133e-06	-47.4874	0.00622341	0.00420548	0.00458745	-21.7379	4.65451	4.32352	1.72386	0.199854	0.0795502	0.215104	21.7046	1265.8	3180.07	3422.73	-68.2954	0.0000000E+000	0.0000000E+000	0.0000000E+000	68.2954	0.0000000E+000	0.0000000E+000	0.0000000E+000	-68.2954	0.0000000E+000	0.0000000E+000	0.0000000E+000	-21.7046	0.0000000E+000	0.0000000E+000	0.0000000E+000	21.7046	2.5123	68.2954	-1.65519e-06	-3.169e-06	2.62124e-09	-3.17162e-06	0.213028	14296.7	11.8255	14308.5
3163.08	5.50024	1.94494	5.83399	-19.4741	5.38868	0.212746	-0.0171503	25.8705	2.87531	1	10	0.00510245	0.000874607	0	-4.3374e-06	5.31158e-05	7.71474e-06	-22.4754	0.00882081	0.00815082	0.00337208	-19.4786	5.8428	5.50839	1.94831	0.161603	0.0571444	0.171409	19.4741	2875.3	8131.31	8624.71	-70.5259	0.0000000E+000	0.0000000E+000	0.0000000E+000	70.5259	0.0000000E+000	0.0000000E+000	0.0000000E+000	-70.5259	0.0000000E+000	0.0000000E+000	0.0000000E+000	-19.4741	0.0000000E+000	0.0000000E+000	0.0000000E+000	19.4741	2.82798	70.5259	-1.36313e-06	-3.64865e-06	-9.10951e-10	-3.64774e-06	0.212693	12404.8	3.09708	12401.7
1000.32	6.74298	2.78348	7.2949	-22.4307	6.74283	0.212797	-0.00122299	57.1601	8.32205	1	10	0.0049941	0.000684602	0	-4.20083e-06	0.000167704	7.92272e-06	96.9358	0.0115727	-0.00139749	-0.0114881	-22.3514	7.28923	6.74158	2.77199	0.126711	0.0523057	0.137082	22.4307	8322.05	20160.2	21810.3	-67.5693	0.0000000E+000	0.0000000E+000	0.0000000E+000	67.5693	0.0000000E+000	0.0000000E+000	0.0000000E+000	-67.5693	0.0000000E+000	0.0000000E+000	0.0000000E+000	-22.4307	0.0000000E+000	0.0000000E+000	0.0000000E+000	22.4307	2.4225	67.5693	2.55234e-07	-2.60248e-07	-2.051e-10	-2.60043e-07	0.212629	173998	137.127	173861
316.316	8.96331	4.93801	10.2335	-28.851	8.09304	0.212812	-0.000339793	101.894	23.7247	1	10	0.00494569	0.000483284	0	-3.67049e-06	0.000167704	1.04083e-05	-53.9685	0.0215366	0.0126685	0.0174165	-28.9021	10.253	8.97598	4.95543	0.0855891	0.0471522	0.0977181	28.851	23724.7	43064.3	49167	-61.149	0.0000000E+000	0.0000000E+000	0.0000000E+000	61.149	0.0000000E+000	0.0000000E+000	0.0000000E+000	-61.149	0.0000000E+000	0.0000000E+000	0.0000000E+000	-28.851	0.0000000E+000	0.0000000E+000	0.0000000E+000	28.851	1.81517	61.149	2.21769e-07	-7.2312e-08	-5.69847e-11	-7.2255e-08	0.212644	626298	493.547	625804
100.032	14.4407	7.44319	16.2461	-27.268	9.44085	0.212807	-0.000157198	213.758	44.8688	1	10	0.00493516	0.000303776	0	-3.39265e-06	5.31158e-05	6.84681e-06	-13.1758	0.022539	0.0219457	0.00513751	-27.2487	16.2679	14.4626	7.44833	0.0547132	0.0282009	0.0615534	27.268	44868.8	87050.8	97933.9	-62.732	0.0000000E+000	0.0000000E+000	0.0000000E+000	62.732	0.0000000E+000	0.0000000E+000	0.0000000E+000	-62.732	0.0000000E+000	0.0000000E+000	0.0000000E+000	-27.268	0.0000000E+000	0.0000000E+000	0.0000000E+000	27.268	1.94012	62.732	-6.12467e-08	-3.34528e-08	-8.3497e-12	-3.34445e-08	0.212754	1.35375e+06	337.891	1.35341e+06
31.6296	21.2624	5.86911	22.0576	-15.4312	11.0085	0.212843	-0.00344267	857.343	60.6994	1	11	0.00492938	0.000223478	0	-4.20308e-06	5.31158e-05	4.15401e-06	-45.9548	0.018588	0.0129229	0.0133609	-15.4557	22.0736	21.2753	5.88247	0.0437016	0.0120631	0.0453359	15.4312	60699.4	219900	228123	-74.5688	0.0000000E+000	0.0000000E+000	0.0000000E+000	74.5688	0.0000000E+000	0.0000000E+000	0.0000000E+000	-74.5688	0.0000000E+000	0.0000000E+000	0.0000000E+000	-15.4312	0.0000000E+000	0.0000000E+000	0.0000000E+000	15.4312	3.62276	74.5688	4.8666e-08	-7.32749e-07	-1.8286e-10	-7.32566e-07	0.21279	61825.2	15.4287	61809.7
10.0032	24.1316	2.77513	24.2907	-6.56018	12.3408	0.212839	-0.00294165	5733.21	74.8316	1	11	0.0049322	0.000203049	0	-5.66197e-06	0.000244096	7.87411e-06	-14.9956	0.0387793	0.0374587	0.0100339	-6.57357	24.329	24.1691	2.78516	0.0408985	0.00470331	0.0411681	6.56018	74831.6	650712	655000	-83.4398	0.0000000E+000	0.0000000E+000	0.0000000E+000	83.4398	0.0000000E+000	0.0000000E+000	0.0000000E+000	-83.4398	0.0000000E+000	0.0000000E+000	0.0000000E+000	-6.56018	0.0000000E+000	0.0000000E+000	0.0000000E+000	6.56018	8.69568	83.4398	-1.77842e-06	-6.26098e-07	-7.18045e-10	-6.2538e-07	0.212595	72353.8	82.9794	72270.8
3.1604	24.9186	1.36535	24.956	-3.13625	13.8574	0.212843	-0.00240705	36883.6	110.402	1	11	0.0049329	0.000197664	0	-8.37102e-06	0.000148606	4.14197e-06	56.5246	0.0209546	0.0115581	-0.0174787	-3.09475	24.9666	24.9301	1.34788	0.0400106	0.00219228	0.0400706	3.13625	110401	2.0149e+06	2.01792e+06	-86.8638	0.0000000E+000	0.0000000E+000	0.0000000E+000	86.8638	0.0000000E+000	0.0000000E+000	0.0000000E+000	-86.8638	0.0000000E+000	0.0000000E+000	0.0000000E+000	-3.13625	0.0000000E+000	0.0000000E+000	0.0000000E+000	3.13625	18.2506	86.8638	-3.10703e-06	-5.12323e-07	-3.57702e-10	-5.11965e-07	0.212694	88424.6	61.7378	88362.9
1.00006	25.3206	1.08477	25.3438	-2.45313	19.497	0.21284	-0.00249451	146709	268.774	1	12	0.00493456	0.000194705	0	-2.49964e-06	0.000167704	3.04263e-06	60.175	0.0156269	0.00777205	-0.0135571	-2.42177	25.351	25.3283	1.07121	0.0394213	0.00168886	0.0394574	2.45313	268774	6.27369e+06	6.27944e+06	-87.5469	0.0000000E+000	0.0000000E+000	0.0000000E+000	87.5469	0.0000000E+000	0.0000000E+000	0.0000000E+000	-87.5469	0.0000000E+000	0.0000000E+000	0.0000000E+000	-2.45313	0.0000000E+000	0.0000000E+000	0.0000000E+000	2.45313	23.3419	87.5469	4.55619e-06	-5.30932e-07	-4.1834e-10	-5.30513e-07	0.212672	85323.3	67.2292	85256
0.316193	25.8393	1.69421	25.8947	-3.75136	33.8419	0.212843	-0.000607756	297099	1271.78	1	12	0.0049329	0.000190498	0	-2.31663e-05	-0.000156963	3.47303e-06	11.4878	0.0182313	0.0178661	-0.00363095	-3.74076	25.9123	25.8571	1.69058	0.0385351	0.00252664	0.0386179	3.75136	1.27178e+06	1.93966e+07	1.94382e+07	-86.2486	0.0000000E+000	0.0000000E+000	0.0000000E+000	86.2486	0.0000000E+000	0.0000000E+000	0.0000000E+000	-86.2486	0.0000000E+000	0.0000000E+000	0.0000000E+000	-3.75136	0.0000000E+000	0.0000000E+000	0.0000000E+000	3.75136	15.2515	86.2486	-1.67416e-05	-1.29357e-07	9.53949e-11	-1.29452e-07	0.213	350211	258.266	350470
0.0999041	26.902	3.60427	27.1424	-7.63091	79.0498	0.212848	-0.00332005	441997	7793.95	1	12	0.00492899	0.000181597	0	-9.95442e-05	7.22138e-05	1.36441e-06	17.6727	0.00751337	0.00715878	-0.00228091	-7.62414	27.1492	26.9092	3.60199	0.0365164	0.00489239	0.0368427	7.63091	7.79395e+06	5.81735e+07	5.86933e+07	-82.3691	0.0000000E+000	0.0000000E+000	0.0000000E+000	82.3691	0.0000000E+000	0.0000000E+000	0.0000000E+000	-82.3691	0.0000000E+000	0.0000000E+000	0.0000000E+000	-7.63091	0.0000000E+000	0.0000000E+000	0.0000000E+000	7.63091	7.46393	82.3691	-1.80759e-05	-7.06666e-07	-2.39754e-10	-7.06426e-07	0.212776	64109.8	21.7508	64088
0.0315922	28.8867	8.42682	30.0908	-16.263	221.933	0.212843	-0.00205121	597828	46885.4	1	12	0.00493135	0.000163883	0	7.76569e-05	0.000320488	1.68782e-06	-14.2921	0.010299	0.00998021	0.00254247	-16.2623	30.1011	28.8967	8.42937	0.031903	0.00930674	0.0332328	16.263	4.68854e+07	1.60721e+08	1.6742e+08	-73.737	0.0000000E+000	0.0000000E+000	0.0000000E+000	73.737	0.0000000E+000	0.0000000E+000	0.0000000E+000	-73.737	0.0000000E+000	0.0000000E+000	0.0000000E+000	-16.263	0.0000000E+000	0.0000000E+000	0.0000000E+000	16.263	3.42795	73.737	9.85239e-05	-4.36586e-07	-6.57388e-10	-4.35929e-07	0.212523	103765	156.244	103609
0.0100092	34.2413	20.8749	40.1028	-31.3682	673.156	0.212837	-0.00254956	761723	206395	1	12	0.00493036	0.000122943	0	-0.000560096	-0.000137865	6.87753e-07	-48.2019	0.00559407	0.00372849	0.00417037	-31.3705	40.1081	34.2451	20.8791	0.0212913	0.0129801	0.0249359	31.3682	2.06395e+08	3.38551e+08	3.96504e+08	-58.6318	0.0000000E+000	0.0000000E+000	0.0000000E+000	58.6318	0.0000000E+000	0.0000000E+000	0.0000000E+000	-58.6318	0.0000000E+000	0.0000000E+000	0.0000000E+000	-31.3682	0.0000000E+000	0.0000000E+000	0.0000000E+000	31.3682	1.64031	58.6318	-0.000481476	-5.4264e-07	3.51494e-10	-5.42991e-07	0.212975	83479.9	54.0739	83534