File: txt/18942_R308_UA704_SOC00_C07.mpt
EC-Lab ASCII FILE
Nb header lines : 66

Potentio Electrochemical Impedance Spectroscopy

Run on channel : 7 (SN 66126)
Grouped channel(s) : 7, 8
User :
CE vs. WE compliance from -10 V to 10 V
Electrode connection : standard
Potential control : Ewe
Ewe ctrl range : min = -10.00 V, max = 10.00 V
Safety Limits :
	Do not start on E overload
Acquisition started on : 11/04/2025 15:28:53.628
Loaded Setting File :  C:\Users\Celltest\OneDrive - store-dot.com\Documents\EC-Lab\Data\@Biologic Test Protocols\anode half cell EIS SOC00.mps
Saved on :
	File : 18942_R308_UA704_SOC00_C07.mpr
	Directory : C:\Users\Celltest\OneDrive - store-dot.com\Documents\EC-Lab\Data\Charmaine\
	Host : 169.254.61.224
Device : VMP-3e (SN .003165)
Address : USB
EC-LAB for windows v11.62 (software)
Internet server v27.00 (firmware)
Command interpretor v12.03 (firmware)
Electrode material :
Initial state :
Electrolyte :
Comments :
Electrode surface area : 0.001 cm²
Characteristic mass : 0.001 g
Equivalent Weight : 0.000 g/eq.
Density : 0.000 g/cm3
Volume (V) : 0.001 cm³
Record Ece
Cycle Definition : Charge/Discharge alternance
Mode                Single sine
E (V)               0.0000
vs.                 Eoc
tE (h:m:s)          0:00:0.0000
record              0
dI                  0.000
unit dI             mA
dt (s)              0.000
fi                  100.000
unit fi             kHz
ff                  10.000
unit ff             mHz
Nd                  6
Points              per decade
spacing             Logarithmic
Va (mV)             5.0
pw                  0.10
Na                  2
corr                0
E range min (V)     -10.000
E range max (V)     10.000
I Range             Auto
Bandwidth           5
nc cycles           0
goto Ns'            0
nr cycles           0
inc. cycle          0

freq/Hz	Re(Z)/Ohm	-Im(Z)/Ohm	|Z|/Ohm	Phase(Z)/deg	time/s	<Ewe>/V	<I>/mA	Cs/µF	Cp/µF	cycle number	I Range	|Ewe|/V	|I|/A	Ns	(Q-Qo)/mA.h	<Ece>/V	|Ece|/V	Phase(Zce)/deg	|Zce|/Ohm	Re(Zce)/Ohm	-Im(Zce)/Ohm	Phase(Zwe-ce)/deg	|Zwe-ce|/Ohm	Re(Zwe-ce)/Ohm	-Im(Zwe-ce)/Ohm	Re(Y)/Ohm-1	Im(Y)/Ohm-1	|Y|/Ohm-1	Phase(Y)/deg	Re(C)/nF	Im(C)/nF	|C|/nF	Phase(C)/deg	Re(M)	Im(M)	|M|	Phase(M)/deg	Re(Permittivity)	Im(Permittivity)	|Permittivity|	Phase(Permittivity)/deg	Re(Resistivity)/Ohm.cm	Im(Resistivity)/Ohm.cm	|Resistivity|/Ohm.cm	Phase(Resistivity)/deg	Re(Conductivity)/mS/cm	Im(Conductivity)/mS/cm	|Conductivity|/mS/cm	Phase(Conductivity)/deg	Tan(Delta)	Loss Angle(Delta)/deg	dq/mA.h	Pwe/W	Pce/W	Pwe-ce/W	<Ewe-Ece>/V	Rwe/Ohm	Rce/Ohm	Rwe-ce/Ohm		Ewe-Ece/V
100004	1.4471	0.533532	1.54232	-20.2385	1.86953	0.240757	0.0642023	2.98294	0.356957	1	9	0.00494889	0.00320873	0	1.3265e-05	-0.000256923	4.15062e-05	57.834	0.0129354	0.00688648	-0.0109499	-19.7691	1.54505	1.45399	0.522582	0.608344	0.224291	0.648374	20.2385	356.957	968.174	1031.88	-69.7615	0.0000000E+000	0.0000000E+000	0.0000000E+000	69.7615	0.0000000E+000	0.0000000E+000	0.0000000E+000	-69.7615	0.0000000E+000	0.0000000E+000	0.0000000E+000	-20.2385	0.0000000E+000	0.0000000E+000	0.0000000E+000	20.2385	2.7123	69.7615	1.3265e-05	1.54572e-05	-1.64951e-08	1.54737e-05	0.241014	3749.97	4.00178	3753.98
31621.1	1.94604	0.731805	2.07909	-20.6087	3.01853	0.240764	0.0648726	6.87776	0.852105	1	9	0.00543901	0.00261606	0	2.88285e-05	-2.80181e-05	1.21603e-05	41.5628	0.00464831	0.003478	-0.00308388	-20.4955	2.08126	1.94952	0.728721	0.450201	0.169297	0.480981	20.6087	852.105	2265.94	2420.86	-69.3913	0.0000000E+000	0.0000000E+000	0.0000000E+000	69.3913	0.0000000E+000	0.0000000E+000	0.0000000E+000	-69.3913	0.0000000E+000	0.0000000E+000	0.0000000E+000	-20.6087	0.0000000E+000	0.0000000E+000	0.0000000E+000	20.6087	2.65923	69.3913	1.28688e-05	1.5619e-05	-1.81761e-09	1.56208e-05	0.240792	3711.33	0.431895	3711.76
10002.2	2.50848	0.918979	2.67151	-20.1203	4.16754	0.240763	0.0625267	17.3148	2.04887	1	9	0.00523017	0.00195775	0	4.47044e-05	-0.000314149	1.19024e-05	-30.2904	0.00607962	0.00524963	0.00306646	-20.1432	2.6775	2.51373	0.922045	0.351476	0.128763	0.37432	20.1203	2048.87	5592.67	5956.16	-69.8797	0.0000000E+000	0.0000000E+000	0.0000000E+000	69.8797	0.0000000E+000	0.0000000E+000	0.0000000E+000	-69.8797	0.0000000E+000	0.0000000E+000	0.0000000E+000	-20.1203	0.0000000E+000	0.0000000E+000	0.0000000E+000	20.1203	2.72964	69.8797	4.0166e-06	1.50541e-05	-1.96427e-08	1.50738e-05	0.241078	3850.57	5.02425	3855.6
3163.08	3.18149	1.21087	3.40412	-20.8367	5.31767	0.240709	0.0476695	41.554	5.2577	1	9	0.00513227	0.00150766	0	5.85283e-05	-0.000409527	1.16509e-05	22.836	0.00772781	0.0071221	-0.00299913	-20.7471	3.40972	3.18861	1.20787	0.274549	0.104493	0.293761	20.8367	5257.7	13814.3	14781	-69.1633	0.0000000E+000	0.0000000E+000	0.0000000E+000	69.1633	0.0000000E+000	0.0000000E+000	0.0000000E+000	-69.1633	0.0000000E+000	0.0000000E+000	0.0000000E+000	-20.8367	0.0000000E+000	0.0000000E+000	0.0000000E+000	20.8367	2.62744	69.1633	5.65824e-06	1.14745e-05	-1.95219e-08	1.1494e-05	0.241119	5049.55	8.59096	5058.14
1000.32	4.12649	1.81673	4.50871	-23.7619	6.91584	0.240723	-0.0100842	87.5773	14.2189	1	10	0.00503582	0.00111691	0	5.77531e-05	-0.000161546	6.26142e-06	104.591	0.00560602	-0.00141224	-0.00542522	-23.706	4.50523	4.12508	1.8113	0.202991	0.0893686	0.221793	23.7619	14218.9	32296.7	35288.2	-66.2381	0.0000000E+000	0.0000000E+000	0.0000000E+000	66.2381	0.0000000E+000	0.0000000E+000	0.0000000E+000	-66.2381	0.0000000E+000	0.0000000E+000	0.0000000E+000	-23.7619	0.0000000E+000	0.0000000E+000	0.0000000E+000	23.7619	2.27139	66.2381	-1.72549e-06	-2.4275e-06	1.62906e-09	-2.42913e-06	0.240884	23871.3	16.0197	23887.3
316.316	5.59898	2.9247	6.31683	-27.5809	8.26604	0.240715	-0.00986829	172.035	36.8792	1	10	0.00490601	0.000776657	0	5.36055e-05	-0.000256923	1.31014e-05	-62.8882	0.0168689	0.00768763	0.0150153	-27.6691	6.33061	5.60666	2.93971	0.140317	0.0732963	0.158307	27.5809	36879.2	70600.7	79652.5	-62.4191	0.0000000E+000	0.0000000E+000	0.0000000E+000	62.4191	0.0000000E+000	0.0000000E+000	0.0000000E+000	-62.4191	0.0000000E+000	0.0000000E+000	0.0000000E+000	-27.5809	0.0000000E+000	0.0000000E+000	0.0000000E+000	27.5809	1.91438	62.4191	-1.56365e-06	-2.37544e-06	2.53539e-09	-2.37798e-06	0.240972	24392.7	26.0352	24418.8
100.032	8.62124	4.22527	9.60098	-26.1095	9.61377	0.240728	-0.00882592	376.553	72.9298	1	10	0.00486575	0.000506797	0	4.97358e-05	8.64344e-05	9.58677e-06	146.222	0.0189164	-0.0157233	-0.010517	-26.0944	9.58223	8.60552	4.21476	0.0935274	0.0458378	0.104156	26.1095	72929.8	148806	165716	-63.8905	0.0000000E+000	0.0000000E+000	0.0000000E+000	63.8905	0.0000000E+000	0.0000000E+000	0.0000000E+000	-63.8905	0.0000000E+000	0.0000000E+000	0.0000000E+000	-26.1095	0.0000000E+000	0.0000000E+000	0.0000000E+000	26.1095	2.0404	63.8905	-8.86183e-07	-2.12465e-06	-7.62863e-10	-2.12389e-06	0.240642	27275.2	9.79324	27265.4
31.6296	12.4217	3.68476	12.9567	-16.5223	10.9425	0.24072	-0.0100284	1365.58	110.445	1	10	0.00485581	0.000374771	0	4.59525e-05	-0.000142471	6.82492e-06	75.5052	0.0182109	0.00455805	-0.0176313	-16.4419	12.9561	12.4263	3.66713	0.073993	0.0219491	0.0771799	16.5223	110444	372321	388357	-73.4777	0.0000000E+000	0.0000000E+000	0.0000000E+000	73.4777	0.0000000E+000	0.0000000E+000	0.0000000E+000	-73.4777	0.0000000E+000	0.0000000E+000	0.0000000E+000	-16.5223	0.0000000E+000	0.0000000E+000	0.0000000E+000	16.5223	3.37112	73.4777	-1.88729e-06	-2.41403e-06	1.42875e-09	-2.41546e-06	0.240862	24003.9	14.2068	24018.1
10.0032	14.5922	2.26107	14.7663	-8.80798	12.5238	0.240744	-0.00771967	7036.68	164.987	1	11	0.00485159	0.000328558	0	4.21979e-05	-0.00010432	7.51856e-06	91.9072	0.0228835	-0.000761588	-0.0228708	-8.72071	14.7621	14.5914	2.2382	0.0669231	0.0103698	0.0677217	8.80798	164987	1.06477e+06	1.07748e+06	-81.192	0.0000000E+000	0.0000000E+000	0.0000000E+000	81.192	0.0000000E+000	0.0000000E+000	0.0000000E+000	-81.192	0.0000000E+000	0.0000000E+000	0.0000000E+000	-8.80798	0.0000000E+000	0.0000000E+000	0.0000000E+000	8.80798	6.45366	81.192	-3.0605e-06	-1.85846e-06	8.05315e-10	-1.85927e-06	0.240848	31185.7	13.5135	31199.2
3.1604	15.6473	1.38515	15.7085	-5.05884	14.0405	0.240753	-0.00636887	36356.4	282.688	1	11	0.00485208	0.000308883	0	3.66963e-05	-0.000428602	8.25198e-06	-94.1956	0.0267156	-0.00195457	0.026644	-5.15627	15.7089	15.6453	1.4118	0.0634119	0.00561344	0.0636598	5.05884	282688	3.19337e+06	3.20586e+06	-84.9412	0.0000000E+000	0.0000000E+000	0.0000000E+000	84.9412	0.0000000E+000	0.0000000E+000	0.0000000E+000	-84.9412	0.0000000E+000	0.0000000E+000	0.0000000E+000	-5.05884	0.0000000E+000	0.0000000E+000	0.0000000E+000	5.05884	11.2964	84.9412	-5.29211e-06	-1.53333e-06	2.72971e-09	-1.53606e-06	0.241182	37801.6	67.2964	37868.9
1.00006	16.2711	1.04836	16.3049	-3.68651	19.6779	0.240747	-0.00644359	151804	627.578	1	12	0.00485756	0.000297921	0	4.17765e-05	-0.000142471	1.99819e-06	-24.3462	0.00670712	0.00611066	0.00276501	-3.69482	16.3112	16.2772	1.05112	0.0612044	0.00394344	0.0613314	3.68651	627578	9.74037e+06	9.76056e+06	-86.3135	0.0000000E+000	0.0000000E+000	0.0000000E+000	86.3135	0.0000000E+000	0.0000000E+000	0.0000000E+000	-86.3135	0.0000000E+000	0.0000000E+000	0.0000000E+000	-3.68651	0.0000000E+000	0.0000000E+000	0.0000000E+000	3.68651	15.5206	86.3135	4.22294e-06	-1.55128e-06	9.18022e-10	-1.55219e-06	0.24089	37362.3	22.1105	37384.4
0.316193	16.7267	1.34985	16.7811	-4.6138	34.02	0.240753	-0.00231655	372891	2412.77	1	12	0.00485615	0.000289383	0	1.28109e-06	-8.94272e-06	2.52174e-06	-3.19281	0.0087142	0.00870067	0.000485347	-4.61307	16.7898	16.7354	1.35034	0.0593979	0.00479345	0.059591	4.6138	2.41277e+06	2.98978e+07	2.9995e+07	-85.3862	0.0000000E+000	0.0000000E+000	0.0000000E+000	85.3862	0.0000000E+000	0.0000000E+000	0.0000000E+000	-85.3862	0.0000000E+000	0.0000000E+000	0.0000000E+000	-4.6138	0.0000000E+000	0.0000000E+000	0.0000000E+000	4.6138	12.3915	85.3862	-2.85703e-05	-5.57716e-07	2.07162e-11	-5.57737e-07	0.240762	103928	3.86037	103932
0.0999041	17.4961	2.80138	17.7189	-9.09669	79.2292	0.240749	-0.00562819	568676	14214.6	1	12	0.00485289	0.000273882	0	-0.000119898	-0.000409527	2.58142e-06	-71.4252	0.00942529	0.00300236	0.00893432	-9.12367	17.7233	17.4991	2.81031	0.055727	0.00892272	0.0564368	9.09669	1.42146e+07	8.87775e+07	8.99083e+07	-80.9033	0.0000000E+000	0.0000000E+000	0.0000000E+000	80.9033	0.0000000E+000	0.0000000E+000	0.0000000E+000	-80.9033	0.0000000E+000	0.0000000E+000	0.0000000E+000	-9.09669	0.0000000E+000	0.0000000E+000	0.0000000E+000	9.09669	6.24552	80.9033	-2.74687e-05	-1.35498e-06	2.30489e-09	-1.35729e-06	0.241159	42775.6	72.7635	42848.4
0.0315922	19.0621	6.44527	20.1223	-18.6814	222.114	0.240747	-0.00234006	781626	80191.4	1	12	0.00485505	0.000241278	0	0.000157419	-0.000161546	2.5033e-06	34.1734	0.0103752	0.0085838	-0.00582773	-18.6579	20.1285	19.0707	6.43944	0.0470779	0.015918	0.0496962	18.6814	8.01914e+07	2.37169e+08	2.50359e+08	-71.3186	0.0000000E+000	0.0000000E+000	0.0000000E+000	71.3186	0.0000000E+000	0.0000000E+000	0.0000000E+000	-71.3186	0.0000000E+000	0.0000000E+000	0.0000000E+000	-18.6814	0.0000000E+000	0.0000000E+000	0.0000000E+000	18.6814	2.95753	71.3186	0.000151109	-5.63361e-07	3.78027e-10	-5.63739e-07	0.240908	102881	69.0352	102950
0.0146812	21.2065	11.9929	24.3628	-29.4893	463.154	0.240751	-0.00198581	903934	219042	1	12	0.00485402	0.000199239	0	-6.58186e-05	-0.000371376	1.74816e-06	29.5862	0.00877418	0.00763015	-0.0043321	-29.4716	24.3673	21.2142	11.9885	0.0357286	0.0202055	0.0410462	29.4893	2.19042e+08	3.87324e+08	4.44972e+08	-60.5107	0.0000000E+000	0.0000000E+000	0.0000000E+000	60.5107	0.0000000E+000	0.0000000E+000	0.0000000E+000	-60.5107	0.0000000E+000	0.0000000E+000	0.0000000E+000	-29.4893	0.0000000E+000	0.0000000E+000	0.0000000E+000	29.4893	1.76826	60.5107	-0.000265623	-4.78086e-07	7.37483e-10	-4.78823e-07	0.241122	121235	187.014	121422

0.0100092	22.9887	15.8377	27.9162	-34.5643	673.337	0.240751	-0.00248609	1.00399e+06	323149	1	12	0.00485606	0.000173951	0	-0.000711384	-0.000142471	2.38182e-06	-7.95434	0.0136925	0.0135607	0.00189482	-34.5517	27.9284	23.0023	15.8396	0.0294986	0.0203227	0.0358215	34.5643	3.23149e+08	4.69055e+08	5.69595e+08	-55.4357	0.0000000E+000	0.0000000E+000	0.0000000E+000	55.4357	0.0000000E+000	0.0000000E+000	0.0000000E+000	-55.4357	0.0000000E+000	0.0000000E+000	0.0000000E+000	-34.5643	0.0000000E+000	0.0000000E+000	0.0000000E+000	34.5643	1.45152	55.4357	-0.000645565	-5.98529e-07	3.54195e-10	-5.98883e-07	0.240894	96839.4	57.3072	96896.7