File: txt/18940_R308_UA704_SOC00_C07.mpt
EC-Lab ASCII FILE
Nb header lines : 65

Potentio Electrochemical Impedance Spectroscopy

Run on channel : 7 (SN 66126)
Grouped channel(s) : 6, 7, 8
User :
CE vs. WE compliance from -10 V to 10 V
Electrode connection : standard
Potential control : Ewe
Ewe ctrl range : min = -10.00 V, max = 10.00 V
Safety Limits :
	Do not start on E overload
Acquisition started on : 11/04/2025 15:06:24.562
Loaded Setting File :  C:\Users\Celltest\OneDrive - store-dot.com\Documents\EC-Lab\Data\@Biologic Test Protocols\anode half cell EIS SOC00.mps
Saved on :
	File : 18939_R308_UA704_SOC00_C07.mpr
	Directory : C:\Users\Celltest\OneDrive - store-dot.com\Documents\EC-Lab\Data\Charmaine\
	Host : 169.254.61.224
Device : VMP-3e (SN .003165)
Address : USB
EC-LAB for windows v11.62 (software)
Internet server v27.00 (firmware)
Command interpretor v12.03 (firmware)
Electrode material :
Initial state :
Electrolyte :
Comments :
Electrode surface area : 0.001 cm²
Characteristic mass : 0.001 g
Equivalent Weight : 0.000 g/eq.
Density : 0.000 g/cm3
Volume (V) : 0.001 cm³
Record Ece
Cycle Definition : Charge/Discharge alternance
Mode                Single sine
E (V)               0.0000
vs.                 Eoc
tE (h:m:s)          0:00:0.0000
record              0
dI                  0.000
unit dI             mA
dt (s)              0.000
fi                  100.000
unit fi             kHz
ff                  10.000
unit ff             mHz
Nd                  6
Points              per decade
spacing             Logarithmic
Va (mV)             5.0
pw                  0.10
Na                  2
corr                0
E range min (V)     -10.000
E range max (V)     10.000
I Range             Auto
Bandwidth           5
nc cycles           0
goto Ns'            0
nr cycles           0
inc. cycle          0

freq/Hz	Re(Z)/Ohm	-Im(Z)/Ohm	|Z|/Ohm	Phase(Z)/deg	time/s	<Ewe>/V	<I>/mA	Cs/µF	Cp/µF	cycle number	I Range	|Ewe|/V	|I|/A	Ns	(Q-Qo)/mA.h	<Ece>/V	|Ece|/V	Phase(Zce)/deg	|Zce|/Ohm	Re(Zce)/Ohm	-Im(Zce)/Ohm	Phase(Zwe-ce)/deg	|Zwe-ce|/Ohm	Re(Zwe-ce)/Ohm	-Im(Zwe-ce)/Ohm	Re(Y)/Ohm-1	Im(Y)/Ohm-1	|Y|/Ohm-1	Phase(Y)/deg	Re(C)/nF	Im(C)/nF	|C|/nF	Phase(C)/deg	Re(M)	Im(M)	|M|	Phase(M)/deg	Re(Permittivity)	Im(Permittivity)	|Permittivity|	Phase(Permittivity)/deg	Re(Resistivity)/Ohm.cm	Im(Resistivity)/Ohm.cm	|Resistivity|/Ohm.cm	Phase(Resistivity)/deg	Re(Conductivity)/mS/cm	Im(Conductivity)/mS/cm	|Conductivity|/mS/cm	Phase(Conductivity)/deg	Tan(Delta)	Loss Angle(Delta)/deg	dq/mA.h	Pwe/W	Pce/W	Pwe-ce/W	<Ewe-Ece>/V	Rwe/Ohm	Rce/Ohm	Rwe-ce/Ohm		Ewe-Ece/V
100004	1.44486	0.535369	1.54086	-20.3313	1.72652	0.237706	0.0612607	2.9727	0.358865	1	9	0.00464977	0.00301764	0	-3.89445e-07	-0.0002244	3.43025e-05	101.737	0.0113673	-0.00231241	-0.0111296	-19.9717	1.53485	1.44255	0.52424	0.608556	0.22549	0.648988	20.3313	358.865	968.51	1032.86	-69.6687	0.0000000E+000	0.0000000E+000	0.0000000E+000	69.6687	0.0000000E+000	0.0000000E+000	0.0000000E+000	-69.6687	0.0000000E+000	0.0000000E+000	0.0000000E+000	-20.3313	0.0000000E+000	0.0000000E+000	0.0000000E+000	20.3313	2.69881	69.6687	-3.89445e-07	1.4562e-05	-1.37469e-08	1.45758e-05	0.237931	3880.24	3.66303	3883.9
31621.1	1.94277	0.745082	2.08075	-20.9825	3.24757	0.237733	0.0579467	6.75521	0.866178	1	9	0.0050991	0.00245061	0	1.93648e-05	-0.000338852	9.21888e-06	39.6987	0.00376187	0.00289444	-0.00240289	-20.8923	2.08259	1.94567	0.742679	0.448728	0.172094	0.480596	20.9825	866.178	2258.53	2418.93	-69.0175	0.0000000E+000	0.0000000E+000	0.0000000E+000	69.0175	0.0000000E+000	0.0000000E+000	0.0000000E+000	-69.0175	0.0000000E+000	0.0000000E+000	0.0000000E+000	-20.9825	0.0000000E+000	0.0000000E+000	0.0000000E+000	20.9825	2.60746	69.0175	1.62002e-05	1.37758e-05	-1.96353e-08	1.37955e-05	0.238072	4102.62	5.84766	4108.47
10002.2	2.51478	0.943165	2.68583	-20.5585	4.27652	0.237709	0.0553029	16.8708	2.08043	1	9	0.00493776	0.00183845	0	3.49594e-05	-0.000453305	1.00442e-05	-87.7616	0.00546341	0.000213388	0.00545924	-20.6658	2.68795	2.515	0.948624	0.348612	0.130746	0.372324	20.5585	2080.43	5547.1	5924.4	-69.4415	0.0000000E+000	0.0000000E+000	0.0000000E+000	69.4415	0.0000000E+000	0.0000000E+000	0.0000000E+000	-69.4415	0.0000000E+000	0.0000000E+000	0.0000000E+000	-20.5585	0.0000000E+000	0.0000000E+000	0.0000000E+000	20.5585	2.66632	69.4415	6.291e-06	1.3146e-05	-2.5069e-08	1.3171e-05	0.238162	4298.31	8.19677	4306.51
3163.08	3.22495	1.31033	3.48098	-22.1124	5.17466	0.237533	0.0123696	38.3999	5.44109	1	9	0.00455053	0.00130725	0	4.3322e-05	0.000157109	7.49974e-06	-129.47	0.00573702	-0.00364689	0.00442872	-22.2026	3.47928	3.2213	1.31476	0.266145	0.108137	0.287275	22.1124	5441.09	13391.5	14454.7	-67.8876	0.0000000E+000	0.0000000E+000	0.0000000E+000	67.8876	0.0000000E+000	0.0000000E+000	0.0000000E+000	-67.8876	0.0000000E+000	0.0000000E+000	0.0000000E+000	-22.1124	0.0000000E+000	0.0000000E+000	0.0000000E+000	22.1124	2.46118	67.8876	1.00189e-06	2.9382e-06	1.94338e-09	2.93625e-06	0.237376	19202.9	12.7012	19190.2
1000.32	4.24034	1.92527	4.65695	-24.4198	6.77286	0.237637	-0.0124519	82.6396	14.1244	1	10	0.00456135	0.000979472	0	4.47938e-05	-9.08716e-05	1.19836e-05	13.289	0.0122347	0.0119071	-0.00281231	-24.3279	4.66664	4.25225	1.92246	0.195523	0.0887747	0.214733	24.4198	14124.4	31108.5	34164.8	-65.5802	0.0000000E+000	0.0000000E+000	0.0000000E+000	65.5802	0.0000000E+000	0.0000000E+000	0.0000000E+000	-65.5802	0.0000000E+000	0.0000000E+000	0.0000000E+000	-24.4198	0.0000000E+000	0.0000000E+000	0.0000000E+000	24.4198	2.20246	65.5802	-1.52067e-06	-2.95902e-06	1.13152e-09	-2.96015e-06	0.237727	19084.4	7.29783	19091.7
316.316	5.78764	3.12674	6.57824	-28.3799	8.33507	0.237626	-0.0121429	160.919	36.3556	1	10	0.00500338	0.000760595	0	4.12987e-05	-0.000205324	6.38379e-06	-93.2658	0.00839316	-0.000478141	0.00837953	-28.4461	6.58181	5.78716	3.13512	0.133746	0.0722558	0.152016	28.3799	36355.6	67294.7	76487.3	-61.6201	0.0000000E+000	0.0000000E+000	0.0000000E+000	61.6201	0.0000000E+000	0.0000000E+000	0.0000000E+000	-61.6201	0.0000000E+000	0.0000000E+000	0.0000000E+000	-28.3799	0.0000000E+000	0.0000000E+000	0.0000000E+000	28.3799	1.85101	61.6201	-1.36113e-06	-2.88547e-06	2.49323e-09	-2.88796e-06	0.237832	19569.2	16.909	19586.1
100.032	8.99858	4.53052	10.0747	-26.7239	9.68286	0.237633	-0.0114393	351.183	71.0171	1	10	0.00497906	0.000494213	0	3.7596e-05	-5.27208e-05	4.18138e-06	-27.0459	0.00846068	0.00753544	0.0038471	-26.7242	10.0832	9.00611	4.53436	0.0886559	0.0446356	0.0992583	26.7239	71017.1	141055	157924	-63.2761	0.0000000E+000	0.0000000E+000	0.0000000E+000	63.2761	0.0000000E+000	0.0000000E+000	0.0000000E+000	-63.2761	0.0000000E+000	0.0000000E+000	0.0000000E+000	-26.7239	0.0000000E+000	0.0000000E+000	0.0000000E+000	26.7239	1.98621	63.2761	-2.02913e-06	-2.71836e-06	6.03089e-10	-2.71896e-06	0.237686	20773.4	4.60874	20778
31.6296	13.1024	3.91685	13.6753	-16.6436	11.0126	0.23762	-0.0164762	1284.67	105.387	1	10	0.00497774	0.000363994	0	3.27835e-05	-0.000186249	5.58646e-06	-52.1276	0.0153477	0.00942201	0.0121151	-16.6809	13.6878	13.1118	3.92896	0.0700609	0.0209441	0.0731244	16.6436	105387	352535	367950	-73.3564	0.0000000E+000	0.0000000E+000	0.0000000E+000	73.3564	0.0000000E+000	0.0000000E+000	0.0000000E+000	-73.3564	0.0000000E+000	0.0000000E+000	0.0000000E+000	-16.6436	0.0000000E+000	0.0000000E+000	0.0000000E+000	16.6436	3.34514	73.3564	-1.64251e-06	-3.91507e-06	3.06867e-09	-3.91814e-06	0.237806	14422	11.3041	14433.3
10.0032	15.4513	2.34019	15.6275	-8.61231	12.5939	0.237677	-0.00430652	6798.77	152.458	1	11	0.00497786	0.000318532	0	2.82924e-05	-0.00026255	1.03225e-05	-43.2452	0.0324066	0.0236059	0.0222025	-8.67972	15.6542	15.4749	2.36239	0.0632681	0.00958231	0.0639896	8.61231	152458	1.00662e+06	1.0181e+06	-81.3877	0.0000000E+000	0.0000000E+000	0.0000000E+000	81.3877	0.0000000E+000	0.0000000E+000	0.0000000E+000	-81.3877	0.0000000E+000	0.0000000E+000	0.0000000E+000	-8.61231	0.0000000E+000	0.0000000E+000	0.0000000E+000	8.61231	6.60259	81.3877	2.02915e-06	-1.02356e-06	1.13068e-09	-1.02469e-06	0.23794	55190	60.9658	55251
3.1604	16.4921	1.41351	16.5526	-4.89875	14.1104	0.237689	-0.00343544	35627	259.804	1	11	0.00498012	0.000300866	0	2.66901e-05	-7.17962e-05	6.1066e-06	-98.3289	0.0202967	-0.00294008	0.0200827	-4.96888	16.5514	16.4892	1.43359	0.0601928	0.00515902	0.0604135	4.89875	259804	3.03126e+06	3.04237e+06	-85.1013	0.0000000E+000	0.0000000E+000	0.0000000E+000	85.1013	0.0000000E+000	0.0000000E+000	0.0000000E+000	-85.1013	0.0000000E+000	0.0000000E+000	0.0000000E+000	-4.89875	0.0000000E+000	0.0000000E+000	0.0000000E+000	4.89875	11.6675	85.1013	2.81359e-06	-8.16567e-07	2.46651e-10	-8.16813e-07	0.237761	69187.6	20.8987	69208.5
1.00006	17.1183	1.11385	17.1545	-3.72286	19.7499	0.237689	-0.00187305	142878	602.37	1	12	0.00498236	0.000290441	0	2.0099e-05	-7.17962e-05	3.12759e-06	5.80013	0.0107684	0.0107133	-0.00108824	-3.71691	17.1651	17.129	1.11276	0.0581708	0.00378504	0.0582938	3.72286	602370	9.25758e+06	9.27715e+06	-86.2771	0.0000000E+000	0.0000000E+000	0.0000000E+000	86.2771	0.0000000E+000	0.0000000E+000	0.0000000E+000	-86.2771	0.0000000E+000	0.0000000E+000	0.0000000E+000	-3.72286	0.0000000E+000	0.0000000E+000	0.0000000E+000	3.72286	15.3686	86.2771	-9.56507e-06	-4.45203e-07	1.34478e-10	-4.45338e-07	0.23776	126899	38.3311	126937
0.316193	17.6208	1.43118	17.6788	-4.64345	34.0938	0.237684	-0.00483198	351700	2304.93	1	12	0.00497941	0.00028166	0	-8.92092e-06	4.50547e-06	9.76793e-07	-15.9855	0.00346798	0.00333388	0.000955064	-4.64566	17.6822	17.6241	1.43214	0.0563793	0.00457921	0.056565	4.64345	2.30493e+06	2.83784e+07	2.84718e+07	-85.3565	0.0000000E+000	0.0000000E+000	0.0000000E+000	85.3565	0.0000000E+000	0.0000000E+000	0.0000000E+000	-85.3565	0.0000000E+000	0.0000000E+000	0.0000000E+000	-4.64345	0.0000000E+000	0.0000000E+000	0.0000000E+000	4.64345	12.312	85.3565	-2.65519e-06	-1.14848e-06	-2.17703e-11	-1.14846e-06	0.237679	49189.8	0.932428	49188.8
0.0999041	18.3292	2.85035	18.5495	-8.8392	79.3009	0.237693	-0.00154584	558905	13196.9	1	12	0.00498241	0.0002686	0	9.02165e-05	-0.000434229	4.07869e-06	44.3032	0.015185	0.0108672	-0.010606	-8.80169	18.5586	18.3401	2.83975	0.0532695	0.00828388	0.0539098	8.8392	1.31969e+07	8.48624e+07	8.58824e+07	-81.1608	0.0000000E+000	0.0000000E+000	0.0000000E+000	81.1608	0.0000000E+000	0.0000000E+000	0.0000000E+000	-81.1608	0.0000000E+000	0.0000000E+000	0.0000000E+000	-8.8392	0.0000000E+000	0.0000000E+000	0.0000000E+000	8.8392	6.4305	81.1608	4.55285e-05	-3.67435e-07	6.71249e-10	-3.68106e-07	0.238127	153763	280.902	154044
0.0315922	19.7803	6.81675	20.9219	-19.0152	222.186	0.237695	-0.00194846	739032	78453.8	1	12	0.00497868	0.000237965	0	-0.00021362	2.35809e-05	2.57295e-06	17.6408	0.0108123	0.0103039	-0.00327666	-18.9975	20.9306	19.7906	6.81347	0.0451886	0.0155731	0.0477968	19.0152	7.84538e+07	2.27651e+08	2.4079e+08	-70.9848	0.0000000E+000	0.0000000E+000	0.0000000E+000	70.9848	0.0000000E+000	0.0000000E+000	0.0000000E+000	-70.9848	0.0000000E+000	0.0000000E+000	0.0000000E+000	-19.0152	0.0000000E+000	0.0000000E+000	0.0000000E+000	19.0152	2.90172	70.9848	-0.000241076	-4.63139e-07	-4.59465e-11	-4.63094e-07	0.237671	121991	12.1023	121979
0.0100092	24.1986	16.6941	29.3984	-34.601	673.41	0.237695	-0.00440769	952485	307141	1	12	0.0049759	0.000169257	0	-0.000978124	-0.000319777	1.6304e-06	34.1318	0.00963265	0.00797342	-0.00540486	-34.5835	29.4019	24.2066	16.6887	0.027999	0.0193159	0.0340154	34.601	3.07141e+08	4.4521e+08	5.40876e+08	-55.399	0.0000000E+000	0.0000000E+000	0.0000000E+000	55.399	0.0000000E+000	0.0000000E+000	0.0000000E+000	-55.399	0.0000000E+000	0.0000000E+000	0.0000000E+000	-34.601	0.0000000E+000	0.0000000E+000	0.0000000E+000	34.601	1.44953	55.399	-7.44833e-05	-1.04768e-06	1.40948e-09	-1.04909e-06	0.238014	53927.3	72.5497	53999.8