File: txt/18941_R308_UA704_SOC00_C08.mpt
EC-Lab ASCII FILE
Nb header lines : 65

Potentio Electrochemical Impedance Spectroscopy

Run on channel : 8 (SN 65398)
Grouped channel(s) : 6, 7, 8
User :
CE vs. WE compliance from -10 V to 10 V
Electrode connection : standard
Potential control : Ewe
Ewe ctrl range : min = -10.00 V, max = 10.00 V
Safety Limits :
	Do not start on E overload
Acquisition started on : 11/04/2025 15:06:24.562
Loaded Setting File :  C:\Users\Celltest\OneDrive - store-dot.com\Documents\EC-Lab\Data\@Biologic Test Protocols\anode half cell EIS SOC00.mps
Saved on :
	File : 18939_R308_UA704_SOC00_C08.mpr
	Directory : C:\Users\Celltest\OneDrive - store-dot.com\Documents\EC-Lab\Data\Charmaine\
	Host : 169.254.61.224
Device : VMP-3e (SN .003165)
Address : USB
EC-LAB for windows v11.62 (software)
Internet server v27.00 (firmware)
Command interpretor v12.03 (firmware)
Electrode material :
Initial state :
Electrolyte :
Comments :
Electrode surface area : 0.001 cm²
Characteristic mass : 0.001 g
Equivalent Weight : 0.000 g/eq.
Density : 0.000 g/cm3
Volume (V) : 0.001 cm³
Record Ece
Cycle Definition : Charge/Discharge alternance
Mode                Single sine
E (V)               0.0000
vs.                 Eoc
tE (h:m:s)          0:00:0.0000
record              0
dI                  0.000
unit dI             mA
dt (s)              0.000
fi                  100.000
unit fi             kHz
ff                  10.000
unit ff             mHz
Nd                  6
Points              per decade
spacing             Logarithmic
Va (mV)             5.0
pw                  0.10
Na                  2
corr                0
E range min (V)     -10.000
E range max (V)     10.000
I Range             Auto
Bandwidth           5
nc cycles           0
goto Ns'            0
nr cycles           0
inc. cycle          0

freq/Hz	Re(Z)/Ohm	-Im(Z)/Ohm	|Z|/Ohm	Phase(Z)/deg	time/s	<Ewe>/V	<I>/mA	Cs/µF	Cp/µF	cycle number	I Range	|Ewe|/V	|I|/A	Ns	(Q-Qo)/mA.h	<Ece>/V	|Ece|/V	Phase(Zce)/deg	|Zce|/Ohm	Re(Zce)/Ohm	-Im(Zce)/Ohm	Phase(Zwe-ce)/deg	|Zwe-ce|/Ohm	Re(Zwe-ce)/Ohm	-Im(Zwe-ce)/Ohm	Re(Y)/Ohm-1	Im(Y)/Ohm-1	|Y|/Ohm-1	Phase(Y)/deg	Re(C)/nF	Im(C)/nF	|C|/nF	Phase(C)/deg	Re(M)	Im(M)	|M|	Phase(M)/deg	Re(Permittivity)	Im(Permittivity)	|Permittivity|	Phase(Permittivity)/deg	Re(Resistivity)/Ohm.cm	Im(Resistivity)/Ohm.cm	|Resistivity|/Ohm.cm	Phase(Resistivity)/deg	Re(Conductivity)/mS/cm	Im(Conductivity)/mS/cm	|Conductivity|/mS/cm	Phase(Conductivity)/deg	Tan(Delta)	Loss Angle(Delta)/deg	dq/mA.h	Pwe/W	Pce/W	Pwe-ce/W	<Ewe-Ece>/V	Rwe/Ohm	Rce/Ohm	Rwe-ce/Ohm		Ewe-Ece/V
100004	1.34531	0.519184	1.44202	-21.1026	1.72656	0.240733	-0.027304	3.06537	0.39736	1	9	0.00482362	0.00334505	0	-5.50573e-06	0.000167699	4.85097e-05	92.41	0.0145019	-0.000609799	-0.0144891	-20.5721	1.43629	1.3447	0.504694	0.646966	0.249678	0.693473	21.1026	397.36	1029.64	1103.66	-68.8974	0.0000000E+000	0.0000000E+000	0.0000000E+000	68.8974	0.0000000E+000	0.0000000E+000	0.0000000E+000	-68.8974	0.0000000E+000	0.0000000E+000	0.0000000E+000	-21.1026	0.0000000E+000	0.0000000E+000	0.0000000E+000	21.1026	2.59121	68.8974	-5.50573e-06	-6.57299e-06	-4.57885e-09	-6.56841e-06	0.240565	8816.77	6.1419	8810.62
31621.1	1.83984	0.701875	1.96917	-20.8812	3.24751	0.240738	-0.0163294	7.17105	0.911036	1	9	0.00511049	0.00259525	0	1.17498e-05	0.000110435	1.60694e-05	22.7125	0.00619184	0.00571169	-0.00239071	-20.7573	1.97366	1.84555	0.699485	0.474474	0.181006	0.507828	20.8812	911.036	2388.12	2555.99	-69.1188	0.0000000E+000	0.0000000E+000	0.0000000E+000	69.1188	0.0000000E+000	0.0000000E+000	0.0000000E+000	-69.1188	0.0000000E+000	0.0000000E+000	0.0000000E+000	-20.8812	0.0000000E+000	0.0000000E+000	0.0000000E+000	20.8812	2.62132	69.1188	5.55232e-06	-3.9311e-06	-1.80333e-09	-3.9293e-06	0.240627	14742.6	6.76294	14735.9
10002.2	2.37271	0.854205	2.52179	-19.7995	4.39756	0.240746	-0.0277133	18.6278	2.13732	1	9	0.00505208	0.00200337	0	1.07355e-05	-0.000214062	8.60916e-06	-22.5908	0.00429733	0.00396761	0.0016508	-19.8043	2.52608	2.37667	0.855856	0.373102	0.134322	0.396544	19.7995	2137.32	5936.78	6309.79	-70.2005	0.0000000E+000	0.0000000E+000	0.0000000E+000	70.2005	0.0000000E+000	0.0000000E+000	0.0000000E+000	-70.2005	0.0000000E+000	0.0000000E+000	0.0000000E+000	-19.7995	0.0000000E+000	0.0000000E+000	0.0000000E+000	19.7995	2.77768	70.2005	-6.48954e-07	-6.67186e-06	5.93237e-09	-6.67779e-06	0.24096	8687.02	7.72419	8694.75
3163.08	2.99327	1.1646	3.21185	-21.2597	5.29468	0.240503	-0.0392832	43.2048	5.68038	1	9	0.00467311	0.00145496	0	4.40292e-06	0.000186787	1.07731e-05	-145.972	0.0074044	-0.00613648	0.00414352	-21.3684	3.20764	2.98714	1.16875	0.290159	0.112893	0.311347	21.2597	5680.38	14599.8	15665.9	-68.7403	0.0000000E+000	0.0000000E+000	0.0000000E+000	68.7403	0.0000000E+000	0.0000000E+000	0.0000000E+000	-68.7403	0.0000000E+000	0.0000000E+000	0.0000000E+000	-21.2597	0.0000000E+000	0.0000000E+000	0.0000000E+000	21.2597	2.57021	68.7403	-3.05409e-06	-9.44773e-06	-7.33758e-09	-9.44039e-06	0.240316	6122.29	4.75488	6117.54
1000.32	3.88115	1.72672	4.24793	-23.9843	6.89377	0.240673	-0.0149614	92.1422	15.2247	1	10	0.0046965	0.0011056	0	1.81504e-05	0.000186787	9.97167e-06	-38.0066	0.00901925	0.00710663	0.00555362	-24.0137	4.25668	3.88825	1.73228	0.215083	0.0956904	0.235409	23.9843	15224.7	34220.6	37454.5	-66.0157	0.0000000E+000	0.0000000E+000	0.0000000E+000	66.0157	0.0000000E+000	0.0000000E+000	0.0000000E+000	-66.0157	0.0000000E+000	0.0000000E+000	0.0000000E+000	-23.9843	0.0000000E+000	0.0000000E+000	0.0000000E+000	23.9843	2.2477	66.0157	-2.06609e-06	-3.60081e-06	-2.7946e-09	-3.59802e-06	0.240486	16086.2	12.4845	16073.7
316.316	5.30517	2.80892	6.0029	-27.8999	8.24306	0.240661	-0.0149056	179.126	39.2208	1	10	0.00463621	0.000772328	0	1.25497e-05	5.31703e-05	8.35242e-06	61.4344	0.0108146	0.00517116	-0.00949815	-27.7966	6.00304	5.31034	2.79943	0.147223	0.0779502	0.166586	27.8999	39220.8	74075.7	83818.1	-62.1001	0.0000000E+000	0.0000000E+000	0.0000000E+000	62.1001	0.0000000E+000	0.0000000E+000	0.0000000E+000	-62.1001	0.0000000E+000	0.0000000E+000	0.0000000E+000	-27.8999	0.0000000E+000	0.0000000E+000	0.0000000E+000	27.8999	1.88868	62.1001	-2.0733e-06	-3.58721e-06	-7.92538e-10	-3.58641e-06	0.240608	16145.6	3.56713	16142
100.032	8.2105	3.9751	9.12216	-25.8338	9.59079	0.240663	-0.0143439	400.252	76.0035	1	10	0.0046207	0.000506535	0	7.8883e-06	-0.000443119	8.20565e-06	77.8896	0.0161996	0.00339861	-0.0158391	-25.7349	9.11833	8.2139	3.95926	0.0986676	0.0477697	0.109623	25.8338	76003.5	156984	174415	-64.1662	0.0000000E+000	0.0000000E+000	0.0000000E+000	64.1662	0.0000000E+000	0.0000000E+000	0.0000000E+000	-64.1662	0.0000000E+000	0.0000000E+000	0.0000000E+000	-25.8338	0.0000000E+000	0.0000000E+000	0.0000000E+000	25.8338	2.06549	64.1662	-2.39534e-06	-3.45205e-06	6.35607e-09	-3.45841e-06	0.241106	16778	30.8924	16808.9
31.6296	11.7018	3.3897	12.1828	-16.1549	10.9196	0.240646	-0.0214677	1484.45	114.919	1	10	0.00460772	0.000378215	0	1.5723e-06	5.31703e-05	9.0308e-06	-85.9227	0.0238774	0.00169772	0.023817	-16.2602	12.1911	11.7035	3.41352	0.0788415	0.0228384	0.0820827	16.1549	114919	396718	413027	-73.8451	0.0000000E+000	0.0000000E+000	0.0000000E+000	73.8451	0.0000000E+000	0.0000000E+000	0.0000000E+000	-73.8451	0.0000000E+000	0.0000000E+000	0.0000000E+000	-16.1549	0.0000000E+000	0.0000000E+000	0.0000000E+000	16.1549	3.45215	73.8451	-2.43172e-06	-5.16612e-06	-1.14144e-09	-5.16497e-06	0.240593	11209.7	2.47676	11207.2
10.0032	13.7355	2.08299	13.8925	-8.62325	12.4968	0.24071	-0.0033501	7638.24	171.715	1	11	0.00460955	0.000331801	0	-4.13299e-06	0.000224963	1.27818e-05	-50.4919	0.0385224	0.0245075	0.0297214	-8.72907	13.9212	13.76	2.11272	0.0711675	0.0107926	0.0719812	8.62325	171715	1.1323e+06	1.14525e+06	-81.3768	0.0000000E+000	0.0000000E+000	0.0000000E+000	81.3768	0.0000000E+000	0.0000000E+000	0.0000000E+000	-81.3768	0.0000000E+000	0.0000000E+000	0.0000000E+000	-8.62325	0.0000000E+000	0.0000000E+000	0.0000000E+000	8.62325	6.5941	81.3768	5.27857e-08	-8.06403e-07	-7.53647e-10	-8.05649e-07	0.240485	71851.8	67.1512	71784.6
3.1604	14.7404	1.29465	14.7972	-5.01942	14.0134	0.240717	-0.00292649	38897.8	297.766	1	11	0.00461179	0.000311667	0	-8.93539e-06	1.49942e-05	6.16456e-06	60.3453	0.0197793	0.00978625	-0.0171887	-4.94984	14.8054	14.7502	1.27747	0.0673213	0.00591285	0.0675805	5.01942	297766	3.39025e+06	3.4033e+06	-84.9806	0.0000000E+000	0.0000000E+000	0.0000000E+000	84.9806	0.0000000E+000	0.0000000E+000	0.0000000E+000	-84.9806	0.0000000E+000	0.0000000E+000	0.0000000E+000	-5.01942	0.0000000E+000	0.0000000E+000	0.0000000E+000	5.01942	11.3856	84.9806	-2.76083e-06	-7.04457e-07	-4.38805e-11	-7.04413e-07	0.240702	82254.5	5.12362	82249.4
1.00006	15.3143	0.986502	15.3461	-3.68572	18.6079	0.240719	-0.0020437	161322	666.645	1	11	0.00461448	0.000300694	0	4.16344e-06	0.000396755	3.81489e-06	57.9123	0.0126869	0.00673952	-0.0107488	-3.64407	15.3521	15.3211	0.975753	0.0650284	0.00418892	0.0651632	3.68572	666646	1.03489e+07	1.03704e+07	-86.3143	0.0000000E+000	0.0000000E+000	0.0000000E+000	86.3143	0.0000000E+000	0.0000000E+000	0.0000000E+000	-86.3143	0.0000000E+000	0.0000000E+000	0.0000000E+000	-3.68572	0.0000000E+000	0.0000000E+000	0.0000000E+000	3.68572	15.5239	86.3143	4.73385e-06	-4.91958e-07	-8.10851e-10	-4.91147e-07	0.240322	117785	194.135	117591
0.316193	15.6939	1.32759	15.75	-4.83531	32.9501	0.240712	-0.000916164	379142	2693.85	1	11	0.00461289	0.000292883	0	-3.99585e-05	0.000148611	4.68187e-06	-10.234	0.0159855	0.0157312	0.00284011	-4.84077	15.7659	15.7096	1.33043	0.0632663	0.00535188	0.0634922	4.83531	2.69385e+06	3.18449e+07	3.19586e+07	-85.1647	0.0000000E+000	0.0000000E+000	0.0000000E+000	85.1647	0.0000000E+000	0.0000000E+000	0.0000000E+000	-85.1647	0.0000000E+000	0.0000000E+000	0.0000000E+000	-4.83531	0.0000000E+000	0.0000000E+000	0.0000000E+000	4.83531	11.8213	85.1647	-2.82319e-05	-2.20531e-07	-1.36152e-10	-2.20395e-07	0.240563	262739	162.21	262576
0.0999041	16.3652	2.86192	16.6136	-9.91949	85.0204	0.24072	-0.00466793	556646	16518.5	1	12	0.00461232	0.000277624	0	-9.62173e-05	0.000129523	2.52916e-06	-29.8346	0.00911001	0.00790262	0.00453221	-9.93019	16.6221	16.3731	2.86645	0.059292	0.0103689	0.0601918	9.91949	1.65185e+07	9.44567e+07	9.58902e+07	-80.0805	0.0000000E+000	0.0000000E+000	0.0000000E+000	80.0805	0.0000000E+000	0.0000000E+000	0.0000000E+000	-80.0805	0.0000000E+000	0.0000000E+000	0.0000000E+000	-9.91949	0.0000000E+000	0.0000000E+000	0.0000000E+000	9.91949	5.71826	80.0805	1.29389e-05	-1.12366e-06	-6.04603e-10	-1.12306e-06	0.24059	51568.8	27.7473	51541.1
0.0315922	18.0531	6.66317	19.2435	-20.2584	227.904	0.240702	-0.00217601	756065	90646.5	1	12	0.00461168	0.000239648	0	0.000154505	-8.04461e-05	2.13703e-06	36.7556	0.00891734	0.00714453	-0.00533617	-20.2362	19.2484	18.0603	6.65784	0.0487509	0.0179933	0.0519655	20.2584	9.06465e+07	2.45597e+08	2.61791e+08	-69.7416	0.0000000E+000	0.0000000E+000	0.0000000E+000	69.7416	0.0000000E+000	0.0000000E+000	0.0000000E+000	-69.7416	0.0000000E+000	0.0000000E+000	0.0000000E+000	-20.2584	0.0000000E+000	0.0000000E+000	0.0000000E+000	20.2584	2.70939	69.7416	7.63052e-05	-5.2377e-07	1.75051e-10	-5.23945e-07	0.240782	110616	36.9695	110653
0.0100092	22.0785	15.8829	27.1979	-35.7307	679.126	0.240703	-0.00378405	1.00113e+06	341414	1	12	0.00461607	0.000169721	0	-0.00114121	-0.000118622	2.42318e-06	-49.6568	0.0142774	0.00924267	0.010882	-35.7379	27.2118	22.0877	15.8938	0.0298468	0.0214714	0.0367675	35.7307	3.41414e+08	4.74592e+08	5.84637e+08	-54.2693	0.0000000E+000	0.0000000E+000	0.0000000E+000	54.2693	0.0000000E+000	0.0000000E+000	0.0000000E+000	-54.2693	0.0000000E+000	0.0000000E+000	0.0000000E+000	-35.7307	0.0000000E+000	0.0000000E+000	0.0000000E+000	35.7307	1.39008	54.2693	-0.000721055	-9.1083e-07	4.48872e-10	-9.11279e-07	0.240821	63609.8	31.3479	63641.1