File: txt/18944_R308_UA705_SOC00_C01.mpt
EC-Lab ASCII FILE
Nb header lines : 66

Potentio Electrochemical Impedance Spectroscopy

Run on channel : 1 (SN 66354)
Grouped channel(s) : 1, 2, 3, 4, 5
User :
CE vs. WE compliance from -10 V to 10 V
Electrode connection : standard
Potential control : Ewe
Ewe ctrl range : min = -10.00 V, max = 10.00 V
Safety Limits :
	Do not start on E overload
Acquisition started on : 11/04/2025 15:30:07.703
Loaded Setting File :  C:\Users\Celltest\OneDrive - store-dot.com\Documents\EC-Lab\Data\@Biologic Test Protocols\anode half cell EIS SOC00.mps
Saved on :
	File : 18944_R308_UA705_SOC00_C01.mpr
	Directory : C:\Users\Celltest\OneDrive - store-dot.com\Documents\EC-Lab\Data\Charmaine\
	Host : 169.254.61.224
Device : VMP-3e (SN .003165)
Address : USB
EC-LAB for windows v11.62 (software)
Internet server v27.00 (firmware)
Command interpretor v12.03 (firmware)
Electrode material :
Initial state :
Electrolyte :
Comments :
Electrode surface area : 0.001 cm²
Characteristic mass : 0.001 g
Equivalent Weight : 0.000 g/eq.
Density : 0.000 g/cm3
Volume (V) : 0.001 cm³
Record Ece
Cycle Definition : Charge/Discharge alternance
Mode                Single sine
E (V)               0.0000
vs.                 Eoc
tE (h:m:s)          0:00:0.0000
record              0
dI                  0.000
unit dI             mA
dt (s)              0.000
fi                  100.000
unit fi             kHz
ff                  10.000
unit ff             mHz
Nd                  6
Points              per decade
spacing             Logarithmic
Va (mV)             5.0
pw                  0.10
Na                  2
corr                0
E range min (V)     -10.000
E range max (V)     10.000
I Range             Auto
Bandwidth           5
nc cycles           0
goto Ns'            0
nr cycles           0
inc. cycle          0

freq/Hz	Re(Z)/Ohm	-Im(Z)/Ohm	|Z|/Ohm	Phase(Z)/deg	time/s	<Ewe>/V	<I>/mA	Cs/µF	Cp/µF	cycle number	I Range	|Ewe|/V	|I|/A	Ns	(Q-Qo)/mA.h	<Ece>/V	|Ece|/V	Phase(Zce)/deg	|Zce|/Ohm	Re(Zce)/Ohm	-Im(Zce)/Ohm	Phase(Zwe-ce)/deg	|Zwe-ce|/Ohm	Re(Zwe-ce)/Ohm	-Im(Zwe-ce)/Ohm	Re(Y)/Ohm-1	Im(Y)/Ohm-1	|Y|/Ohm-1	Phase(Y)/deg	Re(C)/nF	Im(C)/nF	|C|/nF	Phase(C)/deg	Re(M)	Im(M)	|M|	Phase(M)/deg	Re(Permittivity)	Im(Permittivity)	|Permittivity|	Phase(Permittivity)/deg	Re(Resistivity)/Ohm.cm	Im(Resistivity)/Ohm.cm	|Resistivity|/Ohm.cm	Phase(Resistivity)/deg	Re(Conductivity)/mS/cm	Im(Conductivity)/mS/cm	|Conductivity|/mS/cm	Phase(Conductivity)/deg	Tan(Delta)	Loss Angle(Delta)/deg	dq/mA.h	Pwe/W	Pce/W	Pwe-ce/W	<Ewe-Ece>/V	Rwe/Ohm	Rce/Ohm	Rwe-ce/Ohm		Ewe-Ece/V
100004	2.08966	1.47456	2.55754	-35.2085	1.76856	0.197459	0.0444398	1.0793	0.358774	1	9	0.00455245	0.00178001	0	3.7256e-06	2.95724e-05	3.38665e-05	102.626	0.019026	-0.00415883	-0.0185659	-34.9208	2.54347	2.0855	1.45599	0.319471	0.225433	0.391001	35.2085	358.774	508.435	622.274	-54.7915	0.0000000E+000	0.0000000E+000	0.0000000E+000	54.7915	0.0000000E+000	0.0000000E+000	0.0000000E+000	-54.7915	0.0000000E+000	0.0000000E+000	0.0000000E+000	-35.2085	0.0000000E+000	0.0000000E+000	0.0000000E+000	35.2085	1.41714	54.7915	3.7256e-06	8.77503e-06	1.31419e-09	8.77372e-06	0.197429	4443.28	0.665449	4442.62
31621.1	3.56435	2.53134	4.37176	-35.3817	3.16753	0.197423	0.0368399	1.98835	0.666624	1	9	0.00497238	0.00113739	0	2.16574e-05	-2.76595e-05	7.67343e-06	-27.3407	0.00674655	0.00599291	0.00309856	-35.3694	4.37844	3.57034	2.53444	0.186495	0.132446	0.228741	35.3817	666.624	938.665	1151.29	-54.6183	0.0000000E+000	0.0000000E+000	0.0000000E+000	54.6183	0.0000000E+000	0.0000000E+000	0.0000000E+000	-54.6183	0.0000000E+000	0.0000000E+000	0.0000000E+000	-35.3817	0.0000000E+000	0.0000000E+000	0.0000000E+000	35.3817	1.40809	54.6183	4.82906e-06	7.27303e-06	-1.01897e-09	7.27405e-06	0.19745	5358.93	0.750802	5359.68
10002.2	5.90703	3.43925	6.83531	-30.2093	4.47353	0.197559	-0.0136485	4.62658	1.17131	1	10	0.00500103	0.000731646	0	2.00275e-05	-8.48914e-05	5.55013e-06	-70.6012	0.00758581	0.00251956	0.00715516	-30.2504	6.84109	5.90955	3.4464	0.126431	0.0736119	0.146299	30.2093	1171.31	2011.76	2327.91	-59.7907	0.0000000E+000	0.0000000E+000	0.0000000E+000	59.7907	0.0000000E+000	0.0000000E+000	0.0000000E+000	-59.7907	0.0000000E+000	0.0000000E+000	0.0000000E+000	-30.2093	0.0000000E+000	0.0000000E+000	0.0000000E+000	30.2093	1.71753	59.7907	-3.99254e-07	-2.69638e-06	1.15864e-09	-2.69754e-06	0.197644	14474.8	6.21984	14481
3163.08	8.58332	4.18636	9.54982	-26	5.37168	0.197411	-0.00347768	12.0191	2.30971	1	10	0.00470448	0.000492625	0	1.68695e-05	6.7727e-05	8.38477e-06	-43.0318	0.0170206	0.0124416	0.0116149	-26.0298	9.56609	8.59576	4.19798	0.0941164	0.0459036	0.104714	26	2309.71	4735.6	5268.84	-64	0.0000000E+000	0.0000000E+000	0.0000000E+000	64	0.0000000E+000	0.0000000E+000	0.0000000E+000	-64	0.0000000E+000	0.0000000E+000	0.0000000E+000	-26	0.0000000E+000	0.0000000E+000	0.0000000E+000	26	2.05031	64	-2.60652e-07	-6.86531e-07	-2.35533e-10	-6.86296e-07	0.197343	56764.9	19.4748	56745.5
1000.32	11.5465	5.62293	12.8428	-25.9653	6.72478	0.197455	0.0104499	28.2956	5.42403	1	10	0.00460231	0.000358356	0	2.02533e-05	0.000182191	8.95487e-06	93.8372	0.0249887	-0.00167231	-0.0249327	-25.8685	12.8304	11.5448	5.598	0.0700048	0.0340911	0.0778644	25.9653	5424.03	11138	12388.5	-64.0347	0.0000000E+000	0.0000000E+000	0.0000000E+000	64.0347	0.0000000E+000	0.0000000E+000	0.0000000E+000	-64.0347	0.0000000E+000	0.0000000E+000	0.0000000E+000	-25.9653	0.0000000E+000	0.0000000E+000	0.0000000E+000	25.9653	2.05346	64.0347	1.08516e-06	2.06339e-06	1.90387e-09	2.06148e-06	0.197273	18895.5	17.4347	18878
316.316	15.9822	8.85677	18.2722	-28.9936	8.075	0.197449	0.00982748	56.8099	13.3473	1	10	0.00456453	0.000249807	0	2.34807e-05	0.000411119	4.17859e-06	-36.8837	0.0167272	0.0133794	0.0100396	-29.0008	18.2888	15.9956	8.86681	0.047869	0.0265273	0.0547279	28.9936	13347.3	24085.4	27536.4	-61.0064	0.0000000E+000	0.0000000E+000	0.0000000E+000	61.0064	0.0000000E+000	0.0000000E+000	0.0000000E+000	-61.0064	0.0000000E+000	0.0000000E+000	0.0000000E+000	-28.9936	0.0000000E+000	0.0000000E+000	0.0000000E+000	28.9936	1.80452	61.0064	9.69781e-07	1.94043e-06	4.04026e-09	1.93639e-06	0.197038	20091.5	41.8336	20049.7
100.032	25.421	12.5045	28.33	-26.1925	9.66584	0.197493	-0.00176145	127.237	24.7888	1	11	0.00457538	0.000161503	0	2.43961e-05	0.000277577	8.24317e-06	-6.39769	0.0510404	0.0507225	0.00568738	-26.1576	28.378	25.4717	12.5102	0.0316737	0.0155802	0.0352983	26.1925	24788.8	50394.2	56161	-63.8075	0.0000000E+000	0.0000000E+000	0.0000000E+000	63.8075	0.0000000E+000	0.0000000E+000	0.0000000E+000	-63.8075	0.0000000E+000	0.0000000E+000	0.0000000E+000	-26.1925	0.0000000E+000	0.0000000E+000	0.0000000E+000	26.1925	2.03294	63.8075	-1.39119e-07	-3.47874e-07	-4.8894e-10	-3.47385e-07	0.197215	112119	157.584	111962
31.6296	36.4846	9.91296	37.8074	-15.2004	10.9945	0.197487	-0.00207389	507.603	34.8962	1	11	0.00456085	0.000120634	0	2.40134e-05	-0.000123046	1.20148e-05	-21.6617	0.0995969	0.0925633	0.0367639	-15.2174	37.9063	36.5772	9.94972	0.0255245	0.00693507	0.0264499	15.2004	34896.2	128435	133092	-74.7996	0.0000000E+000	0.0000000E+000	0.0000000E+000	74.7996	0.0000000E+000	0.0000000E+000	0.0000000E+000	-74.7996	0.0000000E+000	0.0000000E+000	0.0000000E+000	-15.2004	0.0000000E+000	0.0000000E+000	0.0000000E+000	15.2004	3.6805	74.7996	3.3764e-08	-4.09566e-07	2.55184e-10	-4.09821e-07	0.19761	95225.3	59.331	95284.7
10.0032	41.4004	4.94945	41.6952	-6.81739	12.3268	0.197494	-0.001916	3214.58	45.2965	1	11	0.00456733	0.000109541	0	2.29254e-05	-0.000123046	1.16788e-05	31.2	0.106616	0.0911957	-0.0552301	-6.72734	41.7793	41.4916	4.89422	0.023814	0.00284698	0.0239836	6.81739	45296.5	378890	381588	-83.1826	0.0000000E+000	0.0000000E+000	0.0000000E+000	83.1826	0.0000000E+000	0.0000000E+000	0.0000000E+000	-83.1826	0.0000000E+000	0.0000000E+000	0.0000000E+000	-6.81739	0.0000000E+000	0.0000000E+000	0.0000000E+000	6.81739	8.36466	83.1826	-1.07495e-06	-3.78398e-07	2.35756e-10	-3.78634e-07	0.197617	103076	64.2204	103141
3.1604	43.0293	2.90925	43.1276	-3.86794	13.8435	0.197535	0.000149286	17310	78.7682	1	11	0.00456591	0.00010587	0	2.23007e-05	2.95724e-05	4.57077e-06	38.5466	0.0431735	0.0337661	-0.0269036	-3.82928	43.1594	43.0631	2.88235	0.0231342	0.00156413	0.023187	3.86794	78768.1	1.16502e+06	1.16768e+06	-86.1321	0.0000000E+000	0.0000000E+000	0.0000000E+000	86.1321	0.0000000E+000	0.0000000E+000	0.0000000E+000	-86.1321	0.0000000E+000	0.0000000E+000	0.0000000E+000	-3.86794	0.0000000E+000	0.0000000E+000	0.0000000E+000	3.86794	14.7905	86.1321	-1.40717e-06	2.94891e-08	4.41474e-12	2.94847e-08	0.197505	1.3232e+06	198.093	1.323e+06
1.00006	44.3849	2.77213	44.4714	-3.57385	19.1646	0.197527	-0.000163044	57408.9	223.071	1	12	0.00456388	0.000102625	0	2.63667e-05	-4.67368e-05	3.6622e-06	59.5837	0.0356852	0.0180667	-0.0307739	-3.53284	44.4875	44.403	2.74135	0.0224426	0.00140169	0.0224864	3.57385	223071	3.57163e+06	3.57859e+06	-86.4261	0.0000000E+000	0.0000000E+000	0.0000000E+000	86.4261	0.0000000E+000	0.0000000E+000	0.0000000E+000	-86.4261	0.0000000E+000	0.0000000E+000	0.0000000E+000	-3.57385	0.0000000E+000	0.0000000E+000	0.0000000E+000	3.57385	16.0111	86.4261	3.21509e-06	-3.22055e-08	7.62015e-12	-3.22131e-08	0.197573	1.21149e+06	286.652	1.21178e+06
0.316193	46.36	3.67765	46.5056	-4.53567	33.505	0.197523	0.000222902	136866	855.909	1	12	0.00456559	9.81729e-05	0	2.15489e-05	0.000144036	2.69763e-06	1.01845	0.0274784	0.027474	-0.000488409	-4.5324	46.533	46.3875	3.67717	0.0214354	0.00170043	0.0215028	4.53567	855909	1.07895e+07	1.08234e+07	-85.4643	0.0000000E+000	0.0000000E+000	0.0000000E+000	85.4643	0.0000000E+000	0.0000000E+000	0.0000000E+000	-85.4643	0.0000000E+000	0.0000000E+000	0.0000000E+000	-4.53567	0.0000000E+000	0.0000000E+000	0.0000000E+000	4.53567	12.6059	85.4643	-6.60471e-06	4.40284e-08	3.2106e-11	4.39963e-08	0.197379	886144	646.186	885498
0.0999041	48.6293	5.65338	48.9568	-6.63113	78.7137	0.197516	-0.00159776	281792	3757.67	1	12	0.00456587	9.32633e-05	0	-2.10801e-05	-0.000123046	2.02807e-06	24.2682	0.0217456	0.019824	-0.00893763	-6.61807	48.9755	48.6491	5.64444	0.0202895	0.00235875	0.0204262	6.63113	3.75767e+06	3.23228e+07	3.25405e+07	-83.3689	0.0000000E+000	0.0000000E+000	0.0000000E+000	83.3689	0.0000000E+000	0.0000000E+000	0.0000000E+000	-83.3689	0.0000000E+000	0.0000000E+000	0.0000000E+000	-6.63113	0.0000000E+000	0.0000000E+000	0.0000000E+000	6.63113	8.60181	83.3689	-1.35089e-05	-3.15583e-07	1.96598e-10	-3.15779e-07	0.197639	123620	77.0115	123697
0.0315922	51.5734	11.9976	52.9505	-13.0958	221.597	0.197523	-0.00185207	419901	21557.2	1	12	0.00456471	8.62071e-05	0	4.31581e-05	0.000372964	2.76024e-06	-23.0678	0.0320187	0.0294586	0.0125456	-13.1018	52.982	51.6028	12.0101	0.0183944	0.0042791	0.0188856	13.0958	2.15572e+07	9.26671e+07	9.51415e+07	-76.9042	0.0000000E+000	0.0000000E+000	0.0000000E+000	76.9042	0.0000000E+000	0.0000000E+000	0.0000000E+000	-76.9042	0.0000000E+000	0.0000000E+000	0.0000000E+000	-13.0958	0.0000000E+000	0.0000000E+000	0.0000000E+000	13.0958	4.29866	76.9042	4.37854e-05	-3.65825e-07	-6.90754e-10	-3.65134e-07	0.19715	106650	201.377	106449
0.0146812	56.3784	22.0595	60.5404	-21.3692	462.637	0.197514	-0.00207153	491432	65247.6	1	12	0.00456462	7.53979e-05	0	-2.55737e-05	1.04951e-05	2.88478e-06	-2.51723	0.0382608	0.0382238	0.0016804	-21.3575	60.5766	56.4166	22.0612	0.0153823	0.00601873	0.0165179	21.3692	6.52476e+07	1.66756e+08	1.79066e+08	-68.6308	0.0000000E+000	0.0000000E+000	0.0000000E+000	68.6308	0.0000000E+000	0.0000000E+000	0.0000000E+000	-68.6308	0.0000000E+000	0.0000000E+000	0.0000000E+000	-21.3692	0.0000000E+000	0.0000000E+000	0.0000000E+000	21.3692	2.55574	68.6308	-8.92869e-05	-4.09156e-07	-2.17409e-11	-4.09135e-07	0.197504	95347.2	5.06637	95342.1

0.0100092	59.757	29.1001	66.4659	-25.9648	672.818	0.19752	-0.00242733	546422	104741	1	12	0.00456621	6.87001e-05	0	-0.000310458	8.68044e-05	2.22339e-06	12.2541	0.0323638	0.0316264	-0.00686913	-25.9476	66.4913	59.7886	29.0932	0.0135267	0.00658713	0.0150453	25.9648	1.04741e+08	2.15087e+08	2.39234e+08	-64.0352	0.0000000E+000	0.0000000E+000	0.0000000E+000	64.0352	0.0000000E+000	0.0000000E+000	0.0000000E+000	-64.0352	0.0000000E+000	0.0000000E+000	0.0000000E+000	-25.9648	0.0000000E+000	0.0000000E+000	0.0000000E+000	25.9648	2.0535	64.0352	-0.000284884	-4.79446e-07	-2.10703e-10	-4.79235e-07	0.197433	81373.2	35.7612	81337.5