File: txt/18947_R308_UA705_SOC00_C04.mpt
EC-Lab ASCII FILE
Nb header lines : 65

Potentio Electrochemical Impedance Spectroscopy

Run on channel : 4 (SN 66756)
Grouped channel(s) : 1, 2, 3, 4, 5
User :
CE vs. WE compliance from -10 V to 10 V
Electrode connection : standard
Potential control : Ewe
Ewe ctrl range : min = -10.00 V, max = 10.00 V
Safety Limits :
	Do not start on E overload
Acquisition started on : 11/04/2025 15:30:07.703
Loaded Setting File :  C:\Users\Celltest\OneDrive - store-dot.com\Documents\EC-Lab\Data\@Biologic Test Protocols\anode half cell EIS SOC00.mps
Saved on :
	File : 18944_R308_UA705_SOC00_C04.mpr
	Directory : C:\Users\Celltest\OneDrive - store-dot.com\Documents\EC-Lab\Data\Charmaine\
	Host : 169.254.61.224
Device : VMP-3e (SN .003165)
Address : USB
EC-LAB for windows v11.62 (software)
Internet server v27.00 (firmware)
Command interpretor v12.03 (firmware)
Electrode material :
Initial state :
Electrolyte :
Comments :
Electrode surface area : 0.001 cm²
Characteristic mass : 0.001 g
Equivalent Weight : 0.000 g/eq.
Density : 0.000 g/cm3
Volume (V) : 0.001 cm³
Record Ece
Cycle Definition : Charge/Discharge alternance
Mode                Single sine
E (V)               0.0000
vs.                 Eoc
tE (h:m:s)          0:00:0.0000
record              0
dI                  0.000
unit dI             mA
dt (s)              0.000
fi                  100.000
unit fi             kHz
ff                  10.000
unit ff             mHz
Nd                  6
Points              per decade
spacing             Logarithmic
Va (mV)             5.0
pw                  0.10
Na                  2
corr                0
E range min (V)     -10.000
E range max (V)     10.000
I Range             Auto
Bandwidth           5
nc cycles           0
goto Ns'            0
nr cycles           0
inc. cycle          0

freq/Hz	Re(Z)/Ohm	-Im(Z)/Ohm	|Z|/Ohm	Phase(Z)/deg	time/s	<Ewe>/V	<I>/mA	Cs/µF	Cp/µF	cycle number	I Range	|Ewe|/V	|I|/A	Ns	(Q-Qo)/mA.h	<Ece>/V	|Ece|/V	Phase(Zce)/deg	|Zce|/Ohm	Re(Zce)/Ohm	-Im(Zce)/Ohm	Phase(Zwe-ce)/deg	|Zwe-ce|/Ohm	Re(Zwe-ce)/Ohm	-Im(Zwe-ce)/Ohm	Re(Y)/Ohm-1	Im(Y)/Ohm-1	|Y|/Ohm-1	Phase(Y)/deg	Re(C)/nF	Im(C)/nF	|C|/nF	Phase(C)/deg	Re(M)	Im(M)	|M|	Phase(M)/deg	Re(Permittivity)	Im(Permittivity)	|Permittivity|	Phase(Permittivity)/deg	Re(Resistivity)/Ohm.cm	Im(Resistivity)/Ohm.cm	|Resistivity|/Ohm.cm	Phase(Resistivity)/deg	Re(Conductivity)/mS/cm	Im(Conductivity)/mS/cm	|Conductivity|/mS/cm	Phase(Conductivity)/deg	Tan(Delta)	Loss Angle(Delta)/deg	dq/mA.h	Pwe/W	Pce/W	Pwe-ce/W	<Ewe-Ece>/V	Rwe/Ohm	Rce/Ohm	Rwe-ce/Ohm		Ewe-Ece/V
100004	2.24347	1.46245	2.67805	-33.0991	2.04152	0.201508	-0.0727897	1.08824	0.324526	1	9	0.00464366	0.00173397	0	-1.32529e-05	3.90573e-05	2.72542e-05	101.408	0.0157178	-0.00310888	-0.0154073	-32.8583	2.66705	2.24036	1.44704	0.312813	0.203913	0.373407	33.0991	324.526	497.839	594.273	-56.9009	0.0000000E+000	0.0000000E+000	0.0000000E+000	56.9009	0.0000000E+000	0.0000000E+000	0.0000000E+000	-56.9009	0.0000000E+000	0.0000000E+000	0.0000000E+000	-33.0991	0.0000000E+000	0.0000000E+000	0.0000000E+000	33.0991	1.53405	56.9009	-1.32529e-05	-1.46677e-05	-2.84297e-09	-1.46649e-05	0.201469	2768.37	0.536578	2767.83
31621.1	3.65302	2.51296	4.4339	-34.5246	3.44054	0.201547	-0.0740951	2.00289	0.643362	1	9	0.00487427	0.00109932	0	-4.9025e-05	-0.000381362	1.08067e-05	-27.5215	0.00983037	0.00871794	0.00454243	-34.5092	4.44366	3.66174	2.5175	0.185814	0.127824	0.225535	34.5246	643.362	935.237	1135.16	-55.4754	0.0000000E+000	0.0000000E+000	0.0000000E+000	55.4754	0.0000000E+000	0.0000000E+000	0.0000000E+000	-55.4754	0.0000000E+000	0.0000000E+000	0.0000000E+000	-34.5246	0.0000000E+000	0.0000000E+000	0.0000000E+000	34.5246	1.45367	55.4754	-7.69557e-06	-1.49336e-05	2.8257e-08	-1.49619e-05	0.201928	2720.11	5.14692	2725.26
10002.2	5.90234	3.55088	6.88813	-31.0313	4.62053	0.201619	-0.0293625	4.48113	1.19085	1	10	0.00548077	0.000795683	0	-6.03013e-05	1.99474e-05	6.23369e-06	-118.123	0.00783439	-0.00369288	0.00690944	-31.0964	6.88853	5.89865	3.55778	0.1244	0.0748398	0.145177	31.0313	1190.85	1979.45	2310.05	-58.9687	0.0000000E+000	0.0000000E+000	0.0000000E+000	58.9687	0.0000000E+000	0.0000000E+000	0.0000000E+000	-58.9687	0.0000000E+000	0.0000000E+000	0.0000000E+000	-31.0313	0.0000000E+000	0.0000000E+000	0.0000000E+000	31.0313	1.66222	58.9687	-1.88811e-06	-5.92004e-06	-5.85704e-10	-5.91945e-06	0.201599	6866.56	0.679349	6865.88
3163.08	8.7083	4.61742	9.85673	-27.934	5.51767	0.201528	-0.0131325	10.8971	2.39135	1	10	0.00513765	0.000521233	0	-6.62537e-05	-9.47124e-05	8.80599e-06	-102.779	0.0168945	-0.00373692	0.0164761	-28.0287	9.86116	8.70457	4.6339	0.089633	0.0475263	0.101454	27.934	2391.36	4510.01	5104.78	-62.066	0.0000000E+000	0.0000000E+000	0.0000000E+000	62.066	0.0000000E+000	0.0000000E+000	0.0000000E+000	-62.066	0.0000000E+000	0.0000000E+000	0.0000000E+000	-27.934	0.0000000E+000	0.0000000E+000	0.0000000E+000	27.934	1.88597	62.066	-1.47239e-06	-2.64656e-06	1.24381e-09	-2.64781e-06	0.201623	15345.8	7.21207	15353
1000.32	12.1348	6.45529	13.745	-28.0113	6.87086	0.201578	0.000758698	24.6471	5.43635	1	10	0.00502702	0.000365734	0	-6.65772e-05	8.3741e-07	6.01954e-06	-30.9528	0.0164588	0.0141149	0.00846527	-28.0148	13.7614	12.149	6.46375	0.064231	0.0341685	0.0727537	28.0113	5436.35	10219.4	11575.4	-61.9887	0.0000000E+000	0.0000000E+000	0.0000000E+000	61.9887	0.0000000E+000	0.0000000E+000	0.0000000E+000	-61.9887	0.0000000E+000	0.0000000E+000	0.0000000E+000	-28.0113	0.0000000E+000	0.0000000E+000	0.0000000E+000	28.0113	1.87983	61.9887	1.88002e-07	1.52937e-07	6.35341e-13	1.52936e-07	0.201577	265689	1.10375	265688
316.316	17.5284	10.0061	20.1834	-29.7199	8.22006	0.201579	-0.000569248	50.2845	12.3588	1	10	0.00500592	0.000248022	0	-6.68785e-05	-0.000152042	5.38275e-06	131.222	0.0217027	-0.0143017	-0.0163239	-29.6997	20.1629	17.5141	9.98978	0.0430285	0.0245628	0.0495457	29.7199	12358.8	21649.9	24929	-60.2801	0.0000000E+000	0.0000000E+000	0.0000000E+000	60.2801	0.0000000E+000	0.0000000E+000	0.0000000E+000	-60.2801	0.0000000E+000	0.0000000E+000	0.0000000E+000	-29.7199	0.0000000E+000	0.0000000E+000	0.0000000E+000	29.7199	1.75177	60.2801	2.03337e-08	-1.14748e-07	8.65497e-11	-1.14835e-07	0.201731	354114	267.093	354381
100.032	27.9874	13.3332	31.0011	-25.4731	9.80985	0.201619	-0.00361983	119.329	22.073	1	11	0.00499938	0.000161265	0	-6.77169e-05	-0.000171152	5.75097e-06	11.198	0.0356617	0.0349827	-0.00692551	-25.4338	31.0297	28.0224	13.3263	0.0291211	0.0138733	0.0322569	25.4731	22073	46332.9	51322.1	-64.5269	0.0000000E+000	0.0000000E+000	0.0000000E+000	64.5269	0.0000000E+000	0.0000000E+000	0.0000000E+000	-64.5269	0.0000000E+000	0.0000000E+000	0.0000000E+000	-25.4731	0.0000000E+000	0.0000000E+000	0.0000000E+000	25.4731	2.09908	64.5269	-3.25647e-07	-7.29826e-07	6.19541e-10	-7.30446e-07	0.20179	55698.5	47.2819	55745.8
31.6296	39.1801	9.9505	40.424	-14.25	11.1396	0.20161	-0.00392836	505.688	30.6404	1	11	0.00498953	0.00012343	0	-6.9186e-05	-0.000209372	4.06559e-06	-102.984	0.0329384	-0.00740067	0.0320962	-14.2967	40.4247	39.1727	9.98259	0.0239766	0.0060893	0.0247378	14.25	30640.4	120647	124477	-75.75	0.0000000E+000	0.0000000E+000	0.0000000E+000	75.75	0.0000000E+000	0.0000000E+000	0.0000000E+000	-75.75	0.0000000E+000	0.0000000E+000	0.0000000E+000	-14.25	0.0000000E+000	0.0000000E+000	0.0000000E+000	14.25	3.93751	75.75	-6.98216e-07	-7.91996e-07	8.2249e-10	-7.92818e-07	0.201819	51321.5	53.2975	51374.8
10.0032	43.8427	5.23102	44.1537	-6.80399	12.4718	0.201609	-0.00384032	3041.55	42.6907	1	11	0.00499011	0.000113017	0	-6.9757e-05	-0.000190262	1.06455e-05	-32.6714	0.0941936	0.0792903	0.0508476	-6.85721	44.2385	43.922	5.28187	0.0224887	0.0026832	0.0226482	6.80399	42690.7	357804	360341	-83.196	0.0000000E+000	0.0000000E+000	0.0000000E+000	83.196	0.0000000E+000	0.0000000E+000	0.0000000E+000	-83.196	0.0000000E+000	0.0000000E+000	0.0000000E+000	-6.80399	0.0000000E+000	0.0000000E+000	0.0000000E+000	6.80399	8.38129	83.196	3.56914e-07	-7.74242e-07	7.30667e-10	-7.74972e-07	0.201799	52498	49.5434	52547.5
3.1604	45.8058	3.40381	45.9321	-4.24981	13.9895	0.201626	-0.00254462	14794.9	81.2477	1	11	0.00499143	0.00010867	0	-7.12418e-05	0.000153717	2.91152e-06	-19.4003	0.0267923	0.0252711	0.00889948	-4.25854	45.958	45.8311	3.41271	0.0217114	0.00161337	0.0217713	4.24981	81247.8	1.09337e+06	1.09638e+06	-85.7502	0.0000000E+000	0.0000000E+000	0.0000000E+000	85.7502	0.0000000E+000	0.0000000E+000	0.0000000E+000	-85.7502	0.0000000E+000	0.0000000E+000	0.0000000E+000	-4.24981	0.0000000E+000	0.0000000E+000	0.0000000E+000	4.24981	13.4572	85.7502	5.46091e-07	-5.1306e-07	-3.91151e-10	-5.12669e-07	0.201472	79236.2	60.4087	79175.8
1.00006	47.7235	3.43134	47.8467	-4.11251	19.3078	0.201635	-0.00107593	46379.8	238.535	1	12	0.00499428	0.000104381	0	-7.41615e-05	-0.000324032	5.06474e-06	33.1683	0.0485217	0.0406159	-0.0265462	-4.07735	47.8853	47.7641	3.40479	0.0208463	0.00149886	0.0209001	4.11251	238535	3.31758e+06	3.32614e+06	-85.8875	0.0000000E+000	0.0000000E+000	0.0000000E+000	85.8875	0.0000000E+000	0.0000000E+000	0.0000000E+000	-85.8875	0.0000000E+000	0.0000000E+000	0.0000000E+000	-4.11251	0.0000000E+000	0.0000000E+000	0.0000000E+000	4.11251	13.9081	85.8875	-3.62737e-06	-2.16946e-07	3.48636e-10	-2.17294e-07	0.201959	187405	301.164	187706
0.316193	50.148	4.01328	50.3083	-4.57556	33.6508	0.201623	-0.00215516	125420	798.156	1	12	0.00499843	9.93559e-05	0	-8.7465e-05	-0.000190262	3.69624e-06	21.3956	0.037202	0.0346382	-0.0135715	-4.55702	50.3418	50.1826	3.99971	0.0198141	0.0015857	0.0198774	4.57556	798155	9.97336e+06	1.00052e+07	-85.4244	0.0000000E+000	0.0000000E+000	0.0000000E+000	85.4244	0.0000000E+000	0.0000000E+000	0.0000000E+000	-85.4244	0.0000000E+000	0.0000000E+000	0.0000000E+000	-4.57556	0.0000000E+000	0.0000000E+000	0.0000000E+000	4.57556	12.4955	85.4244	-2.32581e-06	-4.3453e-07	4.10046e-10	-4.3494e-07	0.201813	93553.7	88.2821	93641.9
0.0999041	52.3483	5.98284	52.6891	-6.51999	78.8588	0.201633	-0.00164134	266274	3433.23	1	12	0.00499522	9.48056e-05	0	-6.2794e-05	5.81673e-05	2.41225e-06	-15.6555	0.0254442	0.0245002	0.00686617	-6.52438	52.7142	52.3728	5.98971	0.0188565	0.00215509	0.0189793	6.51999	3.43323e+06	3.00399e+07	3.02354e+07	-83.48	0.0000000E+000	0.0000000E+000	0.0000000E+000	83.48	0.0000000E+000	0.0000000E+000	0.0000000E+000	-83.48	0.0000000E+000	0.0000000E+000	0.0000000E+000	-6.51999	0.0000000E+000	0.0000000E+000	0.0000000E+000	6.51999	8.74975	83.48	1.13256e-05	-3.30949e-07	-9.54725e-11	-3.30854e-07	0.201575	122846	35.4388	122811
0.0315922	55.3677	13.3378	56.9516	-13.5442	221.742	0.201622	-0.00184843	377708	20716.3	1	12	0.00499416	8.76913e-05	0	-0.000195075	-0.000209372	2.24895e-06	8.80296	0.0256462	0.0253441	-0.00392482	-13.5344	56.9753	55.3931	13.3339	0.0170705	0.00411218	0.0175588	13.5442	2.07163e+07	8.59974e+07	8.84574e+07	-76.4558	0.0000000E+000	0.0000000E+000	0.0000000E+000	76.4558	0.0000000E+000	0.0000000E+000	0.0000000E+000	-76.4558	0.0000000E+000	0.0000000E+000	0.0000000E+000	-13.5442	0.0000000E+000	0.0000000E+000	0.0000000E+000	13.5442	4.1512	76.4558	-9.98206e-05	-3.72683e-07	3.87009e-10	-3.7307e-07	0.201831	109077	113.27	109191
0.0100092	64.7647	31.7234	72.1168	-26.0968	672.964	0.201624	-0.00332439	501237	96990.3	1	12	0.00499469	6.92584e-05	0	-0.000752553	-5.64925e-05	3.4233e-06	3.58857	0.049428	0.049331	-0.00309377	-26.0773	72.1598	64.814	31.7203	0.0124527	0.00609967	0.0138664	26.0968	9.69903e+07	1.9801e+08	2.20488e+08	-63.9032	0.0000000E+000	0.0000000E+000	0.0000000E+000	63.9032	0.0000000E+000	0.0000000E+000	0.0000000E+000	-63.9032	0.0000000E+000	0.0000000E+000	0.0000000E+000	-26.0968	0.0000000E+000	0.0000000E+000	0.0000000E+000	26.0968	2.04154	63.9032	-0.000173404	-6.70278e-07	1.87803e-10	-6.70466e-07	0.201681	60650.1	16.9933	60667.1