File: txt/18946_R308_UA705_SOC00_C03.mpt
EC-Lab ASCII FILE
Nb header lines : 65

Potentio Electrochemical Impedance Spectroscopy

Run on channel : 3 (SN 65921)
Grouped channel(s) : 1, 2, 3, 4, 5
User :
CE vs. WE compliance from -10 V to 10 V
Electrode connection : standard
Potential control : Ewe
Ewe ctrl range : min = -10.00 V, max = 10.00 V
Safety Limits :
	Do not start on E overload
Acquisition started on : 11/04/2025 15:30:07.703
Loaded Setting File :  C:\Users\Celltest\OneDrive - store-dot.com\Documents\EC-Lab\Data\@Biologic Test Protocols\anode half cell EIS SOC00.mps
Saved on :
	File : 18944_R308_UA705_SOC00_C03.mpr
	Directory : C:\Users\Celltest\OneDrive - store-dot.com\Documents\EC-Lab\Data\Charmaine\
	Host : 169.254.61.224
Device : VMP-3e (SN .003165)
Address : USB
EC-LAB for windows v11.62 (software)
Internet server v27.00 (firmware)
Command interpretor v12.03 (firmware)
Electrode material :
Initial state :
Electrolyte :
Comments :
Electrode surface area : 0.001 cm²
Characteristic mass : 0.001 g
Equivalent Weight : 0.000 g/eq.
Density : 0.000 g/cm3
Volume (V) : 0.001 cm³
Record Ece
Cycle Definition : Charge/Discharge alternance
Mode                Single sine
E (V)               0.0000
vs.                 Eoc
tE (h:m:s)          0:00:0.0000
record              0
dI                  0.000
unit dI             mA
dt (s)              0.000
fi                  100.000
unit fi             kHz
ff                  10.000
unit ff             mHz
Nd                  6
Points              per decade
spacing             Logarithmic
Va (mV)             5.0
pw                  0.10
Na                  2
corr                0
E range min (V)     -10.000
E range max (V)     10.000
I Range             Auto
Bandwidth           5
nc cycles           0
goto Ns'            0
nr cycles           0
inc. cycle          0

freq/Hz	Re(Z)/Ohm	-Im(Z)/Ohm	|Z|/Ohm	Phase(Z)/deg	time/s	<Ewe>/V	<I>/mA	Cs/µF	Cp/µF	cycle number	I Range	|Ewe|/V	|I|/A	Ns	(Q-Qo)/mA.h	<Ece>/V	|Ece|/V	Phase(Zce)/deg	|Zce|/Ohm	Re(Zce)/Ohm	-Im(Zce)/Ohm	Phase(Zwe-ce)/deg	|Zwe-ce|/Ohm	Re(Zwe-ce)/Ohm	-Im(Zwe-ce)/Ohm	Re(Y)/Ohm-1	Im(Y)/Ohm-1	|Y|/Ohm-1	Phase(Y)/deg	Re(C)/nF	Im(C)/nF	|C|/nF	Phase(C)/deg	Re(M)	Im(M)	|M|	Phase(M)/deg	Re(Permittivity)	Im(Permittivity)	|Permittivity|	Phase(Permittivity)/deg	Re(Resistivity)/Ohm.cm	Im(Resistivity)/Ohm.cm	|Resistivity|/Ohm.cm	Phase(Resistivity)/deg	Re(Conductivity)/mS/cm	Im(Conductivity)/mS/cm	|Conductivity|/mS/cm	Phase(Conductivity)/deg	Tan(Delta)	Loss Angle(Delta)/deg	dq/mA.h	Pwe/W	Pce/W	Pwe-ce/W	<Ewe-Ece>/V	Rwe/Ohm	Rce/Ohm	Rwe-ce/Ohm		Ewe-Ece/V
100004	2.14599	1.47405	2.60347	-34.4847	1.72654	0.192661	-0.031072	1.07967	0.346106	1	9	0.0046494	0.00178585	0	-9.60472e-06	-0.000223386	3.2751e-05	95.1282	0.0183392	-0.00163925	-0.0182658	-34.1724	2.59182	2.14435	1.45578	0.316607	0.217473	0.384102	34.4847	346.106	503.877	611.295	-55.5153	0.0000000E+000	0.0000000E+000	0.0000000E+000	55.5153	0.0000000E+000	0.0000000E+000	0.0000000E+000	-55.5153	0.0000000E+000	0.0000000E+000	0.0000000E+000	-34.4847	0.0000000E+000	0.0000000E+000	0.0000000E+000	34.4847	1.45584	55.5153	-9.60472e-06	-5.98637e-06	6.94105e-09	-5.99331e-06	0.192885	6200.49	7.18931	6207.68
31621.1	3.64822	2.52607	4.4374	-34.6991	3.12357	0.192668	-0.0337571	1.9925	0.645699	1	9	0.0050156	0.0011303	0	-1.7643e-05	2.48367e-05	1.69048e-05	-64.3462	0.014956	0.00647494	0.0134818	-34.7944	4.45041	3.6547	2.53955	0.185278	0.128288	0.225357	34.6991	645.698	932.537	1134.26	-55.3009	0.0000000E+000	0.0000000E+000	0.0000000E+000	55.3009	0.0000000E+000	0.0000000E+000	0.0000000E+000	-55.3009	0.0000000E+000	0.0000000E+000	0.0000000E+000	-34.6991	0.0000000E+000	0.0000000E+000	0.0000000E+000	34.6991	1.44423	55.3009	-2.72667e-06	-6.5039e-06	-8.38415e-10	-6.50307e-06	0.192643	5707.46	0.735746	5706.73
10002.2	5.8709	3.26095	6.71575	-29.0497	4.42752	0.192744	-0.037241	4.87955	1.15048	1	10	0.00526174	0.000783493	0	-2.89535e-05	-3.24455e-05	1.28363e-05	-88.6742	0.0163834	0.000379078	0.016379	-29.1701	6.72404	5.87128	3.27733	0.130172	0.0723029	0.148904	29.0497	1150.48	2071.28	2369.35	-60.9503	0.0000000E+000	0.0000000E+000	0.0000000E+000	60.9503	0.0000000E+000	0.0000000E+000	0.0000000E+000	-60.9503	0.0000000E+000	0.0000000E+000	0.0000000E+000	-29.0497	0.0000000E+000	0.0000000E+000	0.0000000E+000	29.0497	1.80036	60.9503	-1.83639e-06	-7.17796e-06	1.2083e-09	-7.17916e-06	0.192776	5175.58	0.871232	5176.45
3163.08	8.35469	3.93938	9.23686	-25.2447	5.32562	0.192606	-0.0220532	12.7727	2.32322	1	10	0.00498244	0.000539409	0	-3.67302e-05	5.74261e-06	3.10874e-06	81.0471	0.00576323	0.000896887	-0.00569301	-25.2104	9.23524	8.35559	3.93369	0.0979223	0.0461721	0.108262	25.2447	2323.22	4927.1	5447.35	-64.7553	0.0000000E+000	0.0000000E+000	0.0000000E+000	64.7553	0.0000000E+000	0.0000000E+000	0.0000000E+000	-64.7553	0.0000000E+000	0.0000000E+000	0.0000000E+000	-25.2447	0.0000000E+000	0.0000000E+000	0.0000000E+000	25.2447	2.12081	64.7553	-1.68647e-06	-4.24759e-06	-1.26643e-10	-4.24746e-06	0.1926	8733.68	0.260397	8733.42
1000.32	11.1027	5.42275	12.3562	-26.0317	6.67878	0.192703	0.00077124	29.3401	5.65106	1	10	0.00486865	0.000394024	0	-3.62147e-05	-1.33515e-05	8.92366e-06	23.8531	0.0226475	0.020713	-0.0091585	-25.9515	12.3708	11.1234	5.41359	0.0727207	0.0355181	0.080931	26.0317	5651.06	11570.1	12876.4	-63.9683	0.0000000E+000	0.0000000E+000	0.0000000E+000	63.9683	0.0000000E+000	0.0000000E+000	0.0000000E+000	-63.9683	0.0000000E+000	0.0000000E+000	0.0000000E+000	-26.0317	0.0000000E+000	0.0000000E+000	0.0000000E+000	26.0317	2.04743	63.9683	1.71606e-07	1.4862e-07	-1.02972e-11	1.48631e-07	0.192716	249861	17.3117	249878
316.316	15.5993	8.73073	17.8764	-29.2352	8.02806	0.192707	0.00100243	57.63	13.7465	1	10	0.00484472	0.000271012	0	-3.58627e-05	6.30248e-05	8.24527e-06	-75.2873	0.0304239	0.00772682	0.0294264	-29.3053	17.8975	15.607	8.76016	0.0488143	0.0273207	0.0559398	29.2352	13746.5	24561	28146.2	-60.7648	0.0000000E+000	0.0000000E+000	0.0000000E+000	60.7648	0.0000000E+000	0.0000000E+000	0.0000000E+000	-60.7648	0.0000000E+000	0.0000000E+000	0.0000000E+000	-29.2352	0.0000000E+000	0.0000000E+000	0.0000000E+000	29.2352	1.78671	60.7648	-5.5726e-08	1.93176e-07	6.3178e-11	1.93113e-07	0.192644	192240	62.872	192177
100.032	24.8013	12.1137	27.6016	-26.0323	9.61781	0.192734	-0.0108493	131.342	25.2982	1	11	0.00484766	0.00017563	0	-3.75202e-05	-0.00014701	1.05515e-05	-11.8054	0.0600784	0.0588076	0.0122914	-26.0017	27.6599	24.8602	12.126	0.0325541	0.0159004	0.0362298	26.0323	25298.2	51794.9	57643	-63.9677	0.0000000E+000	0.0000000E+000	0.0000000E+000	63.9677	0.0000000E+000	0.0000000E+000	0.0000000E+000	-63.9677	0.0000000E+000	0.0000000E+000	0.0000000E+000	-26.0323	0.0000000E+000	0.0000000E+000	0.0000000E+000	26.0323	2.04738	63.9677	-1.27247e-06	-2.09103e-06	1.59495e-09	-2.09262e-06	0.192881	17764.7	13.5502	17778.3
31.6296	35.2935	9.17633	36.467	-14.5742	10.9466	0.192715	-0.0109537	548.35	34.7214	1	11	0.00483992	0.000132721	0	-4.15105e-05	0.000196683	7.13305e-06	-39.7562	0.0537449	0.0413176	0.0343711	-14.6101	36.5156	35.3349	9.2107	0.0265397	0.00690033	0.0274221	14.5742	34721.4	133544	137984	-75.4258	0.0000000E+000	0.0000000E+000	0.0000000E+000	75.4258	0.0000000E+000	0.0000000E+000	0.0000000E+000	-75.4258	0.0000000E+000	0.0000000E+000	0.0000000E+000	-14.5742	0.0000000E+000	0.0000000E+000	0.0000000E+000	14.5742	3.84615	75.4258	-1.47031e-06	-2.11094e-06	-2.15441e-09	-2.10879e-06	0.192519	17593.7	17.9559	17575.7
10.0032	39.5953	4.62324	39.8643	-6.65983	12.2788	0.192734	-0.0101635	3441.4	46.287	1	11	0.00482827	0.000121118	0	-4.44028e-05	0.000101213	5.55978e-06	-83.6513	0.045904	0.005076	0.0456224	-6.7241	39.8746	39.6004	4.66886	0.0249158	0.00290923	0.0250851	6.65983	46287.1	396421	399114	-83.3402	0.0000000E+000	0.0000000E+000	0.0000000E+000	83.3402	0.0000000E+000	0.0000000E+000	0.0000000E+000	-83.3402	0.0000000E+000	0.0000000E+000	0.0000000E+000	-6.65983	0.0000000E+000	0.0000000E+000	0.0000000E+000	6.65983	8.5644	83.3402	-5.19589e-07	-1.95885e-06	-1.02868e-09	-1.95783e-06	0.192633	18963.3	9.95847	18953.4
3.1604	41.1805	2.68952	41.2683	-3.73671	13.7955	0.192734	-0.00946748	18724.2	79.5283	1	11	0.00483794	0.000117231	0	-4.90808e-05	0.000101213	5.78536e-06	-79.6578	0.0493499	0.00885968	0.0485481	-3.80315	41.2803	41.1894	2.73807	0.0241802	0.00157922	0.0242317	3.73671	79528.2	1.21769e+06	1.22029e+06	-86.2633	0.0000000E+000	0.0000000E+000	0.0000000E+000	86.2633	0.0000000E+000	0.0000000E+000	0.0000000E+000	-86.2633	0.0000000E+000	0.0000000E+000	0.0000000E+000	-3.73671	0.0000000E+000	0.0000000E+000	0.0000000E+000	3.73671	15.3115	86.2633	-1.01749e-06	-1.82471e-06	-9.58232e-10	-1.82375e-06	0.192633	20357.5	10.6906	20346.8
1.00006	42.3787	2.57176	42.4567	-3.47275	19.115	0.192748	-0.00716478	61881.6	227.055	1	12	0.00483558	0.000113894	0	-5.99675e-05	-0.00024248	2.48177e-06	32.885	0.0217901	0.0182985	-0.011831	-3.45532	42.4743	42.397	2.55993	0.0235102	0.00142672	0.0235534	3.47275	227055	3.74152e+06	3.7484e+06	-86.5273	0.0000000E+000	0.0000000E+000	0.0000000E+000	86.5273	0.0000000E+000	0.0000000E+000	0.0000000E+000	-86.5273	0.0000000E+000	0.0000000E+000	0.0000000E+000	-3.47275	0.0000000E+000	0.0000000E+000	0.0000000E+000	3.47275	16.4785	86.5273	-6.99504e-06	-1.381e-06	1.73732e-09	-1.38273e-06	0.192991	26902.2	33.8434	26936
0.316193	44.1921	3.39846	44.3225	-4.39751	33.4577	0.192745	-0.00657842	148110	870.765	1	12	0.0048381	0.000109157	0	-9.76133e-05	4.39307e-05	2.07682e-06	-23.9435	0.0190261	0.0173888	0.00772145	-4.40574	44.3405	44.2094	3.40618	0.0224955	0.00172995	0.0225619	4.39751	870766	1.1323e+07	1.13565e+07	-85.6025	0.0000000E+000	0.0000000E+000	0.0000000E+000	85.6025	0.0000000E+000	0.0000000E+000	0.0000000E+000	-85.6025	0.0000000E+000	0.0000000E+000	0.0000000E+000	-4.39751	0.0000000E+000	0.0000000E+000	0.0000000E+000	4.39751	13.0035	85.6025	-1.31176e-05	-1.26796e-06	-2.88995e-10	-1.26767e-06	0.192701	29299.6	6.678	29292.9
0.0999041	46.0704	5.59018	46.4083	-6.91845	78.6654	0.192744	-0.00446639	284978	4134.97	1	12	0.00483777	0.000104244	0	-0.000110679	-0.00014701	1.30408e-06	81.2637	0.0125099	0.00190009	-0.0123648	-6.90302	46.4087	46.0723	5.57782	0.021391	0.00259558	0.0215479	6.91845	4.13497e+06	3.40775e+07	3.43274e+07	-83.0815	0.0000000E+000	0.0000000E+000	0.0000000E+000	83.0815	0.0000000E+000	0.0000000E+000	0.0000000E+000	-83.0815	0.0000000E+000	0.0000000E+000	0.0000000E+000	-6.91845	0.0000000E+000	0.0000000E+000	0.0000000E+000	6.91845	8.2413	83.0815	-6.16193e-07	-8.60869e-07	6.56603e-10	-8.61525e-07	0.192891	43154.3	32.9147	43187.3
0.0315922	49.1557	12.5506	50.7327	-14.3229	221.548	0.192746	-0.0029207	401399	24565.7	1	12	0.004841	9.54218e-05	0	-0.000280347	-0.000185198	2.97065e-06	25.7195	0.0311318	0.0280476	-0.0135101	-14.3003	50.7565	49.1838	12.5371	0.0190985	0.00487628	0.0197112	14.3229	2.45657e+07	9.62142e+07	9.93007e+07	-75.6771	0.0000000E+000	0.0000000E+000	0.0000000E+000	75.6771	0.0000000E+000	0.0000000E+000	0.0000000E+000	-75.6771	0.0000000E+000	0.0000000E+000	0.0000000E+000	-14.3229	0.0000000E+000	0.0000000E+000	0.0000000E+000	14.3229	3.91661	75.6771	-0.000115767	-5.62952e-07	5.40908e-10	-5.63493e-07	0.192931	65993	63.4088	66056.4
0.0100092	58.2716	29.333	65.238	-26.72	672.77	0.192747	-0.00392047	542083	109591	1	12	0.00483639	7.41345e-05	0	-0.00101791	5.74261e-06	2.03072e-06	-24.1712	0.0273924	0.0249908	0.0112162	-26.7189	65.2654	58.2966	29.3442	0.0136916	0.00689215	0.0153285	26.72	1.09591e+08	2.17709e+08	2.43737e+08	-63.2801	0.0000000E+000	0.0000000E+000	0.0000000E+000	63.2801	0.0000000E+000	0.0000000E+000	0.0000000E+000	-63.2801	0.0000000E+000	0.0000000E+000	0.0000000E+000	-26.72	0.0000000E+000	0.0000000E+000	0.0000000E+000	26.72	1.98656	63.2801	-0.000257309	-7.55658e-07	-2.25137e-11	-7.55636e-07	0.192741	49164.3	1.46478	49162.8