File: txt/18951_R308_UA706_SOC00_C06.mpt
EC-Lab ASCII FILE
Nb header lines : 65

Potentio Electrochemical Impedance Spectroscopy

Run on channel : 6 (SN 65795)
Grouped channel(s) : 5, 6, 7, 8
User :
CE vs. WE compliance from -10 V to 10 V
Electrode connection : standard
Potential control : Ewe
Ewe ctrl range : min = -10.00 V, max = 10.00 V
Safety Limits :
	Do not start on E overload
Acquisition started on : 11/04/2025 15:53:30.548
Loaded Setting File :  C:\Users\Celltest\OneDrive - store-dot.com\Documents\EC-Lab\Data\@Biologic Test Protocols\anode half cell EIS SOC00.mps
Saved on :
	File : 18950_R308_UA706_SOC00_C06.mpr
	Directory : C:\Users\Celltest\OneDrive - store-dot.com\Documents\EC-Lab\Data\Charmaine\
	Host : 169.254.61.224
Device : VMP-3e (SN .003165)
Address : USB
EC-LAB for windows v11.62 (software)
Internet server v27.00 (firmware)
Command interpretor v12.03 (firmware)
Electrode material :
Initial state :
Electrolyte :
Comments :
Electrode surface area : 0.001 cm²
Characteristic mass : 0.001 g
Equivalent Weight : 0.000 g/eq.
Density : 0.000 g/cm3
Volume (V) : 0.001 cm³
Record Ece
Cycle Definition : Charge/Discharge alternance
Mode                Single sine
E (V)               0.0000
vs.                 Eoc
tE (h:m:s)          0:00:0.0000
record              0
dI                  0.000
unit dI             mA
dt (s)              0.000
fi                  100.000
unit fi             kHz
ff                  10.000
unit ff             mHz
Nd                  6
Points              per decade
spacing             Logarithmic
Va (mV)             5.0
pw                  0.10
Na                  2
corr                0
E range min (V)     -10.000
E range max (V)     10.000
I Range             Auto
Bandwidth           5
nc cycles           0
goto Ns'            0
nr cycles           0
inc. cycle          0

freq/Hz	Re(Z)/Ohm	-Im(Z)/Ohm	|Z|/Ohm	Phase(Z)/deg	time/s	<Ewe>/V	<I>/mA	Cs/µF	Cp/µF	cycle number	I Range	|Ewe|/V	|I|/A	Ns	(Q-Qo)/mA.h	<Ece>/V	|Ece|/V	Phase(Zce)/deg	|Zce|/Ohm	Re(Zce)/Ohm	-Im(Zce)/Ohm	Phase(Zwe-ce)/deg	|Zwe-ce|/Ohm	Re(Zwe-ce)/Ohm	-Im(Zwe-ce)/Ohm	Re(Y)/Ohm-1	Im(Y)/Ohm-1	|Y|/Ohm-1	Phase(Y)/deg	Re(C)/nF	Im(C)/nF	|C|/nF	Phase(C)/deg	Re(M)	Im(M)	|M|	Phase(M)/deg	Re(Permittivity)	Im(Permittivity)	|Permittivity|	Phase(Permittivity)/deg	Re(Resistivity)/Ohm.cm	Im(Resistivity)/Ohm.cm	|Resistivity|/Ohm.cm	Phase(Resistivity)/deg	Re(Conductivity)/mS/cm	Im(Conductivity)/mS/cm	|Conductivity|/mS/cm	Phase(Conductivity)/deg	Tan(Delta)	Loss Angle(Delta)/deg	dq/mA.h	Pwe/W	Pce/W	Pwe-ce/W	<Ewe-Ece>/V	Rwe/Ohm	Rce/Ohm	Rwe-ce/Ohm		Ewe-Ece/V
100004	2.11609	0.997928	2.33959	-25.2482	1.91054	0.21686	0.00457489	1.5948	0.290151	1	9	0.00466469	0.00199381	0	-4.20351e-06	0.000213539	3.05738e-05	83.7507	0.0153344	0.00166922	-0.0152432	-24.8923	2.33464	2.11775	0.982684	0.386593	0.182314	0.427425	25.2482	290.151	615.259	680.244	-64.7518	0.0000000E+000	0.0000000E+000	0.0000000E+000	64.7518	0.0000000E+000	0.0000000E+000	0.0000000E+000	-64.7518	0.0000000E+000	0.0000000E+000	0.0000000E+000	-25.2482	0.0000000E+000	0.0000000E+000	0.0000000E+000	25.2482	2.12048	64.7518	-4.20351e-06	9.92109e-07	9.76919e-10	9.91132e-07	0.216646	47402.1	46.6763	47355.4
31621.1	3.09886	1.43807	3.41629	-24.8943	3.30853	0.216846	0.00569238	3.49996	0.620175	1	9	0.00526399	0.00154085	0	2.44398e-06	0.000137147	9.60076e-06	61.7718	0.00623081	0.00294708	-0.00548978	-24.79	3.41665	3.10181	1.43258	0.265518	0.123217	0.292716	24.8943	620.175	1336.4	1473.29	-65.1057	0.0000000E+000	0.0000000E+000	0.0000000E+000	65.1057	0.0000000E+000	0.0000000E+000	0.0000000E+000	-65.1057	0.0000000E+000	0.0000000E+000	0.0000000E+000	-24.8943	0.0000000E+000	0.0000000E+000	0.0000000E+000	24.8943	2.15488	65.1057	4.01779e-06	1.23437e-06	7.80694e-10	1.23359e-06	0.216709	38094.1	24.0931	38070
10002.2	4.29662	1.63604	4.59756	-20.8455	4.36753	0.216886	-0.0221066	9.7259	1.23158	1	10	0.00459086	0.000998543	0	-6.08157e-07	2.25589e-05	7.20099e-06	-31.6651	0.0072115	0.00613793	0.0037857	-20.8624	4.60464	4.30275	1.63982	0.20327	0.0773997	0.217507	20.8455	1231.58	3234.42	3460.96	-69.1545	0.0000000E+000	0.0000000E+000	0.0000000E+000	69.1545	0.0000000E+000	0.0000000E+000	0.0000000E+000	-69.1545	0.0000000E+000	0.0000000E+000	0.0000000E+000	-20.8455	0.0000000E+000	0.0000000E+000	0.0000000E+000	20.8455	2.62623	69.1545	-1.02866e-06	-4.7946e-06	-4.98701e-10	-4.79411e-06	0.216863	9810.9	1.02046	9809.88
3163.08	5.40615	1.9142	5.73503	-19.4979	5.26665	0.216789	-0.0233252	26.2859	2.92836	1	10	0.00472011	0.000823031	0	-7.15233e-06	0.000251735	5.54208e-06	96.2294	0.00673374	-0.000730678	-0.00669398	-19.4373	5.73212	5.40542	1.90751	0.164368	0.058199	0.174367	19.4979	2928.36	8270.39	8773.52	-70.5021	0.0000000E+000	0.0000000E+000	0.0000000E+000	70.5021	0.0000000E+000	0.0000000E+000	0.0000000E+000	-70.5021	0.0000000E+000	0.0000000E+000	0.0000000E+000	-19.4979	0.0000000E+000	0.0000000E+000	0.0000000E+000	19.4979	2.82424	70.5021	-2.19109e-06	-5.05664e-06	-5.87177e-09	-5.05077e-06	0.216537	9294.2	10.7924	9283.41
1000.32	6.64555	2.83496	7.22497	-23.1029	6.61979	0.21684	-0.00590354	56.1222	8.64082	1	10	0.00462693	0.000640407	0	-8.47339e-06	-0.000111127	1.06706e-05	-6.39876	0.0166622	0.0165584	0.00185696	-23.065	7.24094	6.6621	2.83681	0.127309	0.0543093	0.138409	23.1029	8640.82	20255.3	22021.4	-66.8971	0.0000000E+000	0.0000000E+000	0.0000000E+000	66.8971	0.0000000E+000	0.0000000E+000	0.0000000E+000	-66.8971	0.0000000E+000	0.0000000E+000	0.0000000E+000	-23.1029	0.0000000E+000	0.0000000E+000	0.0000000E+000	23.1029	2.34414	66.8971	-1.13975e-06	-1.28013e-06	6.56045e-10	-1.28078e-06	0.216951	36730.5	18.8238	36749.4
316.316	8.85824	5.15471	10.2489	-30.1956	7.96906	0.216855	-0.00355954	97.6101	24.6917	1	10	0.00458116	0.000446991	0	-9.74343e-06	7.9853e-05	9.60624e-06	11.3789	0.0214909	0.0210685	-0.00424008	-30.116	10.265	8.87931	5.15047	0.0843325	0.0490741	0.0975717	30.1956	24691.7	42432.1	49093.4	-59.8044	0.0000000E+000	0.0000000E+000	0.0000000E+000	59.8044	0.0000000E+000	0.0000000E+000	0.0000000E+000	-59.8044	0.0000000E+000	0.0000000E+000	0.0000000E+000	-30.1956	0.0000000E+000	0.0000000E+000	0.0000000E+000	30.1956	1.71847	59.8044	-7.05894e-07	-7.71904e-07	-2.8424e-10	-7.71619e-07	0.216775	60922.2	22.4335	60899.7
100.032	14.6062	8.08836	16.6962	-28.976	9.31679	0.216849	-0.00288131	196.707	46.1643	1	10	0.00457061	0.000273752	0	-1.16402e-05	0.000251735	8.42939e-06	-2.4038	0.0307921	0.030765	0.00129148	-28.9288	16.7238	14.637	8.08965	0.0523965	0.0290152	0.0598938	28.976	46164.3	83364.9	95293.5	-61.024	0.0000000E+000	0.0000000E+000	0.0000000E+000	61.024	0.0000000E+000	0.0000000E+000	0.0000000E+000	-61.024	0.0000000E+000	0.0000000E+000	0.0000000E+000	-28.976	0.0000000E+000	0.0000000E+000	0.0000000E+000	28.976	1.80583	61.024	-4.60618e-07	-6.24811e-07	-7.25328e-10	-6.24086e-07	0.216598	75260.6	87.3683	75173.3
31.6296	22.252	6.64062	23.2217	-16.6166	10.8856	0.216888	-0.00730273	757.737	61.965	1	11	0.0045695	0.000196777	0	-1.37597e-05	0.000442716	1.05502e-05	-52.9731	0.0536151	0.0322865	0.0428038	-16.6949	23.2649	22.2843	6.68342	0.0412648	0.0123146	0.0430631	16.6166	61965	207638	216687	-73.3834	0.0000000E+000	0.0000000E+000	0.0000000E+000	73.3834	0.0000000E+000	0.0000000E+000	0.0000000E+000	-73.3834	0.0000000E+000	0.0000000E+000	0.0000000E+000	-16.6166	0.0000000E+000	0.0000000E+000	0.0000000E+000	16.6166	3.35089	73.3834	-9.96642e-07	-1.58387e-06	-3.23303e-09	-1.58064e-06	0.216445	29699.5	60.6233	29638.9
10.0032	25.6285	3.22132	25.8302	-7.16409	12.2178	0.216903	-0.0064626	4939.09	76.8174	1	11	0.00457484	0.000177112	0	-1.65247e-05	6.0755e-05	1.24054e-05	-108.346	0.0700427	-0.0220457	0.0664828	-7.31659	25.8167	25.6065	3.2878	0.0384121	0.00482813	0.0387144	7.16409	76817.4	611153	615961	-82.8359	0.0000000E+000	0.0000000E+000	0.0000000E+000	82.8359	0.0000000E+000	0.0000000E+000	0.0000000E+000	-82.8359	0.0000000E+000	0.0000000E+000	0.0000000E+000	-7.16409	0.0000000E+000	0.0000000E+000	0.0000000E+000	7.16409	7.95591	82.8359	-1.41318e-07	-1.40176e-06	-3.92635e-10	-1.40136e-06	0.216842	33562.8	9.40102	33553.4
3.1604	26.5483	1.56853	26.5946	-3.38124	13.7354	0.216889	-0.00572785	32105.9	111.683	1	11	0.00457124	0.000171886	0	-1.71075e-05	0.000213539	3.15498e-06	21.7905	0.0183551	0.0170436	-0.00681366	-3.36443	26.6112	26.5653	1.56172	0.0375362	0.00221773	0.0376016	3.38124	111683	1.89029e+06	1.89359e+06	-86.6188	0.0000000E+000	0.0000000E+000	0.0000000E+000	86.6188	0.0000000E+000	0.0000000E+000	0.0000000E+000	-86.6188	0.0000000E+000	0.0000000E+000	0.0000000E+000	-3.38124	0.0000000E+000	0.0000000E+000	0.0000000E+000	3.38124	16.9255	86.6188	6.02934e-07	-1.24231e-06	-1.22312e-09	-1.24109e-06	0.216676	37865.7	37.2809	37828.4
1.00006	27.0371	1.27835	27.0673	-2.707	19.374	0.216899	-0.00413996	124493	277.685	1	12	0.00456496	0.000168652	0	-3.34544e-05	0.000309029	3.32279e-06	66.3221	0.019702	0.00791222	-0.0180435	-2.66807	27.0743	27.045	1.2603	0.0369038	0.00174486	0.036945	2.707	277685	5.87304e+06	5.8796e+06	-87.293	0.0000000E+000	0.0000000E+000	0.0000000E+000	87.293	0.0000000E+000	0.0000000E+000	0.0000000E+000	-87.293	0.0000000E+000	0.0000000E+000	0.0000000E+000	-2.707	0.0000000E+000	0.0000000E+000	0.0000000E+000	2.707	21.15	87.293	-8.24335e-06	-8.97954e-07	-1.27937e-09	-8.96675e-07	0.21659	52391.6	74.6455	52317
0.316193	27.6592	1.81983	27.719	-3.76434	33.7189	0.216895	-0.00440323	276590	1192.19	1	12	0.00456587	0.00016472	0	-2.67807e-05	-7.29313e-05	1.6531e-06	5.68953	0.0100358	0.00998638	-0.000994931	-3.76093	27.7289	27.6692	1.81884	0.0359985	0.00236852	0.0360764	3.76434	1.19219e+06	1.81198e+07	1.81589e+07	-86.2357	0.0000000E+000	0.0000000E+000	0.0000000E+000	86.2357	0.0000000E+000	0.0000000E+000	0.0000000E+000	-86.2357	0.0000000E+000	0.0000000E+000	0.0000000E+000	-3.76434	0.0000000E+000	0.0000000E+000	0.0000000E+000	3.76434	15.1988	86.2357	6.91473e-06	-9.55039e-07	3.21133e-10	-9.5536e-07	0.216968	49258.1	16.5631	49274.7
0.0999041	28.6596	3.68261	28.8952	-7.32209	78.9277	0.21689	-0.00102399	432595	7026.53	1	12	0.00457171	0.000158217	0	-5.35833e-05	9.8951e-05	1.78158e-06	56.802	0.0112603	0.00616541	-0.00942246	-7.30201	28.9001	28.6657	3.67319	0.0343256	0.00441066	0.0346078	7.32209	7.02653e+06	5.46833e+07	5.51329e+07	-82.6779	0.0000000E+000	0.0000000E+000	0.0000000E+000	82.6779	0.0000000E+000	0.0000000E+000	0.0000000E+000	-82.6779	0.0000000E+000	0.0000000E+000	0.0000000E+000	-7.32209	0.0000000E+000	0.0000000E+000	0.0000000E+000	7.32209	7.78241	82.6779	-2.94527e-05	-2.22094e-07	-1.01325e-10	-2.21992e-07	0.216791	211808	96.6326	211711
0.0315922	30.7818	8.51357	31.9375	-15.4603	221.811	0.21688	-0.00276882	591737	42048.6	1	12	0.00456768	0.00014302	0	-0.000361901	0.000366324	1.45681e-06	-7.63798	0.0101861	0.0100957	0.00135387	-15.4578	31.9475	30.7919	8.51492	0.0301782	0.00834663	0.0313112	15.4603	4.20486e+07	1.52032e+08	1.57739e+08	-74.5397	0.0000000E+000	0.0000000E+000	0.0000000E+000	74.5397	0.0000000E+000	0.0000000E+000	0.0000000E+000	-74.5397	0.0000000E+000	0.0000000E+000	0.0000000E+000	-15.4603	0.0000000E+000	0.0000000E+000	0.0000000E+000	15.4603	3.61562	74.5397	-0.00012654	-6.00504e-07	-1.01429e-09	-5.99489e-07	0.216514	78329.5	132.303	78197.2
0.0100092	36.0587	20.9122	41.6839	-30.1115	673.032	0.216885	-0.00240618	760366	191374	1	12	0.00456594	0.000109537	0	-0.000141248	0.000194441	2.32834e-06	24.2571	0.0212562	0.0193795	-0.00873272	-30.0878	41.6963	36.0781	20.9035	0.0207526	0.0120354	0.0239901	30.1115	1.91374e+08	3.29986e+08	3.81464e+08	-59.8885	0.0000000E+000	0.0000000E+000	0.0000000E+000	59.8885	0.0000000E+000	0.0000000E+000	0.0000000E+000	-59.8885	0.0000000E+000	0.0000000E+000	0.0000000E+000	-30.1115	0.0000000E+000	0.0000000E+000	0.0000000E+000	30.1115	1.72429	59.8885	0.000187696	-5.21863e-07	-4.6786e-10	-5.21395e-07	0.21669	90136.6	80.8092	90055.8