File: txt/18953_R308_UA706_SOC00_C08.mpt
EC-Lab ASCII FILE
Nb header lines : 65

Potentio Electrochemical Impedance Spectroscopy

Run on channel : 8 (SN 65398)
Grouped channel(s) : 5, 6, 7, 8
User :
CE vs. WE compliance from -10 V to 10 V
Electrode connection : standard
Potential control : Ewe
Ewe ctrl range : min = -10.00 V, max = 10.00 V
Safety Limits :
	Do not start on E overload
Acquisition started on : 11/04/2025 15:53:30.548
Loaded Setting File :  C:\Users\Celltest\OneDrive - store-dot.com\Documents\EC-Lab\Data\@Biologic Test Protocols\anode half cell EIS SOC00.mps
Saved on :
	File : 18950_R308_UA706_SOC00_C08.mpr
	Directory : C:\Users\Celltest\OneDrive - store-dot.com\Documents\EC-Lab\Data\Charmaine\
	Host : 169.254.61.224
Device : VMP-3e (SN .003165)
Address : USB
EC-LAB for windows v11.62 (software)
Internet server v27.00 (firmware)
Command interpretor v12.03 (firmware)
Electrode material :
Initial state :
Electrolyte :
Comments :
Electrode surface area : 0.001 cm²
Characteristic mass : 0.001 g
Equivalent Weight : 0.000 g/eq.
Density : 0.000 g/cm3
Volume (V) : 0.001 cm³
Record Ece
Cycle Definition : Charge/Discharge alternance
Mode                Single sine
E (V)               0.0000
vs.                 Eoc
tE (h:m:s)          0:00:0.0000
record              0
dI                  0.000
unit dI             mA
dt (s)              0.000
fi                  100.000
unit fi             kHz
ff                  10.000
unit ff             mHz
Nd                  6
Points              per decade
spacing             Logarithmic
Va (mV)             5.0
pw                  0.10
Na                  2
corr                0
E range min (V)     -10.000
E range max (V)     10.000
I Range             Auto
Bandwidth           5
nc cycles           0
goto Ns'            0
nr cycles           0
inc. cycle          0

freq/Hz	Re(Z)/Ohm	-Im(Z)/Ohm	|Z|/Ohm	Phase(Z)/deg	time/s	<Ewe>/V	<I>/mA	Cs/µF	Cp/µF	cycle number	I Range	|Ewe|/V	|I|/A	Ns	(Q-Qo)/mA.h	<Ece>/V	|Ece|/V	Phase(Zce)/deg	|Zce|/Ohm	Re(Zce)/Ohm	-Im(Zce)/Ohm	Phase(Zwe-ce)/deg	|Zwe-ce|/Ohm	Re(Zwe-ce)/Ohm	-Im(Zwe-ce)/Ohm	Re(Y)/Ohm-1	Im(Y)/Ohm-1	|Y|/Ohm-1	Phase(Y)/deg	Re(C)/nF	Im(C)/nF	|C|/nF	Phase(C)/deg	Re(M)	Im(M)	|M|	Phase(M)/deg	Re(Permittivity)	Im(Permittivity)	|Permittivity|	Phase(Permittivity)/deg	Re(Resistivity)/Ohm.cm	Im(Resistivity)/Ohm.cm	|Resistivity|/Ohm.cm	Phase(Resistivity)/deg	Re(Conductivity)/mS/cm	Im(Conductivity)/mS/cm	|Conductivity|/mS/cm	Phase(Conductivity)/deg	Tan(Delta)	Loss Angle(Delta)/deg	dq/mA.h	Pwe/W	Pce/W	Pwe-ce/W	<Ewe-Ece>/V	Rwe/Ohm	Rce/Ohm	Rwe-ce/Ohm		Ewe-Ece/V
100004	1.68771	0.865141	1.89653	-27.1403	1.91056	0.199765	0.0186779	1.83957	0.3828	1	9	0.00475829	0.00250895	0	7.20234e-06	-4.92848e-05	3.9514e-05	68.7079	0.0157492	0.00571891	-0.0146742	-26.6666	1.89499	1.69343	0.850467	0.469221	0.240529	0.527279	27.1403	382.8	746.761	839.159	-62.8597	0.0000000E+000	0.0000000E+000	0.0000000E+000	62.8597	0.0000000E+000	0.0000000E+000	0.0000000E+000	-62.8597	0.0000000E+000	0.0000000E+000	0.0000000E+000	-27.1403	0.0000000E+000	0.0000000E+000	0.0000000E+000	27.1403	1.95079	62.8597	7.20234e-06	3.7312e-06	-9.20538e-10	3.73212e-06	0.199815	10695.3	2.63867	10697.9
31621.1	2.56372	1.30419	2.87638	-26.9629	3.43154	0.199755	0.0159249	3.85925	0.793397	1	9	0.00510999	0.00177654	0	1.17226e-05	-4.92848e-05	1.14664e-05	-6.07466	0.00645437	0.00641813	0.00068303	-26.9171	2.88241	2.57013	1.30487	0.309869	0.157633	0.34766	26.9629	793.397	1559.63	1749.83	-63.0371	0.0000000E+000	0.0000000E+000	0.0000000E+000	63.0371	0.0000000E+000	0.0000000E+000	0.0000000E+000	-63.0371	0.0000000E+000	0.0000000E+000	0.0000000E+000	-26.9629	0.0000000E+000	0.0000000E+000	0.0000000E+000	26.9629	1.96576	63.0371	4.64037e-06	3.18108e-06	-7.84857e-10	3.18187e-06	0.199804	12543.5	3.09482	12546.6
10002.2	3.63059	1.43306	3.90318	-21.54	4.58255	0.199746	0.00178808	11.1035	1.49675	1	9	0.00511257	0.00130985	0	9.88965e-06	-0.000182901	6.82542e-06	-39.9658	0.00521086	0.00399374	0.00334709	-21.5642	3.90813	3.63458	1.4364	0.238309	0.0940645	0.256201	21.54	1496.75	3791.95	4076.66	-68.46	0.0000000E+000	0.0000000E+000	0.0000000E+000	68.46	0.0000000E+000	0.0000000E+000	0.0000000E+000	-68.46	0.0000000E+000	0.0000000E+000	0.0000000E+000	-21.54	0.0000000E+000	0.0000000E+000	0.0000000E+000	21.54	2.53346	68.46	-1.72087e-06	3.57163e-07	-3.27043e-10	3.5749e-07	0.199929	111710	102.289	111812
3163.08	4.614	1.64224	4.89755	-19.592	5.63864	0.199652	-0.0174054	30.6388	3.44501	1	10	0.00522375	0.00106661	0	7.15482e-06	0.000122508	8.14797e-06	8.00315	0.00763916	0.00756476	-0.00106358	-19.5506	4.90432	4.62156	1.64118	0.192363	0.0684669	0.204184	19.592	3445.01	9679	10273.8	-70.408	0.0000000E+000	0.0000000E+000	0.0000000E+000	70.408	0.0000000E+000	0.0000000E+000	0.0000000E+000	-70.408	0.0000000E+000	0.0000000E+000	0.0000000E+000	-19.592	0.0000000E+000	0.0000000E+000	0.0000000E+000	19.592	2.80957	70.408	-1.4233e-06	-3.47504e-06	-2.1323e-09	-3.47291e-06	0.19953	11470.7	7.03847	11463.6
1000.32	5.65467	2.422	6.15153	-23.1864	6.99282	0.199669	-0.00663244	65.6911	10.1833	1	10	0.00507815	0.000825509	0	5.31861e-06	0.000561533	6.19227e-06	170.173	0.00750116	-0.0073911	-0.00128028	-23.2025	6.14424	5.64728	2.42072	0.149431	0.0640041	0.162561	23.1864	10183.3	23775	25864.1	-66.8136	0.0000000E+000	0.0000000E+000	0.0000000E+000	66.8136	0.0000000E+000	0.0000000E+000	0.0000000E+000	-66.8136	0.0000000E+000	0.0000000E+000	0.0000000E+000	-23.1864	0.0000000E+000	0.0000000E+000	0.0000000E+000	23.1864	2.33471	66.8136	-1.38157e-06	-1.32429e-06	-3.72433e-09	-1.32057e-06	0.199107	30104.9	84.6646	30020.2
316.316	7.64487	4.46142	8.85146	-30.2671	8.34202	0.199668	-0.00629393	112.778	28.6512	1	10	0.00501128	0.000566153	0	3.69365e-06	-3.01967e-05	8.08108e-06	-4.24434	0.0142737	0.0142345	0.00105639	-30.2267	8.86429	7.6591	4.46248	0.0975754	0.0569434	0.112976	30.2671	28651.2	49095.3	56844	-59.7329	0.0000000E+000	0.0000000E+000	0.0000000E+000	59.7329	0.0000000E+000	0.0000000E+000	0.0000000E+000	-59.7329	0.0000000E+000	0.0000000E+000	0.0000000E+000	-30.2671	0.0000000E+000	0.0000000E+000	0.0000000E+000	30.2671	1.71355	59.7329	-1.1484e-06	-1.2567e-06	1.90056e-10	-1.25689e-06	0.199698	31723.9	4.79776	31728.7
100.032	12.7186	6.60073	14.3294	-27.4285	9.68882	0.199673	-0.00607818	241.04	51.1466	1	10	0.00499932	0.000348885	0	1.22379e-06	-0.000316518	5.98193e-06	-26.7031	0.0171458	0.0153172	0.00770479	-27.4277	14.3466	12.7339	6.60843	0.0619415	0.0321466	0.0697865	27.4285	51146.5	98551.5	111033	-62.5715	0.0000000E+000	0.0000000E+000	0.0000000E+000	62.5715	0.0000000E+000	0.0000000E+000	0.0000000E+000	-62.5715	0.0000000E+000	0.0000000E+000	0.0000000E+000	-27.4285	0.0000000E+000	0.0000000E+000	0.0000000E+000	27.4285	1.92685	62.5715	-3.283e-07	-1.21365e-06	1.92385e-09	-1.21557e-06	0.19999	32850.8	52.0744	32902.9
31.6296	18.4846	4.89049	19.1206	-14.8192	11.2526	0.199728	-0.00240238	1028.9	67.3093	1	11	0.0049918	0.000261069	0	-2.29759e-06	-0.000163813	5.28727e-06	41.5323	0.0202524	0.0151606	-0.0134282	-14.7688	19.1319	18.4998	4.87707	0.0505599	0.0133767	0.0522995	14.8192	67309.3	254410	263163	-75.1808	0.0000000E+000	0.0000000E+000	0.0000000E+000	75.1808	0.0000000E+000	0.0000000E+000	0.0000000E+000	-75.1808	0.0000000E+000	0.0000000E+000	0.0000000E+000	-14.8192	0.0000000E+000	0.0000000E+000	0.0000000E+000	14.8192	3.77971	75.1808	-2.05419e-06	-4.79825e-07	3.93542e-10	-4.80218e-07	0.199892	83137.6	68.1877	83205.8
10.0032	20.6579	2.32334	20.7881	-6.41696	12.5838	0.199713	-0.00194751	6848.06	85.539	1	11	0.00498448	0.000239775	0	-4.36281e-06	-8.74609e-05	2.33763e-05	-87.9516	0.0974925	0.00348482	0.0974302	-6.68255	20.8027	20.6614	2.42077	0.047803	0.00537629	0.0481044	6.41696	85538.9	760565	765360	-83.583	0.0000000E+000	0.0000000E+000	0.0000000E+000	83.583	0.0000000E+000	0.0000000E+000	0.0000000E+000	-83.583	0.0000000E+000	0.0000000E+000	0.0000000E+000	-6.41696	0.0000000E+000	0.0000000E+000	0.0000000E+000	6.41696	8.89144	83.583	-4.93761e-07	-3.88943e-07	1.70331e-10	-3.89113e-07	0.1998	102548	44.9091	102593
3.1604	21.3024	1.1481	21.3333	-3.085	14.0995	0.19973	-0.00101264	43862.9	127.041	1	11	0.00499293	0.000234044	0	-2.406e-06	0.00010342	2.62132e-06	-81.6389	0.0112001	0.00162862	0.0110811	-3.11448	21.3355	21.304	1.15918	0.0468071	0.00252269	0.046875	3.085	127041	2.35717e+06	2.36059e+06	-86.915	0.0000000E+000	0.0000000E+000	0.0000000E+000	86.915	0.0000000E+000	0.0000000E+000	0.0000000E+000	-86.915	0.0000000E+000	0.0000000E+000	0.0000000E+000	-3.085	0.0000000E+000	0.0000000E+000	0.0000000E+000	3.085	18.5544	86.915	4.13101e-07	-2.02255e-07	-1.04727e-10	-2.0215e-07	0.199627	197237	102.129	197135
1.00006	21.6751	0.981806	21.6973	-2.59352	19.7386	0.199743	-0.000431676	162094	331.898	1	12	0.00499111	0.000230033	0	-1.34851e-05	-1.11087e-05	4.21316e-06	10.5237	0.0183154	0.0180074	-0.00334515	-2.58255	21.7152	21.6931	0.978461	0.0460414	0.00208551	0.0460886	2.59352	331898	7.32724e+06	7.33476e+06	-87.4065	0.0000000E+000	0.0000000E+000	0.0000000E+000	87.4065	0.0000000E+000	0.0000000E+000	0.0000000E+000	-87.4065	0.0000000E+000	0.0000000E+000	0.0000000E+000	-2.59352	0.0000000E+000	0.0000000E+000	0.0000000E+000	2.59352	22.0768	87.4065	-2.40932e-06	-8.62241e-08	4.79536e-12	-8.62289e-08	0.199754	462714	25.7339	462740
0.316193	22.1685	1.50366	22.2194	-3.88034	34.0816	0.199735	-0.000792263	334749	1533.03	1	12	0.00499139	0.000224641	0	1.94887e-05	4.61555e-05	1.97344e-06	-5.49809	0.00878485	0.00874443	0.000841698	-3.88098	22.2282	22.1772	1.5045	0.0449025	0.00304567	0.0450057	3.88034	1.53303e+06	2.26015e+07	2.26535e+07	-86.1197	0.0000000E+000	0.0000000E+000	0.0000000E+000	86.1197	0.0000000E+000	0.0000000E+000	0.0000000E+000	-86.1197	0.0000000E+000	0.0000000E+000	0.0000000E+000	-3.88034	0.0000000E+000	0.0000000E+000	0.0000000E+000	3.88034	14.7431	86.1197	1.4384e-05	-1.58243e-07	-3.65673e-11	-1.58206e-07	0.199689	252107	58.2578	252049
0.0999041	22.9129	3.25133	23.1425	-8.0763	79.2896	0.199725	0.00040974	489978	9671.15	1	12	0.00499721	0.000215932	0	-4.11359e-05	-0.000182901	4.20402e-06	9.30119	0.0194692	0.0192132	-0.00314669	-8.06192	23.1611	22.9322	3.24818	0.042782	0.00607073	0.0432106	8.0763	9.67114e+06	6.81551e+07	6.88378e+07	-81.9237	0.0000000E+000	0.0000000E+000	0.0000000E+000	81.9237	0.0000000E+000	0.0000000E+000	0.0000000E+000	-81.9237	0.0000000E+000	0.0000000E+000	0.0000000E+000	-8.0763	0.0000000E+000	0.0000000E+000	0.0000000E+000	8.0763	7.04726	81.9237	-5.19348e-05	8.18352e-08	-7.4942e-11	8.19102e-08	0.199908	487442	446.383	487888
0.0315922	24.7889	7.86623	26.007	-17.6058	222.174	0.199718	-0.00272724	640432	58590.3	1	12	0.00499145	0.000191927	0	-0.000278114	-0.000144725	1.52767e-06	-13.9884	0.00795964	0.00772359	0.00192405	-17.6047	26.015	24.7966	7.86816	0.0366501	0.0116302	0.0384512	17.6058	5.85903e+07	1.84636e+08	1.93709e+08	-72.3942	0.0000000E+000	0.0000000E+000	0.0000000E+000	72.3942	0.0000000E+000	0.0000000E+000	0.0000000E+000	-72.3942	0.0000000E+000	0.0000000E+000	0.0000000E+000	-17.6058	0.0000000E+000	0.0000000E+000	0.0000000E+000	17.6058	3.1513	72.3942	-4.40545e-05	-5.44678e-07	3.94699e-10	-5.45072e-07	0.199863	73230.9	53.0666	73284
0.0100092	29.8762	18.8303	35.3152	-32.2223	673.397	0.199716	-0.00192021	844434	240079	1	12	0.00499237	0.000141366	0	0.000291068	0.00019886	2.07411e-06	-4.22083	0.0146719	0.0146322	0.00107987	-32.2111	35.3282	29.8908	18.8313	0.0239553	0.0150985	0.0283164	32.2223	2.40079e+08	3.80911e+08	4.50257e+08	-57.7777	0.0000000E+000	0.0000000E+000	0.0000000E+000	57.7777	0.0000000E+000	0.0000000E+000	0.0000000E+000	-57.7777	0.0000000E+000	0.0000000E+000	0.0000000E+000	-32.2223	0.0000000E+000	0.0000000E+000	0.0000000E+000	32.2223	1.5866	57.7777	0.000213782	-3.83498e-07	-3.81853e-10	-3.83116e-07	0.199518	104007	103.561	103904