File: txt/18950_R308_UA706_SOC00_C05.mpt
EC-Lab ASCII FILE
Nb header lines : 66

Potentio Electrochemical Impedance Spectroscopy

Run on channel : 5 (SN 65912)
Grouped channel(s) : 5, 6, 7, 8
User :
CE vs. WE compliance from -10 V to 10 V
Electrode connection : standard
Potential control : Ewe
Ewe ctrl range : min = -10.00 V, max = 10.00 V
Safety Limits :
	Do not start on E overload
Acquisition started on : 11/04/2025 15:53:30.548
Technique started on : 11/04/2025 15:53:32.275
Loaded Setting File :  C:\Users\Celltest\OneDrive - store-dot.com\Documents\EC-Lab\Data\@Biologic Test Protocols\anode half cell EIS SOC00.mps
Saved on :
	File : 18950_R308_UA706_SOC00_C05.mpr
	Directory : C:\Users\Celltest\OneDrive - store-dot.com\Documents\EC-Lab\Data\Charmaine\
	Host : 169.254.61.224
Device : VMP-3e (SN .003165)
Address : USB
EC-LAB for windows v11.62 (software)
Internet server v27.00 (firmware)
Command interpretor v12.03 (firmware)
Electrode material :
Initial state :
Electrolyte :
Comments :
Electrode surface area : 0.001 cm²
Characteristic mass : 0.001 g
Equivalent Weight : 0.000 g/eq.
Density : 0.000 g/cm3
Volume (V) : 0.001 cm³
Record Ece
Cycle Definition : Charge/Discharge alternance
Mode                Single sine
E (V)               0.0000
vs.                 Eoc
tE (h:m:s)          0:00:0.0000
record              0
dI                  0.000
unit dI             mA
dt (s)              0.000
fi                  100.000
unit fi             kHz
ff                  10.000
unit ff             mHz
Nd                  6
Points              per decade
spacing             Logarithmic
Va (mV)             5.0
pw                  0.10
Na                  2
corr                0
E range min (V)     -10.000
E range max (V)     10.000
I Range             Auto
Bandwidth           5
nc cycles           0
goto Ns'            0
nr cycles           0
inc. cycle          0

freq/Hz	Re(Z)/Ohm	-Im(Z)/Ohm	|Z|/Ohm	Phase(Z)/deg	time/s	<Ewe>/V	<I>/mA	Cs/µF	Cp/µF	cycle number	I Range	|Ewe|/V	|I|/A	Ns	(Q-Qo)/mA.h	<Ece>/V	|Ece|/V	Phase(Zce)/deg	|Zce|/Ohm	Re(Zce)/Ohm	-Im(Zce)/Ohm	Phase(Zwe-ce)/deg	|Zwe-ce|/Ohm	Re(Zwe-ce)/Ohm	-Im(Zwe-ce)/Ohm	Re(Y)/Ohm-1	Im(Y)/Ohm-1	|Y|/Ohm-1	Phase(Y)/deg	Re(C)/nF	Im(C)/nF	|C|/nF	Phase(C)/deg	Re(M)	Im(M)	|M|	Phase(M)/deg	Re(Permittivity)	Im(Permittivity)	|Permittivity|	Phase(Permittivity)/deg	Re(Resistivity)/Ohm.cm	Im(Resistivity)/Ohm.cm	|Resistivity|/Ohm.cm	Phase(Resistivity)/deg	Re(Conductivity)/mS/cm	Im(Conductivity)/mS/cm	|Conductivity|/mS/cm	Phase(Conductivity)/deg	Tan(Delta)	Loss Angle(Delta)/deg	dq/mA.h	Pwe/W	Pce/W	Pwe-ce/W	<Ewe-Ece>/V	Rwe/Ohm	Rce/Ohm	Rwe-ce/Ohm		Ewe-Ece/V
100004	2.02635	1.02708	2.27178	-26.8788	1.72654	0.218597	-0.0549503	1.54952	0.316721	1	9	0.00458683	0.00201905	0	-6.97126e-06	0.000121199	3.2891e-05	90.0053	0.0162904	-1.51739e-06	-0.0162904	-26.5112	2.26446	2.02635	1.01079	0.392628	0.199009	0.440183	26.8788	316.721	624.863	700.547	-63.1212	0.0000000E+000	0.0000000E+000	0.0000000E+000	63.1212	0.0000000E+000	0.0000000E+000	0.0000000E+000	-63.1212	0.0000000E+000	0.0000000E+000	0.0000000E+000	-26.8788	0.0000000E+000	0.0000000E+000	0.0000000E+000	26.8788	1.97291	63.1212	-6.97126e-06	-1.2012e-05	-6.65993e-09	-1.20053e-05	0.218476	3978.09	2.20562	3975.88
31621.1	3.09923	1.60753	3.49133	-27.4151	3.12356	0.218586	-0.0394213	3.13101	0.663773	1	9	0.00516188	0.00147849	0	-1.19282e-05	0.000102108	1.45305e-05	-38.1824	0.00982796	0.00772524	0.00607531	-27.4452	3.50099	3.10696	1.6136	0.254257	0.131879	0.286424	27.4151	663.773	1279.72	1441.62	-62.5849	0.0000000E+000	0.0000000E+000	0.0000000E+000	62.5849	0.0000000E+000	0.0000000E+000	0.0000000E+000	-62.5849	0.0000000E+000	0.0000000E+000	0.0000000E+000	-27.4151	0.0000000E+000	0.0000000E+000	0.0000000E+000	27.4151	1.92795	62.5849	-1.87536e-06	-8.61695e-06	-4.02523e-09	-8.61292e-06	0.218484	5544.88	2.59018	5542.29
10002.2	4.48056	1.81773	4.83524	-22.082	4.30453	0.218614	-0.0252022	8.75375	1.23713	1	10	0.00464061	0.000959748	0	-2.38047e-05	4.48344e-05	1.01238e-05	-106.874	0.0105485	-0.00306193	0.0100943	-22.2065	4.83621	4.4775	1.82782	0.191644	0.0777486	0.206815	22.082	1237.13	3049.44	3290.83	-67.918	0.0000000E+000	0.0000000E+000	0.0000000E+000	67.918	0.0000000E+000	0.0000000E+000	0.0000000E+000	-67.918	0.0000000E+000	0.0000000E+000	0.0000000E+000	-22.082	0.0000000E+000	0.0000000E+000	0.0000000E+000	22.082	2.46492	67.918	-3.78937e-06	-5.50954e-06	-1.12992e-09	-5.50841e-06	0.218569	8674.4	1.77899	8672.62
3163.08	5.72299	1.99895	6.06205	-19.2535	5.20468	0.218517	-0.0210766	25.1714	2.73699	1	10	0.00462507	0.000762955	0	-3.01184e-05	0.000102108	1.28029e-05	-2.38995	0.0167806	0.016766	0.000699759	-19.2076	6.07811	5.73976	1.99965	0.155734	0.0543956	0.164961	19.2535	2736.99	7836	8300.24	-70.7465	0.0000000E+000	0.0000000E+000	0.0000000E+000	70.7465	0.0000000E+000	0.0000000E+000	0.0000000E+000	-70.7465	0.0000000E+000	0.0000000E+000	0.0000000E+000	-19.2535	0.0000000E+000	0.0000000E+000	0.0000000E+000	19.2535	2.863	70.7465	-2.56739e-06	-4.6056e-06	-2.1521e-09	-4.60345e-06	0.218415	10367.7	4.84461	10362.9
1000.32	7.05257	2.80368	7.58943	-21.6798	6.55781	0.218578	-0.00285055	56.7482	7.74447	1	10	0.00454602	0.000598994	0	-3.11238e-05	0.000178473	6.87548e-06	33.4205	0.0114784	0.00958044	-0.00632205	-21.6088	7.596	7.06215	2.79736	0.122442	0.0486755	0.131762	21.6798	7744.48	19481	20963.9	-68.3202	0.0000000E+000	0.0000000E+000	0.0000000E+000	68.3202	0.0000000E+000	0.0000000E+000	0.0000000E+000	-68.3202	0.0000000E+000	0.0000000E+000	0.0000000E+000	-21.6798	0.0000000E+000	0.0000000E+000	0.0000000E+000	21.6798	2.51547	68.3202	4.82294e-08	-6.23068e-07	-5.08747e-10	-6.22559e-07	0.218399	76679	62.6099	76616.4
316.316	9.27301	4.72798	10.4088	-27.0154	7.90802	0.218575	-0.00259364	106.42	21.9571	1	10	0.00450973	0.000433262	0	-3.2345e-05	0.000235747	5.50448e-06	6.99549	0.0127047	0.0126102	-0.00154732	-26.9763	10.4193	9.28562	4.72643	0.0855897	0.0436392	0.0960728	27.0154	21957.1	43064.6	48339.2	-62.9846	0.0000000E+000	0.0000000E+000	0.0000000E+000	62.9846	0.0000000E+000	0.0000000E+000	0.0000000E+000	-62.9846	0.0000000E+000	0.0000000E+000	0.0000000E+000	-27.0154	0.0000000E+000	0.0000000E+000	0.0000000E+000	27.0154	1.96131	62.9846	-5.36314e-07	-5.66904e-07	-6.11442e-10	-5.66293e-07	0.218339	84273.2	90.894	84182.4
100.032	14.4596	6.88502	16.0151	-25.4616	9.46985	0.218583	-0.0023479	231.087	42.7095	1	10	0.00487571	0.000304444	0	-3.30099e-05	8.30168e-05	9.75523e-06	-34.8464	0.0320427	0.0262971	0.0183085	-25.4803	16.0468	14.4859	6.90332	0.0563762	0.0268438	0.0624409	25.4616	42709.5	89696.9	99346	-64.5384	0.0000000E+000	0.0000000E+000	0.0000000E+000	64.5384	0.0000000E+000	0.0000000E+000	0.0000000E+000	-64.5384	0.0000000E+000	0.0000000E+000	0.0000000E+000	-25.4616	0.0000000E+000	0.0000000E+000	0.0000000E+000	25.4616	2.10016	64.5384	-6.81667e-07	-5.13211e-07	-1.94915e-10	-5.13016e-07	0.2185	93097.1	35.3579	93061.8
31.6296	20.6276	5.35935	21.3125	-14.5643	11.0385	0.218618	-0.00498707	938.89	59.3707	1	11	0.0048768	0.000228824	0	-3.42789e-05	0.000197564	6.77212e-06	-57.9192	0.0295954	0.0157185	0.0250762	-14.6188	21.334	20.6433	5.38443	0.0454131	0.011799	0.0469209	14.5643	59370.7	228512	236099	-75.4357	0.0000000E+000	0.0000000E+000	0.0000000E+000	75.4357	0.0000000E+000	0.0000000E+000	0.0000000E+000	-75.4357	0.0000000E+000	0.0000000E+000	0.0000000E+000	-14.5643	0.0000000E+000	0.0000000E+000	0.0000000E+000	14.5643	3.8489	75.4357	-6.32502e-07	-1.09026e-06	-9.85265e-10	-1.08928e-06	0.21842	43837	39.6153	43797.4
10.0032	23.1342	2.55419	23.2748	-6.30036	12.3699	0.218609	-0.00514642	6229.14	75.0175	1	11	0.00486209	0.000208899	0	-3.4889e-05	0.000197564	1.31175e-05	50.2495	0.0627933	0.0401529	-0.0482777	-6.17157	23.3095	23.1744	2.50591	0.0427054	0.004715	0.0429649	6.30036	75017.4	679461	683590	-83.6996	0.0000000E+000	0.0000000E+000	0.0000000E+000	83.6996	0.0000000E+000	0.0000000E+000	0.0000000E+000	-83.6996	0.0000000E+000	0.0000000E+000	0.0000000E+000	-6.30036	0.0000000E+000	0.0000000E+000	0.0000000E+000	6.30036	9.05737	83.6996	-4.86785e-07	-1.12505e-06	-1.01675e-09	-1.12404e-06	0.218412	42477.9	38.3887	42439.5
3.1604	23.9186	1.24173	23.9508	-2.97183	13.8875	0.21861	-0.00463671	40555.7	109.009	1	11	0.00487185	0.00020341	0	-3.90103e-05	-8.88041e-05	3.7849e-06	52.0993	0.0186072	0.0114303	-0.0146825	-2.93535	23.9615	23.9301	1.22705	0.041696	0.00216464	0.0417522	2.97183	109009	2.09978e+06	2.1026e+06	-87.0282	0.0000000E+000	0.0000000E+000	0.0000000E+000	87.0282	0.0000000E+000	0.0000000E+000	0.0000000E+000	-87.0282	0.0000000E+000	0.0000000E+000	0.0000000E+000	-2.97183	0.0000000E+000	0.0000000E+000	0.0000000E+000	2.97183	19.2624	87.0282	-1.59692e-06	-1.01363e-06	4.11759e-10	-1.01404e-06	0.218699	47147.7	19.1524	47166.9
1.00006	24.3231	1.0421	24.3454	-2.45329	19.5269	0.218626	-0.0023866	152715	279.814	1	12	0.00487559	0.000200267	0	-3.4712e-05	-0.000165169	2.85584e-06	-0.409531	0.0142601	0.0142598	0.000101926	-2.45209	24.3597	24.3374	1.04221	0.0410378	0.00175823	0.0410755	2.45329	279814	6.53096e+06	6.53695e+06	-87.5467	0.0000000E+000	0.0000000E+000	0.0000000E+000	87.5467	0.0000000E+000	0.0000000E+000	0.0000000E+000	-87.5467	0.0000000E+000	0.0000000E+000	0.0000000E+000	-2.45329	0.0000000E+000	0.0000000E+000	0.0000000E+000	2.45329	23.3404	87.5467	-5.21101e-07	-5.21774e-07	3.94193e-10	-5.22168e-07	0.218791	91605.5	69.2067	91674.7
0.316193	24.9083	1.59836	24.9595	-3.67162	33.8698	0.218626	-0.00238649	314916	1291.43	1	12	0.00487687	0.000195392	0	-7.5062e-05	0.000235747	1.32711e-06	-38.3868	0.00679204	0.00532385	0.00421763	-3.6805	24.9651	24.9136	1.60257	0.0399827	0.00256568	0.0400649	3.67162	1.29143e+06	2.01252e+07	2.01666e+07	-86.3284	0.0000000E+000	0.0000000E+000	0.0000000E+000	86.3284	0.0000000E+000	0.0000000E+000	0.0000000E+000	-86.3284	0.0000000E+000	0.0000000E+000	0.0000000E+000	-3.67162	0.0000000E+000	0.0000000E+000	0.0000000E+000	3.67162	15.5837	86.3284	-1.88842e-05	-5.21748e-07	-5.62607e-10	-5.21186e-07	0.21839	91609.8	98.7838	91511.1
0.0999041	25.9433	3.46532	26.1738	-7.60812	79.0764	0.218615	-0.00371883	459720	8058.39	1	12	0.00487348	0.000186197	0	-6.91643e-05	4.48344e-05	2.81427e-06	-28.795	0.0151145	0.0132456	0.0072803	-7.62007	26.1878	25.9566	3.4726	0.0378699	0.00505838	0.0382062	7.60812	8.05839e+06	6.03296e+07	6.08654e+07	-82.3919	0.0000000E+000	0.0000000E+000	0.0000000E+000	82.3919	0.0000000E+000	0.0000000E+000	0.0000000E+000	-82.3919	0.0000000E+000	0.0000000E+000	0.0000000E+000	-7.60812	0.0000000E+000	0.0000000E+000	0.0000000E+000	7.60812	7.48656	82.3919	2.38338e-05	-8.12993e-07	-1.66732e-10	-8.12826e-07	0.21857	58786	12.056	58774
0.0315922	28.2974	8.25547	29.477	-16.264	221.958	0.218607	-0.00136154	610237	47864.6	1	12	0.00487411	0.000165353	0	1.27529e-05	6.65197e-06	7.99148e-07	-14.2795	0.004833	0.00468368	0.00119207	-16.2637	29.4819	28.3021	8.25666	0.0325671	0.0095011	0.0339247	16.264	4.78646e+07	1.64066e+08	1.70906e+08	-73.736	0.0000000E+000	0.0000000E+000	0.0000000E+000	73.736	0.0000000E+000	0.0000000E+000	0.0000000E+000	-73.736	0.0000000E+000	0.0000000E+000	0.0000000E+000	-16.264	0.0000000E+000	0.0000000E+000	0.0000000E+000	16.264	3.42772	73.736	-1.53608e-05	-2.97642e-07	-9.05689e-12	-2.97632e-07	0.218601	160559	4.88564	160554
0.0100092	33.7373	19.8968	39.1674	-30.5303	673.18	0.218615	-0.00267475	799168	206232	1	12	0.00487598	0.000124491	0	-0.000992071	-0.000146078	2.42421e-06	13.8798	0.019473	0.0189045	-0.00467131	-30.5104	39.1814	33.7562	19.8922	0.0219917	0.0129698	0.0255314	30.5303	2.06232e+08	3.49689e+08	4.05973e+08	-59.4697	0.0000000E+000	0.0000000E+000	0.0000000E+000	59.4697	0.0000000E+000	0.0000000E+000	0.0000000E+000	-59.4697	0.0000000E+000	0.0000000E+000	0.0000000E+000	-30.5303	0.0000000E+000	0.0000000E+000	0.0000000E+000	30.5303	1.69561	59.4697	-0.000461271	-5.84739e-07	3.90721e-10	-5.8513e-07	0.218761	81732.8	54.6136	81787.4