File: txt/18999_R309_UA707_SOC00_C02.mpt
EC-Lab ASCII FILE
Nb header lines : 65

Potentio Electrochemical Impedance Spectroscopy

Run on channel : 2 (SN 66139)
Grouped channel(s) : 1, 2, 3, 4
User :
CE vs. WE compliance from -10 V to 10 V
Electrode connection : standard
Potential control : Ewe
Ewe ctrl range : min = -10.00 V, max = 10.00 V
Safety Limits :
	Do not start on E overload
Acquisition started on : 11/04/2025 15:54:15.751
Loaded Setting File :  C:\Users\Celltest\OneDrive - store-dot.com\Documents\EC-Lab\Data\@Biologic Test Protocols\anode half cell EIS SOC00.mps
Saved on :
	File : 18998_R309_UA707_SOC00_C02.mpr
	Directory : C:\Users\Celltest\OneDrive - store-dot.com\Documents\EC-Lab\Data\Charmaine\
	Host : 169.254.61.224
Device : VMP-3e (SN .003165)
Address : USB
EC-LAB for windows v11.62 (software)
Internet server v27.00 (firmware)
Command interpretor v12.03 (firmware)
Electrode material :
Initial state :
Electrolyte :
Comments :
Electrode surface area : 0.001 cm²
Characteristic mass : 0.001 g
Equivalent Weight : 0.000 g/eq.
Density : 0.000 g/cm3
Volume (V) : 0.001 cm³
Record Ece
Cycle Definition : Charge/Discharge alternance
Mode                Single sine
E (V)               0.0000
vs.                 Eoc
tE (h:m:s)          0:00:0.0000
record              0
dI                  0.000
unit dI             mA
dt (s)              0.000
fi                  100.000
unit fi             kHz
ff                  10.000
unit ff             mHz
Nd                  6
Points              per decade
spacing             Logarithmic
Va (mV)             5.0
pw                  0.10
Na                  2
corr                0
E range min (V)     -10.000
E range max (V)     10.000
I Range             Auto
Bandwidth           5
nc cycles           0
goto Ns'            0
nr cycles           0
inc. cycle          0

freq/Hz	Re(Z)/Ohm	-Im(Z)/Ohm	|Z|/Ohm	Phase(Z)/deg	time/s	<Ewe>/V	<I>/mA	Cs/µF	Cp/µF	cycle number	I Range	|Ewe|/V	|I|/A	Ns	(Q-Qo)/mA.h	<Ece>/V	|Ece|/V	Phase(Zce)/deg	|Zce|/Ohm	Re(Zce)/Ohm	-Im(Zce)/Ohm	Phase(Zwe-ce)/deg	|Zwe-ce|/Ohm	Re(Zwe-ce)/Ohm	-Im(Zwe-ce)/Ohm	Re(Y)/Ohm-1	Im(Y)/Ohm-1	|Y|/Ohm-1	Phase(Y)/deg	Re(C)/nF	Im(C)/nF	|C|/nF	Phase(C)/deg	Re(M)	Im(M)	|M|	Phase(M)/deg	Re(Permittivity)	Im(Permittivity)	|Permittivity|	Phase(Permittivity)/deg	Re(Resistivity)/Ohm.cm	Im(Resistivity)/Ohm.cm	|Resistivity|/Ohm.cm	Phase(Resistivity)/deg	Re(Conductivity)/mS/cm	Im(Conductivity)/mS/cm	|Conductivity|/mS/cm	Phase(Conductivity)/deg	Tan(Delta)	Loss Angle(Delta)/deg	dq/mA.h	Pwe/W	Pce/W	Pwe-ce/W	<Ewe-Ece>/V	Rwe/Ohm	Rce/Ohm	Rwe-ce/Ohm		Ewe-Ece/V
100004	1.67697	0.563368	1.76907	-18.5695	1.72454	0.246764	-0.0134807	2.82496	0.286489	1	9	0.00463458	0.00261978	0	-8.48704e-06	-3.13005e-05	2.02387e-05	91.4452	0.00772535	-0.000194836	-0.00772289	-18.3341	1.76644	1.67677	0.555645	0.535841	0.180013	0.56527	18.5695	286.489	852.785	899.621	-71.4305	0.0000000E+000	0.0000000E+000	0.0000000E+000	71.4305	0.0000000E+000	0.0000000E+000	0.0000000E+000	-71.4305	0.0000000E+000	0.0000000E+000	0.0000000E+000	-18.5695	0.0000000E+000	0.0000000E+000	0.0000000E+000	18.5695	2.97668	71.4305	-8.48704e-06	-3.32656e-06	4.21953e-10	-3.32698e-06	0.246795	18304.9	2.32187	18307.3
31621.1	2.16369	0.677813	2.26737	-17.3941	3.24552	0.246741	-0.00610605	7.42562	0.663601	1	9	0.00510962	0.00225355	0	-1.33908e-05	0.000235971	7.41394e-06	-75.4369	0.0032899	0.000827234	0.0031842	-17.4646	2.26911	2.16451	0.680997	0.420871	0.131845	0.441039	17.3941	663.601	2118.32	2219.83	-72.6059	0.0000000E+000	0.0000000E+000	0.0000000E+000	72.6059	0.0000000E+000	0.0000000E+000	0.0000000E+000	-72.6059	0.0000000E+000	0.0000000E+000	0.0000000E+000	-17.3941	0.0000000E+000	0.0000000E+000	0.0000000E+000	17.3941	3.19216	72.6059	-3.83162e-06	-1.50662e-06	-1.44085e-09	-1.50517e-06	0.246505	40409.3	38.6455	40370.7
10002.2	2.65746	0.807237	2.77736	-16.8968	4.27054	0.246737	-0.00532391	19.7116	1.66517	1	9	0.00491914	0.00177116	0	-1.76139e-05	0.000216881	6.20875e-06	13.9331	0.00350548	0.00340234	-0.000844078	-16.8598	2.78037	2.66086	0.806393	0.34451	0.104649	0.360054	16.8968	1665.17	5481.83	5729.16	-73.1032	0.0000000E+000	0.0000000E+000	0.0000000E+000	73.1032	0.0000000E+000	0.0000000E+000	0.0000000E+000	-73.1032	0.0000000E+000	0.0000000E+000	0.0000000E+000	-16.8968	0.0000000E+000	0.0000000E+000	0.0000000E+000	16.8968	3.29205	73.1032	-2.17744e-06	-1.31361e-06	-1.15465e-09	-1.31245e-06	0.246521	46345.2	40.7371	46304.5
3163.08	3.25222	1.10375	3.43441	-18.7463	5.17066	0.246615	-0.0222708	45.5869	4.70842	1	9	0.00461915	0.00134496	0	-2.06752e-05	0.000235971	1.10391e-05	-69.5443	0.00820774	0.00286847	0.00769018	-18.8523	3.43961	3.25509	1.11144	0.275724	0.0935761	0.291171	18.7463	4708.42	13873.5	14650.7	-71.2537	0.0000000E+000	0.0000000E+000	0.0000000E+000	71.2537	0.0000000E+000	0.0000000E+000	0.0000000E+000	-71.2537	0.0000000E+000	0.0000000E+000	0.0000000E+000	-18.7463	0.0000000E+000	0.0000000E+000	0.0000000E+000	18.7463	2.94652	71.2537	-1.51688e-06	-5.49231e-06	-5.25527e-09	-5.48705e-06	0.246379	11073.5	10.5956	11062.9
1000.32	4.0775	1.68451	4.41175	-22.4467	6.7688	0.246716	-0.0233271	94.4511	13.77	1	10	0.00462935	0.00104932	0	-2.68476e-05	0.000216881	8.47e-06	-58.7616	0.00807187	0.00418608	0.00690159	-22.5087	4.41826	4.08168	1.69141	0.209494	0.086547	0.226667	22.4467	13770	33331.3	36063.7	-67.5533	0.0000000E+000	0.0000000E+000	0.0000000E+000	67.5533	0.0000000E+000	0.0000000E+000	0.0000000E+000	-67.5533	0.0000000E+000	0.0000000E+000	0.0000000E+000	-22.4467	0.0000000E+000	0.0000000E+000	0.0000000E+000	22.4467	2.42058	67.5533	-2.245e-06	-5.75515e-06	-5.05919e-09	-5.75009e-06	0.246499	10576.4	9.29738	10567.1
316.316	5.46588	2.75212	6.11964	-26.7257	8.11804	0.246701	-0.0206188	182.823	36.9755	1	10	0.00456176	0.000745429	0	-3.37936e-05	0.000178699	6.03768e-06	-134.581	0.00809959	-0.00568527	0.00576898	-26.7979	6.11716	5.4602	2.75789	0.145951	0.0734878	0.163408	26.7257	36975.5	73435.7	82219.1	-63.2743	0.0000000E+000	0.0000000E+000	0.0000000E+000	63.2743	0.0000000E+000	0.0000000E+000	0.0000000E+000	-63.2743	0.0000000E+000	0.0000000E+000	0.0000000E+000	-26.7257	0.0000000E+000	0.0000000E+000	0.0000000E+000	26.7257	1.98606	63.2743	-2.19916e-06	-5.08669e-06	-3.68456e-09	-5.083e-06	0.246522	11964.8	8.66677	11956.2
100.032	8.30532	3.96648	9.20388	-25.5284	9.46478	0.246696	-0.0206226	401.121	74.4981	1	10	0.00454907	0.000494256	0	-4.17949e-05	0.000235971	6.57961e-06	-2.67103	0.0133122	0.0132977	0.000620364	-25.4962	9.21615	8.31862	3.9671	0.0980426	0.0468235	0.10865	25.5284	74498.1	155990	172866	-64.4716	0.0000000E+000	0.0000000E+000	0.0000000E+000	64.4716	0.0000000E+000	0.0000000E+000	0.0000000E+000	-64.4716	0.0000000E+000	0.0000000E+000	0.0000000E+000	-25.5284	0.0000000E+000	0.0000000E+000	0.0000000E+000	25.5284	2.09387	64.4716	-2.11597e-06	-5.08751e-06	-4.86634e-09	-5.08264e-06	0.24646	11962.4	11.4424	11951
31.6296	11.8739	3.46604	12.3695	-16.2727	10.7935	0.246691	-0.0238523	1451.75	113.988	1	10	0.00454836	0.000367709	0	-4.83656e-05	0.000274153	7.81459e-06	-68.5369	0.0212521	0.00777618	0.0197783	-16.3505	12.3825	11.8817	3.48582	0.0776055	0.0226534	0.0808443	16.2727	113988	390499	406796	-73.7273	0.0000000E+000	0.0000000E+000	0.0000000E+000	73.7273	0.0000000E+000	0.0000000E+000	0.0000000E+000	-73.7273	0.0000000E+000	0.0000000E+000	0.0000000E+000	-16.2727	0.0000000E+000	0.0000000E+000	0.0000000E+000	16.2727	3.42579	73.7273	-1.76767e-06	-5.88416e-06	-6.53919e-09	-5.87763e-06	0.246417	10342.4	11.4938	10330.9
10.0032	13.9557	2.28061	14.1408	-9.28112	12.3748	0.246741	-0.00894767	6976.37	181.461	1	11	0.00454559	0.000321452	0	-5.30699e-05	0.00019779	2.25215e-05	69.707	0.0700617	0.0242989	-0.0657131	-9.00273	14.1544	13.98	2.2149	0.0697915	0.0114052	0.0707172	9.28112	181461	1.11041e+06	1.12514e+06	-80.7189	0.0000000E+000	0.0000000E+000	0.0000000E+000	80.7189	0.0000000E+000	0.0000000E+000	0.0000000E+000	-80.7189	0.0000000E+000	0.0000000E+000	0.0000000E+000	-9.28112	0.0000000E+000	0.0000000E+000	0.0000000E+000	9.28112	6.11928	80.7189	-8.66721e-07	-2.20776e-06	-1.76976e-09	-2.20599e-06	0.246544	27576.1	22.1052	27554
3.1604	15.0475	1.38356	15.1109	-5.25338	13.8914	0.246741	-0.00762852	36398.2	305.137	1	11	0.00454975	0.00030109	0	-5.30453e-05	6.41538e-05	8.8078e-06	49.5742	0.0292531	0.0189695	-0.0222688	-5.16282	15.1278	15.0664	1.36129	0.0658993	0.00605922	0.0661773	5.25338	305137	3.31863e+06	3.33263e+06	-84.7466	0.0000000E+000	0.0000000E+000	0.0000000E+000	84.7466	0.0000000E+000	0.0000000E+000	0.0000000E+000	-84.7466	0.0000000E+000	0.0000000E+000	0.0000000E+000	-5.25338	0.0000000E+000	0.0000000E+000	0.0000000E+000	5.25338	10.8759	84.7466	2.4131e-07	-1.88226e-06	-4.89398e-10	-1.88178e-06	0.246676	32344.5	8.40973	32336.1
1.00006	15.6309	1.00119	15.6629	-3.66492	18.4849	0.246747	-0.00643435	158955	649.48	1	11	0.00454443	0.00029014	0	-7.63292e-05	0.000255062	4.01657e-06	-52.2165	0.0138436	0.00848167	0.010941	-3.70286	15.6721	15.6394	1.01214	0.0637145	0.00408106	0.0638451	3.66492	649480	1.01398e+07	1.01606e+07	-86.3351	0.0000000E+000	0.0000000E+000	0.0000000E+000	86.3351	0.0000000E+000	0.0000000E+000	0.0000000E+000	-86.3351	0.0000000E+000	0.0000000E+000	0.0000000E+000	-3.66492	0.0000000E+000	0.0000000E+000	0.0000000E+000	3.66492	15.6122	86.3351	-8.53764e-06	-1.58765e-06	-1.64116e-09	-1.58601e-06	0.246492	38348.4	39.6407	38308.7
0.316193	16.0254	1.31991	16.0797	-4.70845	36.037	0.246752	-0.00536075	381351	2569.55	1	12	0.00454753	0.000282813	0	-6.44265e-05	0.000121426	2.41624e-06	0.864386	0.00854362	0.00854265	-0.000128887	-4.70549	16.0882	16.0339	1.31978	0.0619805	0.00510492	0.0621903	4.70845	2.56955e+06	3.11977e+07	3.13033e+07	-85.2916	0.0000000E+000	0.0000000E+000	0.0000000E+000	85.2916	0.0000000E+000	0.0000000E+000	0.0000000E+000	-85.2916	0.0000000E+000	0.0000000E+000	0.0000000E+000	-4.70845	0.0000000E+000	0.0000000E+000	0.0000000E+000	4.70845	12.1413	85.2916	1.00133e-05	-1.32278e-06	-6.50937e-10	-1.32213e-06	0.246631	46029.4	22.651	46006.7
0.0999041	16.6971	2.87511	16.9429	-9.77004	81.245	0.246743	-0.000975894	554093	15955.8	1	12	0.00454792	0.000268427	0	-0.000113267	-0.000126755	1.95919e-06	-50.9758	0.00729876	0.00459565	0.00567027	-9.7863	16.9484	16.7017	2.88078	0.0581659	0.0100157	0.0590219	9.77004	1.59558e+07	9.26628e+07	9.40265e+07	-80.23	0.0000000E+000	0.0000000E+000	0.0000000E+000	80.23	0.0000000E+000	0.0000000E+000	0.0000000E+000	-80.23	0.0000000E+000	0.0000000E+000	0.0000000E+000	-9.77004	0.0000000E+000	0.0000000E+000	0.0000000E+000	9.77004	5.80749	80.23	-5.4961e-05	-2.40796e-07	1.23699e-10	-2.40919e-07	0.24687	252838	129.886	252968
0.0315922	18.464	6.77607	19.6681	-20.1525	224.129	0.246741	-0.00376661	743468	88245.5	1	12	0.0045482	0.000231247	0	-0.000555865	6.88124e-06	4.00164e-06	-10.6086	0.0173046	0.0170088	0.00318577	-20.1442	19.6852	18.481	6.77926	0.047731	0.0175167	0.0508437	20.1525	8.82455e+07	2.40459e+08	2.5614e+08	-69.8475	0.0000000E+000	0.0000000E+000	0.0000000E+000	69.8475	0.0000000E+000	0.0000000E+000	0.0000000E+000	-69.8475	0.0000000E+000	0.0000000E+000	0.0000000E+000	-20.1525	0.0000000E+000	0.0000000E+000	0.0000000E+000	20.1525	2.72489	69.8475	-0.000152033	-9.29376e-07	-2.5919e-11	-9.2935e-07	0.246734	65507.3	1.8269	65505.5
0.0100092	22.5043	16.2477	27.7566	-35.8287	675.352	0.246741	-0.00325006	978653	335337	1	12	0.00454926	0.000163898	0	-4.73077e-05	0.000140517	3.63089e-06	0.476115	0.0221534	0.0221526	-0.000184087	-35.8017	27.7745	22.5264	16.2476	0.02921	0.0210892	0.0360274	35.8287	3.35337e+08	4.64465e+08	5.72869e+08	-54.1713	0.0000000E+000	0.0000000E+000	0.0000000E+000	54.1713	0.0000000E+000	0.0000000E+000	0.0000000E+000	-54.1713	0.0000000E+000	0.0000000E+000	0.0000000E+000	-35.8287	0.0000000E+000	0.0000000E+000	0.0000000E+000	35.8287	1.38507	54.1713	0.000283597	-8.01921e-07	-4.56688e-10	-8.01465e-07	0.2466	75919	43.2353	75875.7