File: txt/18998_R309_UA707_SOC00_C01.mpt
EC-Lab ASCII FILE
Nb header lines : 66

Potentio Electrochemical Impedance Spectroscopy

Run on channel : 1 (SN 66354)
Grouped channel(s) : 1, 2, 3, 4
User :
CE vs. WE compliance from -10 V to 10 V
Electrode connection : standard
Potential control : Ewe
Ewe ctrl range : min = -10.00 V, max = 10.00 V
Safety Limits :
	Do not start on E overload
Acquisition started on : 11/04/2025 15:54:15.751
Loaded Setting File :  C:\Users\Celltest\OneDrive - store-dot.com\Documents\EC-Lab\Data\@Biologic Test Protocols\anode half cell EIS SOC00.mps
Saved on :
	File : 18998_R309_UA707_SOC00_C01.mpr
	Directory : C:\Users\Celltest\OneDrive - store-dot.com\Documents\EC-Lab\Data\Charmaine\
	Host : 169.254.61.224
Device : VMP-3e (SN .003165)
Address : USB
EC-LAB for windows v11.62 (software)
Internet server v27.00 (firmware)
Command interpretor v12.03 (firmware)
Electrode material :
Initial state :
Electrolyte :
Comments :
Electrode surface area : 0.001 cm²
Characteristic mass : 0.001 g
Equivalent Weight : 0.000 g/eq.
Density : 0.000 g/cm3
Volume (V) : 0.001 cm³
Record Ece
Cycle Definition : Charge/Discharge alternance
Mode                Single sine
E (V)               0.0000
vs.                 Eoc
tE (h:m:s)          0:00:0.0000
record              0
dI                  0.000
unit dI             mA
dt (s)              0.000
fi                  100.000
unit fi             kHz
ff                  10.000
unit ff             mHz
Nd                  6
Points              per decade
spacing             Logarithmic
Va (mV)             5.0
pw                  0.10
Na                  2
corr                0
E range min (V)     -10.000
E range max (V)     10.000
I Range             Auto
Bandwidth           5
nc cycles           0
goto Ns'            0
nr cycles           0
inc. cycle          0

freq/Hz	Re(Z)/Ohm	-Im(Z)/Ohm	|Z|/Ohm	Phase(Z)/deg	time/s	<Ewe>/V	<I>/mA	Cs/µF	Cp/µF	cycle number	I Range	|Ewe|/V	|I|/A	Ns	(Q-Qo)/mA.h	<Ece>/V	|Ece|/V	Phase(Zce)/deg	|Zce|/Ohm	Re(Zce)/Ohm	-Im(Zce)/Ohm	Phase(Zwe-ce)/deg	|Zwe-ce|/Ohm	Re(Zwe-ce)/Ohm	-Im(Zwe-ce)/Ohm	Re(Y)/Ohm-1	Im(Y)/Ohm-1	|Y|/Ohm-1	Phase(Y)/deg	Re(C)/nF	Im(C)/nF	|C|/nF	Phase(C)/deg	Re(M)	Im(M)	|M|	Phase(M)/deg	Re(Permittivity)	Im(Permittivity)	|Permittivity|	Phase(Permittivity)/deg	Re(Resistivity)/Ohm.cm	Im(Resistivity)/Ohm.cm	|Resistivity|/Ohm.cm	Phase(Resistivity)/deg	Re(Conductivity)/mS/cm	Im(Conductivity)/mS/cm	|Conductivity|/mS/cm	Phase(Conductivity)/deg	Tan(Delta)	Loss Angle(Delta)/deg	dq/mA.h	Pwe/W	Pce/W	Pwe-ce/W	<Ewe-Ece>/V	Rwe/Ohm	Rce/Ohm	Rwe-ce/Ohm		Ewe-Ece/V
100004	1.9049	0.589962	1.99417	-17.2081	1.72556	0.245538	0.0670905	2.69762	0.236104	1	9	0.00466451	0.00233908	0	5.95011e-06	0.000183002	3.53427e-05	85.0141	0.0151097	0.00131319	-0.0150525	-16.7832	1.99103	1.90622	0.574909	0.479015	0.148354	0.501462	17.2081	236.104	762.347	798.072	-72.7919	0.0000000E+000	0.0000000E+000	0.0000000E+000	72.7919	0.0000000E+000	0.0000000E+000	0.0000000E+000	-72.7919	0.0000000E+000	0.0000000E+000	0.0000000E+000	-17.2081	0.0000000E+000	0.0000000E+000	0.0000000E+000	17.2081	3.22886	72.7919	5.95011e-06	1.64733e-05	1.22777e-08	1.6461e-05	0.245355	3659.81	2.72768	3657.08
31621.1	2.41575	0.76383	2.53363	-17.5463	3.12254	0.245523	0.0504751	6.5894	0.598898	1	9	0.00545578	0.00215334	0	3.43203e-05	8.76152e-05	8.0185e-06	-35.7864	0.00372374	0.00302071	0.00217751	-17.5726	2.53717	2.41877	0.766008	0.376327	0.11899	0.39469	17.5463	598.898	1894.12	1986.55	-72.4537	0.0000000E+000	0.0000000E+000	0.0000000E+000	72.4537	0.0000000E+000	0.0000000E+000	0.0000000E+000	-72.4537	0.0000000E+000	0.0000000E+000	0.0000000E+000	-17.5463	0.0000000E+000	0.0000000E+000	0.0000000E+000	17.5463	3.16268	72.4537	1.19653e-05	1.23928e-05	4.42238e-09	1.23884e-05	0.245436	4864.25	1.73581	4862.52
10002.2	2.98564	0.958581	3.13575	-17.7999	4.02352	0.245535	0.0606455	16.5995	1.5512	1	9	0.00450673	0.00143721	0	5.17361e-05	0.000163924	1.30641e-05	-95.9992	0.00908993	-0.000950024	0.00904015	-17.9624	3.13762	2.98469	0.967621	0.303637	0.0974867	0.318903	17.7999	1551.2	4831.46	5074.37	-72.2001	0.0000000E+000	0.0000000E+000	0.0000000E+000	72.2001	0.0000000E+000	0.0000000E+000	0.0000000E+000	-72.2001	0.0000000E+000	0.0000000E+000	0.0000000E+000	-17.7999	0.0000000E+000	0.0000000E+000	0.0000000E+000	17.7999	3.11465	72.2001	3.19123e-06	1.48906e-05	9.94127e-09	1.48806e-05	0.245371	4048.7	2.703	4045.99
3163.08	3.71757	1.34508	3.95342	-19.8909	5.25668	0.245483	-0.0200141	37.4079	4.33023	1	10	0.00488126	0.00123469	0	6.04694e-05	0.000183002	8.40433e-06	41.7782	0.00680681	0.00507604	-0.00453503	-19.8042	3.95666	3.72264	1.34054	0.237855	0.0860599	0.252945	19.8909	4330.23	11968	12727.3	-70.1091	0.0000000E+000	0.0000000E+000	0.0000000E+000	70.1091	0.0000000E+000	0.0000000E+000	0.0000000E+000	-70.1091	0.0000000E+000	0.0000000E+000	0.0000000E+000	-19.8909	0.0000000E+000	0.0000000E+000	0.0000000E+000	19.8909	2.76383	70.1091	1.48099e-06	-4.91312e-06	-3.66261e-09	-4.90945e-06	0.2453	12265.5	9.14364	12256.3
1000.32	4.77321	1.98455	5.16933	-22.5759	6.60982	0.245508	-0.0161157	80.1714	11.8161	1	10	0.00476548	0.000921876	0	5.55975e-05	0.00033562	4.39223e-06	0.952063	0.00476445	0.00476379	-7.91655e-05	-22.5549	5.1737	4.77798	1.98447	0.178625	0.0742664	0.193449	22.5759	11816.1	28419.9	30778.4	-67.424	0.0000000E+000	0.0000000E+000	0.0000000E+000	67.424	0.0000000E+000	0.0000000E+000	0.0000000E+000	-67.424	0.0000000E+000	0.0000000E+000	0.0000000E+000	-22.5759	0.0000000E+000	0.0000000E+000	0.0000000E+000	22.5759	2.40519	67.424	-1.72704e-06	-3.95653e-06	-5.40876e-09	-3.95113e-06	0.245172	15234.1	20.8256	15213.2
316.316	6.42003	3.12783	7.14144	-25.9753	7.96004	0.245475	-0.014856	160.863	30.8582	1	10	0.00470934	0.000659439	0	5.1358e-05	-4.5926e-05	1.09681e-05	18.9803	0.0166325	0.0157282	-0.00540961	-25.8811	7.15322	6.43576	3.12242	0.125883	0.0613299	0.140028	25.9753	30858.2	63338.1	70455.3	-64.0247	0.0000000E+000	0.0000000E+000	0.0000000E+000	64.0247	0.0000000E+000	0.0000000E+000	0.0000000E+000	-64.0247	0.0000000E+000	0.0000000E+000	0.0000000E+000	-25.9753	0.0000000E+000	0.0000000E+000	0.0000000E+000	25.9753	2.05255	64.0247	-1.23951e-06	-3.64678e-06	6.82278e-10	-3.64746e-06	0.245521	16523.6	3.0914	16526.7
100.032	9.58743	4.30406	10.5092	-24.1766	9.30676	0.245475	-0.0132721	369.66	62.0038	1	10	0.00468469	0.00044577	0	4.69199e-05	6.85379e-05	8.05233e-06	25.3263	0.0180639	0.0163277	-0.00772723	-24.1018	10.521	9.60376	4.29633	0.0868083	0.0389706	0.0951545	24.1766	62003.8	138115	151395	-65.8234	0.0000000E+000	0.0000000E+000	0.0000000E+000	65.8234	0.0000000E+000	0.0000000E+000	0.0000000E+000	-65.8234	0.0000000E+000	0.0000000E+000	0.0000000E+000	-24.1766	0.0000000E+000	0.0000000E+000	0.0000000E+000	24.1766	2.22753	65.8234	-1.51651e-06	-3.25797e-06	-9.0964e-10	-3.25706e-06	0.245407	18495.6	5.16406	18490.4
31.6296	13.4054	3.66625	13.8977	-15.2958	10.6355	0.245468	-0.0184712	1372.48	95.5132	1	10	0.004697	0.00033797	0	4.27229e-05	0.000450084	1.0508e-05	-15.2586	0.0310916	0.0299956	0.00818259	-15.2957	13.9288	13.4354	3.67443	0.0694055	0.0189817	0.0719543	15.2958	95513.1	349237	362063	-74.7042	0.0000000E+000	0.0000000E+000	0.0000000E+000	74.7042	0.0000000E+000	0.0000000E+000	0.0000000E+000	-74.7042	0.0000000E+000	0.0000000E+000	0.0000000E+000	-15.2958	0.0000000E+000	0.0000000E+000	0.0000000E+000	15.2958	3.65643	74.7042	-1.18821e-06	-4.53408e-06	-8.31358e-09	-4.52577e-06	0.245018	13289.3	24.3668	13264.9
10.0032	15.5804	2.2763	15.7458	-8.3121	12.2178	0.245522	-0.00830623	6989.6	146.076	1	11	0.0047018	0.000298607	0	3.90638e-05	0.000373775	1.95607e-05	158.35	0.0655067	-0.0608855	-0.0241678	-8.25688	15.6821	15.5195	2.25213	0.0628418	0.00918118	0.0635089	8.3121	146076	999838	1.01045e+06	-81.6879	0.0000000E+000	0.0000000E+000	0.0000000E+000	81.6879	0.0000000E+000	0.0000000E+000	0.0000000E+000	-81.6879	0.0000000E+000	0.0000000E+000	0.0000000E+000	-8.3121	0.0000000E+000	0.0000000E+000	0.0000000E+000	8.3121	6.84463	81.6879	-1.36524e-07	-2.03936e-06	-3.10466e-09	-2.03625e-06	0.245148	29558.7	44.9993	29513.7
3.1604	16.5738	1.37587	16.6308	-4.74553	13.7345	0.245541	-0.00638562	36601.7	250.514	1	11	0.00468616	0.000281777	0	3.93226e-05	-2.68487e-05	6.43741e-06	8.29824	0.0228458	0.0226066	-0.00329724	-4.72779	16.653	16.5964	1.37257	0.0599234	0.00497454	0.0601295	4.74553	250514	3.01769e+06	3.02807e+06	-85.2545	0.0000000E+000	0.0000000E+000	0.0000000E+000	85.2545	0.0000000E+000	0.0000000E+000	0.0000000E+000	-85.2545	0.0000000E+000	0.0000000E+000	0.0000000E+000	-4.74553	0.0000000E+000	0.0000000E+000	0.0000000E+000	4.74553	12.046	85.2545	1.26698e-06	-1.56793e-06	1.71445e-10	-1.5681e-06	0.245567	38452.1	4.20455	38456.3
1.00006	17.1839	1.0465	17.2158	-3.485	19.3746	0.245535	-0.00567379	152073	561.924	1	12	0.0046896	0.000272401	0	1.61264e-05	0.000240234	3.11312e-06	1.1034	0.0114284	0.0114263	-0.000220075	-3.48196	17.2272	17.1954	1.04628	0.0579788	0.0035309	0.0580862	3.485	561924	9.22702e+06	9.24412e+06	-86.515	0.0000000E+000	0.0000000E+000	0.0000000E+000	86.515	0.0000000E+000	0.0000000E+000	0.0000000E+000	-86.515	0.0000000E+000	0.0000000E+000	0.0000000E+000	-3.485	0.0000000E+000	0.0000000E+000	0.0000000E+000	3.485	16.4204	86.515	-1.11299e-05	-1.39312e-06	-1.36304e-09	-1.39175e-06	0.245295	43275.3	42.3409	43233
0.316193	17.609	1.39885	17.6644	-4.54203	33.718	0.245542	-0.00513695	359829	2256.53	1	12	0.00468927	0.000265464	0	3.21631e-05	0.000221156	3.48609e-06	-10.0658	0.0131321	0.0129299	0.0022952	-4.54613	17.6775	17.6219	1.40115	0.0564331	0.00448304	0.0566109	4.54203	2.25653e+06	2.84055e+07	2.8495e+07	-85.458	0.0000000E+000	0.0000000E+000	0.0000000E+000	85.458	0.0000000E+000	0.0000000E+000	0.0000000E+000	-85.458	0.0000000E+000	0.0000000E+000	0.0000000E+000	-4.54203	0.0000000E+000	0.0000000E+000	0.0000000E+000	4.54203	12.5881	85.458	1.3823e-05	-1.26134e-06	-1.13607e-09	-1.2602e-06	0.245321	47799.2	43.0521	47756.2
0.0999041	18.3589	3.01287	18.6045	-9.31969	78.926	0.24553	-0.00105464	528758	13867	1	12	0.00468882	0.000252026	0	-4.71344e-06	0.000183002	2.94724e-06	20.1829	0.0116942	0.0109761	-0.00403471	-9.30197	18.6147	18.3699	3.00883	0.0530409	0.00870451	0.0537504	9.31969	1.3867e+07	8.44983e+07	8.56286e+07	-80.6803	0.0000000E+000	0.0000000E+000	0.0000000E+000	80.6803	0.0000000E+000	0.0000000E+000	0.0000000E+000	-80.6803	0.0000000E+000	0.0000000E+000	0.0000000E+000	-9.31969	0.0000000E+000	0.0000000E+000	0.0000000E+000	9.31969	6.0935	80.6803	-4.69429e-05	-2.58945e-07	-1.93e-10	-2.58752e-07	0.245347	232810	173.521	232637
0.0315922	20.2537	6.96623	21.4183	-18.9805	221.809	0.245536	-0.00356511	723173	76501.3	1	12	0.00469091	0.000219014	0	-0.00043572	0.00033562	2.43726e-06	-3.54894	0.0111283	0.011107	0.000688856	-18.9726	21.429	20.2648	6.96692	0.0441506	0.0151855	0.0466891	18.9805	7.65013e+07	2.22421e+08	2.3521e+08	-71.0195	0.0000000E+000	0.0000000E+000	0.0000000E+000	71.0195	0.0000000E+000	0.0000000E+000	0.0000000E+000	-71.0195	0.0000000E+000	0.0000000E+000	0.0000000E+000	-18.9805	0.0000000E+000	0.0000000E+000	0.0000000E+000	18.9805	2.90742	71.0195	-0.000160509	-8.75363e-07	-1.19652e-09	-8.74166e-07	0.2452	68871.9	94.1402	68777.7
0.0146812	22.4651	12.555	25.7353	-29.1993	462.85	0.245533	-0.00340459	863464	205501	1	12	0.0046876	0.000182146	0	-0.000275237	0.000259311	3.30873e-06	19.6262	0.0181652	0.0171099	-0.00610139	-29.1689	25.7473	22.4822	12.5488	0.0339194	0.0189564	0.0388571	29.1993	2.05501e+08	3.67712e+08	4.2124e+08	-60.8007	0.0000000E+000	0.0000000E+000	0.0000000E+000	60.8007	0.0000000E+000	0.0000000E+000	0.0000000E+000	-60.8007	0.0000000E+000	0.0000000E+000	0.0000000E+000	-29.1993	0.0000000E+000	0.0000000E+000	0.0000000E+000	29.1993	1.78934	60.8007	0.000186418	-8.35939e-07	-8.82846e-10	-8.35056e-07	0.245274	72118.4	76.1652	72042.2

0.0100092	24.6399	16.5694	29.6929	-33.9194	673.032	0.245534	-0.00313647	959656	298830	1	12	0.00469056	0.000157969	0	1.29852e-05	0.000278388	3.16609e-06	11.7904	0.0200425	0.0196196	-0.00409531	-33.8917	29.7069	24.6595	16.5653	0.0279469	0.0187932	0.0336781	33.9194	2.9883e+08	4.44381e+08	5.35513e+08	-56.0806	0.0000000E+000	0.0000000E+000	0.0000000E+000	56.0806	0.0000000E+000	0.0000000E+000	0.0000000E+000	-56.0806	0.0000000E+000	0.0000000E+000	0.0000000E+000	-33.9194	0.0000000E+000	0.0000000E+000	0.0000000E+000	33.9194	1.48707	56.0806	0.000288222	-7.7011e-07	-8.73155e-10	-7.69237e-07	0.245256	78283.8	88.7586	78195