File: txt/19002_R309_UA707_SOC00_C01.mpt
EC-Lab ASCII FILE
Nb header lines : 65

Potentio Electrochemical Impedance Spectroscopy

Run on channel : 1 (SN 66354)
User :
CE vs. WE compliance from -10 V to 10 V
Electrode connection : standard
Potential control : Ewe
Ewe ctrl range : min = -10.00 V, max = 10.00 V
Safety Limits :
	Do not start on E overload
Acquisition started on : 11/04/2025 16:08:08.928
Technique started on : 11/04/2025 16:08:10.840
Loaded Setting File :  C:\Users\Celltest\OneDrive - store-dot.com\Documents\EC-Lab\Data\@Biologic Test Protocols\anode half cell EIS SOC00.mps
Saved on :
	File : 19002_R309_UA707_SOC00_C01.mpr
	Directory : C:\Users\Celltest\OneDrive - store-dot.com\Documents\EC-Lab\Data\Charmaine\
	Host : 169.254.61.224
Device : VMP-3e (SN .003165)
Address : USB
EC-LAB for windows v11.62 (software)
Internet server v27.00 (firmware)
Command interpretor v12.03 (firmware)
Electrode material :
Initial state :
Electrolyte :
Comments :
Electrode surface area : 0.001 cm²
Characteristic mass : 0.001 g
Equivalent Weight : 0.000 g/eq.
Density : 0.000 g/cm3
Volume (V) : 0.001 cm³
Record Ece
Cycle Definition : Charge/Discharge alternance
Mode                Single sine
E (V)               0.0000
vs.                 Eoc
tE (h:m:s)          0:00:0.0000
record              0
dI                  0.000
unit dI             mA
dt (s)              0.000
fi                  100.000
unit fi             kHz
ff                  10.000
unit ff             mHz
Nd                  6
Points              per decade
spacing             Logarithmic
Va (mV)             5.0
pw                  0.10
Na                  2
corr                0
E range min (V)     -10.000
E range max (V)     10.000
I Range             Auto
Bandwidth           5
nc cycles           0
goto Ns'            0
nr cycles           0
inc. cycle          0

freq/Hz	Re(Z)/Ohm	-Im(Z)/Ohm	|Z|/Ohm	Phase(Z)/deg	time/s	<Ewe>/V	<I>/mA	Cs/µF	Cp/µF	cycle number	I Range	|Ewe|/V	|I|/A	Ns	(Q-Qo)/mA.h	<Ece>/V	|Ece|/V	Phase(Zce)/deg	|Zce|/Ohm	Re(Zce)/Ohm	-Im(Zce)/Ohm	Phase(Zwe-ce)/deg	|Zwe-ce|/Ohm	Re(Zwe-ce)/Ohm	-Im(Zwe-ce)/Ohm	Re(Y)/Ohm-1	Im(Y)/Ohm-1	|Y|/Ohm-1	Phase(Y)/deg	Re(C)/nF	Im(C)/nF	|C|/nF	Phase(C)/deg	Re(M)	Im(M)	|M|	Phase(M)/deg	Re(Permittivity)	Im(Permittivity)	|Permittivity|	Phase(Permittivity)/deg	Re(Resistivity)/Ohm.cm	Im(Resistivity)/Ohm.cm	|Resistivity|/Ohm.cm	Phase(Resistivity)/deg	Re(Conductivity)/mS/cm	Im(Conductivity)/mS/cm	|Conductivity|/mS/cm	Phase(Conductivity)/deg	Tan(Delta)	Loss Angle(Delta)/deg	dq/mA.h	Pwe/W	Pce/W	Pwe-ce/W	<Ewe-Ece>/V	Rwe/Ohm	Rce/Ohm	Rwe-ce/Ohm		Ewe-Ece/V
100004	1.3921	0.493831	1.47709	-19.5316	1.91152	0.242419	0.0759943	3.22274	0.36022	1	9	0.00471635	0.003193	0	1.00629e-05	-5.7682e-06	4.06693e-05	98.6299	0.012737	-0.0019112	-0.0125928	-19.0942	1.47112	1.39018	0.481238	0.638049	0.226341	0.677006	19.5316	360.22	1015.45	1077.45	-70.4684	0.0000000E+000	0.0000000E+000	0.0000000E+000	70.4684	0.0000000E+000	0.0000000E+000	0.0000000E+000	-70.4684	0.0000000E+000	0.0000000E+000	0.0000000E+000	-19.5316	0.0000000E+000	0.0000000E+000	0.0000000E+000	19.5316	2.81897	70.4684	1.00629e-05	1.84224e-05	-4.3835e-10	1.84229e-05	0.242424	3189.96	0.075903	3190.03
31621.1	1.82703	0.633008	1.93358	-19.1096	3.43452	0.242423	0.0766276	7.95121	0.852175	1	9	0.00508107	0.0026278	0	4.7339e-05	0.000471164	1.17067e-05	41.1878	0.00445493	0.00335258	-0.0029337	-18.9951	1.93579	1.83038	0.630074	0.488676	0.169311	0.517176	19.1096	852.174	2459.6	2603.04	-70.8904	0.0000000E+000	0.0000000E+000	0.0000000E+000	70.8904	0.0000000E+000	0.0000000E+000	0.0000000E+000	-70.8904	0.0000000E+000	0.0000000E+000	0.0000000E+000	-19.1096	0.0000000E+000	0.0000000E+000	0.0000000E+000	19.1096	2.88626	70.8904	1.08178e-05	1.85763e-05	3.61042e-08	1.85402e-05	0.241952	3163.65	6.14876	3157.5
10002.2	2.29704	0.776368	2.42469	-18.6745	4.45954	0.242418	0.0724551	20.4954	2.10125	1	9	0.00500892	0.0020658	0	7.10845e-05	-0.000139309	4.85449e-06	17.8322	0.00234994	0.00223704	-0.00071962	-18.6415	2.42658	2.29928	0.775648	0.39071	0.132055	0.412423	18.6745	2101.25	6216.96	6562.46	-71.3255	0.0000000E+000	0.0000000E+000	0.0000000E+000	71.3255	0.0000000E+000	0.0000000E+000	0.0000000E+000	-71.3255	0.0000000E+000	0.0000000E+000	0.0000000E+000	-18.6745	0.0000000E+000	0.0000000E+000	0.0000000E+000	18.6745	2.9587	71.3255	7.62785e-06	1.75644e-05	-1.00937e-08	1.75745e-05	0.242558	3345.77	1.9227	3347.69
3163.08	2.88423	1.08717	3.08233	-20.6532	5.35967	0.242208	0.0404909	46.2821	5.7577	1	9	0.00462946	0.00150194	0	8.49099e-05	0.000223159	3.53544e-06	-110.336	0.00235392	-0.00081803	0.00220721	-20.6969	3.08234	2.88342	1.08938	0.30358	0.11443	0.32443	20.6532	5757.7	15275.1	16324.2	-69.3468	0.0000000E+000	0.0000000E+000	0.0000000E+000	69.3468	0.0000000E+000	0.0000000E+000	0.0000000E+000	-69.3468	0.0000000E+000	0.0000000E+000	0.0000000E+000	-20.6532	0.0000000E+000	0.0000000E+000	0.0000000E+000	20.6532	2.65298	69.3468	5.16516e-06	9.80721e-06	9.03592e-09	9.79818e-06	0.241985	5981.79	5.51135	5976.28
1000.32	3.71647	1.64037	4.06238	-23.8156	6.95877	0.242337	-0.0113937	96.9929	15.8147	1	10	0.00464633	0.00114375	0	0.000110331	-0.000120232	7.26e-06	139.228	0.00634756	-0.00480707	-0.00414531	-23.7895	4.05631	3.71166	1.63622	0.2252	0.0993986	0.246161	23.8156	15814.7	35830.3	39165.2	-66.1844	0.0000000E+000	0.0000000E+000	0.0000000E+000	66.1844	0.0000000E+000	0.0000000E+000	0.0000000E+000	-66.1844	0.0000000E+000	0.0000000E+000	0.0000000E+000	-23.8156	0.0000000E+000	0.0000000E+000	0.0000000E+000	23.8156	2.26563	66.1844	-9.45081e-07	-2.76111e-06	1.36989e-09	-2.76248e-06	0.242458	21269.4	10.5525	21280
316.316	5.1002	2.68554	5.76404	-27.7693	8.308	0.242341	-0.0107899	187.356	40.6702	1	10	0.00459139	0.000796558	0	0.00010578	0.000318546	5.369e-06	52.175	0.00674025	0.00413347	-0.00532404	-27.7033	5.76522	5.10433	2.68021	0.153509	0.0808309	0.173489	27.7693	40670.2	77238.2	87291.5	-62.2307	0.0000000E+000	0.0000000E+000	0.0000000E+000	62.2307	0.0000000E+000	0.0000000E+000	0.0000000E+000	-62.2307	0.0000000E+000	0.0000000E+000	0.0000000E+000	-27.7693	0.0000000E+000	0.0000000E+000	0.0000000E+000	27.7693	1.89914	62.2307	-1.28363e-06	-2.61484e-06	-3.43709e-09	-2.6114e-06	0.242022	22459.9	29.5225	22430.4
100.032	7.91213	3.63576	8.7075	-24.6796	9.65477	0.242355	-0.0101899	437.609	76.2938	1	10	0.00457166	0.000525026	0	0.000102933	0.000127773	1.12979e-05	-65.4217	0.0215187	0.00895041	0.0195689	-24.7718	8.72381	7.92108	3.65533	0.104353	0.0479522	0.114844	24.6796	76293.8	166030	182721	-65.3204	0.0000000E+000	0.0000000E+000	0.0000000E+000	65.3204	0.0000000E+000	0.0000000E+000	0.0000000E+000	-65.3204	0.0000000E+000	0.0000000E+000	0.0000000E+000	-24.6796	0.0000000E+000	0.0000000E+000	0.0000000E+000	24.6796	2.1762	65.3204	-1.67362e-06	-2.46957e-06	-1.30199e-09	-2.46827e-06	0.242227	23783.8	12.5392	23771.3
31.6296	10.9813	2.97547	11.3773	-15.1607	10.9826	0.242344	-0.0151616	1691.11	115.666	1	10	0.00456535	0.000401269	0	9.81355e-05	0.000127773	9.76081e-06	-44.8821	0.0243248	0.0172356	0.0171648	-15.2213	11.3984	10.9985	2.99263	0.0848354	0.0229868	0.0878945	15.1607	115666	426878	442271	-74.8393	0.0000000E+000	0.0000000E+000	0.0000000E+000	74.8393	0.0000000E+000	0.0000000E+000	0.0000000E+000	-74.8393	0.0000000E+000	0.0000000E+000	0.0000000E+000	-15.1607	0.0000000E+000	0.0000000E+000	0.0000000E+000	15.1607	3.69062	74.8393	-2.33847e-06	-3.67434e-06	-1.93725e-09	-3.6724e-06	0.242217	15984	8.42738	15975.6
10.0032	12.6926	1.80254	12.82	-8.0828	12.5608	0.242397	-0.00252299	8826.67	174.499	1	11	0.004561	0.000355773	0	9.4048e-05	0.000280391	7.24399e-06	-36.543	0.0203613	0.0163584	0.0121236	-8.1261	12.8379	12.709	1.81466	0.0772284	0.0109676	0.0780033	8.0828	174499	1.22874e+06	1.24106e+06	-81.9172	0.0000000E+000	0.0000000E+000	0.0000000E+000	81.9172	0.0000000E+000	0.0000000E+000	0.0000000E+000	-81.9172	0.0000000E+000	0.0000000E+000	0.0000000E+000	-8.0828	0.0000000E+000	0.0000000E+000	0.0000000E+000	8.0828	7.04152	81.9172	6.26996e-07	-6.11565e-07	-7.07424e-10	-6.10858e-07	0.242117	96075.5	111.135	95964.4
3.1604	13.5311	1.09639	13.5755	-4.6324	14.0775	0.242405	-0.000632357	45931.7	299.594	1	11	0.00456342	0.000336151	0	9.10907e-05	1.33091e-05	8.52243e-06	28.7425	0.025353	0.0222292	-0.0121916	-4.57363	13.5967	13.5534	1.0842	0.0734215	0.00594914	0.0736622	4.6324	299594	3.69745e+06	3.70957e+06	-85.3676	0.0000000E+000	0.0000000E+000	0.0000000E+000	85.3676	0.0000000E+000	0.0000000E+000	0.0000000E+000	-85.3676	0.0000000E+000	0.0000000E+000	0.0000000E+000	-4.6324	0.0000000E+000	0.0000000E+000	0.0000000E+000	4.6324	12.3415	85.3676	-4.69145e-06	-1.53287e-07	-8.41611e-12	-1.53278e-07	0.242392	383336	21.0468	383315
1.00006	14.0086	0.862531	14.0352	-3.52333	18.6699	0.242399	-0.00179711	184509	696.837	1	11	0.00456483	0.000325242	0	0.000103733	0.000394855	4.33701e-06	15.2136	0.0133347	0.0128674	-0.00349927	-3.50586	14.0478	14.0215	0.859031	0.0711149	0.00437864	0.0712496	3.52333	696838	1.13176e+07	1.1339e+07	-86.4767	0.0000000E+000	0.0000000E+000	0.0000000E+000	86.4767	0.0000000E+000	0.0000000E+000	0.0000000E+000	-86.4767	0.0000000E+000	0.0000000E+000	0.0000000E+000	-3.52333	0.0000000E+000	0.0000000E+000	0.0000000E+000	3.52333	16.2413	86.4767	9.34441e-06	-4.35616e-07	-7.09597e-10	-4.34907e-07	0.242004	134883	219.717	134663
0.316193	14.3902	1.22361	14.4422	-4.86022	33.0137	0.242398	0.00242794	411361	2952.89	1	11	0.00456778	0.000316281	0	0.000100183	8.96183e-05	3.06759e-06	-15.1871	0.00969894	0.00936021	0.00254085	-4.86711	14.4517	14.3996	1.22616	0.0689927	0.00586651	0.0692417	4.86022	2.95289e+06	3.47273e+07	3.48526e+07	-85.1398	0.0000000E+000	0.0000000E+000	0.0000000E+000	85.1398	0.0000000E+000	0.0000000E+000	0.0000000E+000	-85.1398	0.0000000E+000	0.0000000E+000	0.0000000E+000	-4.86022	0.0000000E+000	0.0000000E+000	0.0000000E+000	4.86022	11.7604	85.1398	-1.45922e-05	5.88526e-07	2.17588e-10	5.88308e-07	0.242308	99836.9	36.9113	99799.9
0.0999041	15.0495	2.63294	15.2781	-9.92355	78.2216	0.242391	-0.00263856	605057	17969.6	1	11	0.00456394	0.000298724	0	-3.37946e-05	1.33091e-05	2.86612e-06	-7.22642	0.00959453	0.00951832	0.0012069	-9.92186	15.2877	15.059	2.63414	0.0644739	0.0112798	0.0654531	9.92355	1.79696e+07	1.02712e+08	1.04272e+08	-80.0765	0.0000000E+000	0.0000000E+000	0.0000000E+000	80.0765	0.0000000E+000	0.0000000E+000	0.0000000E+000	-80.0765	0.0000000E+000	0.0000000E+000	0.0000000E+000	-9.92355	0.0000000E+000	0.0000000E+000	0.0000000E+000	9.92355	5.71587	80.0765	-4.49765e-05	-6.39564e-07	-3.5117e-11	-6.39528e-07	0.242377	91864.6	5.04407	91859.6
0.0315922	16.4997	6.35124	17.6799	-21.0533	242.746	0.242393	-0.00191951	793198	102363	1	12	0.00456623	0.000258273	0	0.000271726	-0.000158387	2.50026e-06	-20.146	0.00968067	0.00908839	0.00333415	-21.0528	17.6895	16.5088	6.35458	0.0527858	0.0203189	0.0565615	21.0533	1.02363e+08	2.65924e+08	2.84945e+08	-68.9467	0.0000000E+000	0.0000000E+000	0.0000000E+000	68.9467	0.0000000E+000	0.0000000E+000	0.0000000E+000	-68.9467	0.0000000E+000	0.0000000E+000	0.0000000E+000	-21.0533	0.0000000E+000	0.0000000E+000	0.0000000E+000	21.0533	2.59787	68.9467	0.000207867	-4.65276e-07	3.04025e-10	-4.6558e-07	0.242551	126278	82.514	126361
0.0100092	20.6144	15.6681	25.8929	-37.2368	693.968	0.242386	-0.00176024	1.01486e+06	371600	1	12	0.00456298	0.000176225	0	-0.000184204	1.33091e-05	2.99075e-06	75.718	0.0169712	0.00418671	-0.0164466	-37.2022	25.8863	20.6186	15.6516	0.0307475	0.0233697	0.0386206	37.2368	3.716e+08	4.88913e+08	6.14103e+08	-52.7632	0.0000000E+000	0.0000000E+000	0.0000000E+000	52.7632	0.0000000E+000	0.0000000E+000	0.0000000E+000	-52.7632	0.0000000E+000	0.0000000E+000	0.0000000E+000	-37.2368	0.0000000E+000	0.0000000E+000	0.0000000E+000	37.2368	1.3157	52.7632	-0.00051403	-4.26657e-07	-2.34272e-11	-4.26634e-07	0.242372	137700	7.56096	137693