File: txt/19000_R309_UA707_SOC00_C03.mpt
EC-Lab ASCII FILE
Nb header lines : 65

Potentio Electrochemical Impedance Spectroscopy

Run on channel : 3 (SN 65921)
Grouped channel(s) : 1, 2, 3, 4
User :
CE vs. WE compliance from -10 V to 10 V
Electrode connection : standard
Potential control : Ewe
Ewe ctrl range : min = -10.00 V, max = 10.00 V
Safety Limits :
	Do not start on E overload
Acquisition started on : 11/04/2025 15:54:15.751
Loaded Setting File :  C:\Users\Celltest\OneDrive - store-dot.com\Documents\EC-Lab\Data\@Biologic Test Protocols\anode half cell EIS SOC00.mps
Saved on :
	File : 18998_R309_UA707_SOC00_C03.mpr
	Directory : C:\Users\Celltest\OneDrive - store-dot.com\Documents\EC-Lab\Data\Charmaine\
	Host : 169.254.61.224
Device : VMP-3e (SN .003165)
Address : USB
EC-LAB for windows v11.62 (software)
Internet server v27.00 (firmware)
Command interpretor v12.03 (firmware)
Electrode material :
Initial state :
Electrolyte :
Comments :
Electrode surface area : 0.001 cm²
Characteristic mass : 0.001 g
Equivalent Weight : 0.000 g/eq.
Density : 0.000 g/cm3
Volume (V) : 0.001 cm³
Record Ece
Cycle Definition : Charge/Discharge alternance
Mode                Single sine
E (V)               0.0000
vs.                 Eoc
tE (h:m:s)          0:00:0.0000
record              0
dI                  0.000
unit dI             mA
dt (s)              0.000
fi                  100.000
unit fi             kHz
ff                  10.000
unit ff             mHz
Nd                  6
Points              per decade
spacing             Logarithmic
Va (mV)             5.0
pw                  0.10
Na                  2
corr                0
E range min (V)     -10.000
E range max (V)     10.000
I Range             Auto
Bandwidth           5
nc cycles           0
goto Ns'            0
nr cycles           0
inc. cycle          0

freq/Hz	Re(Z)/Ohm	-Im(Z)/Ohm	|Z|/Ohm	Phase(Z)/deg	time/s	<Ewe>/V	<I>/mA	Cs/µF	Cp/µF	cycle number	I Range	|Ewe|/V	|I|/A	Ns	(Q-Qo)/mA.h	<Ece>/V	|Ece|/V	Phase(Zce)/deg	|Zce|/Ohm	Re(Zce)/Ohm	-Im(Zce)/Ohm	Phase(Zwe-ce)/deg	|Zwe-ce|/Ohm	Re(Zwe-ce)/Ohm	-Im(Zwe-ce)/Ohm	Re(Y)/Ohm-1	Im(Y)/Ohm-1	|Y|/Ohm-1	Phase(Y)/deg	Re(C)/nF	Im(C)/nF	|C|/nF	Phase(C)/deg	Re(M)	Im(M)	|M|	Phase(M)/deg	Re(Permittivity)	Im(Permittivity)	|Permittivity|	Phase(Permittivity)/deg	Re(Resistivity)/Ohm.cm	Im(Resistivity)/Ohm.cm	|Resistivity|/Ohm.cm	Phase(Resistivity)/deg	Re(Conductivity)/mS/cm	Im(Conductivity)/mS/cm	|Conductivity|/mS/cm	Phase(Conductivity)/deg	Tan(Delta)	Loss Angle(Delta)/deg	dq/mA.h	Pwe/W	Pce/W	Pwe-ce/W	<Ewe-Ece>/V	Rwe/Ohm	Rce/Ohm	Rwe-ce/Ohm		Ewe-Ece/V
100004	1.82182	0.610658	1.92144	-18.5307	1.72656	0.243807	-0.00138627	2.60619	0.263237	1	9	0.00450756	0.00234592	0	-3.40041e-06	-6.32348e-05	3.605e-05	88.6009	0.0153671	0.000375204	-0.0153625	-18.0917	1.91697	1.8222	0.595295	0.493459	0.165403	0.520442	18.5307	263.237	785.336	828.279	-71.4693	0.0000000E+000	0.0000000E+000	0.0000000E+000	71.4693	0.0000000E+000	0.0000000E+000	0.0000000E+000	-71.4693	0.0000000E+000	0.0000000E+000	0.0000000E+000	-18.5307	0.0000000E+000	0.0000000E+000	0.0000000E+000	18.5307	2.98338	71.4693	-3.40041e-06	-3.37982e-07	8.76603e-11	-3.3807e-07	0.24387	175873	45.6151	175919
31621.1	2.3615	0.741914	2.4753	-17.4412	3.12354	0.243807	0.00200744	6.78405	0.609451	1	9	0.00537523	0.00217154	0	4.6563e-06	-5.95257e-06	1.36122e-05	-0.274207	0.00626847	0.0062684	2.99997e-05	-17.3984	2.48129	2.36777	0.741944	0.385417	0.121087	0.403991	17.4412	609.451	1939.88	2033.36	-72.5588	0.0000000E+000	0.0000000E+000	0.0000000E+000	72.5588	0.0000000E+000	0.0000000E+000	0.0000000E+000	-72.5588	0.0000000E+000	0.0000000E+000	0.0000000E+000	-17.4412	0.0000000E+000	0.0000000E+000	0.0000000E+000	17.4412	3.18299	72.5588	1.54306e-06	4.89428e-07	-1.19494e-11	4.8944e-07	0.243813	121452	2.96526	121455
10002.2	2.90269	0.872511	3.03099	-16.7301	4.02452	0.243811	0.00748957	18.237	1.51121	1	9	0.00516118	0.0017028	0	8.02015e-06	-6.32348e-05	6.58344e-06	-3.55819	0.00386624	0.00385879	0.000239948	-16.7134	3.03476	2.90655	0.872751	0.31596	0.0949733	0.329925	16.7301	1511.21	5027.54	5249.75	-73.2699	0.0000000E+000	0.0000000E+000	0.0000000E+000	73.2699	0.0000000E+000	0.0000000E+000	0.0000000E+000	-73.2699	0.0000000E+000	0.0000000E+000	0.0000000E+000	-16.7301	0.0000000E+000	0.0000000E+000	0.0000000E+000	16.7301	3.32683	73.2699	-7.4653e-07	1.82604e-06	-4.73601e-10	1.82651e-06	0.243874	32553.4	8.44304	32561.8
3163.08	3.52882	1.16569	3.71637	-18.2801	4.92362	0.243692	-0.0054886	43.1647	4.24671	1	9	0.00494069	0.00132944	0	5.39805e-06	-5.95257e-06	8.78047e-06	68.928	0.00660464	0.00237464	-0.00616298	-18.1784	3.7167	3.5312	1.15952	0.2555	0.0844001	0.26908	18.2801	4246.71	12855.9	13539.1	-71.7199	0.0000000E+000	0.0000000E+000	0.0000000E+000	71.7199	0.0000000E+000	0.0000000E+000	0.0000000E+000	-71.7199	0.0000000E+000	0.0000000E+000	0.0000000E+000	-18.2801	0.0000000E+000	0.0000000E+000	0.0000000E+000	18.2801	3.02725	71.7199	-1.71362e-06	-1.33753e-06	3.26713e-11	-1.33756e-06	0.243698	44399.7	1.08453	44400.8
1000.32	4.3871	1.73076	4.71616	-21.5298	6.52285	0.243789	-0.0150206	91.927	12.3806	1	10	0.00493124	0.00104561	0	2.16823e-06	-8.23288e-05	2.69175e-06	-35.6344	0.00257434	0.0020923	0.00149984	-21.5375	4.71866	4.38919	1.73226	0.197242	0.0778145	0.212037	21.5298	12380.6	31382	33735.9	-68.4702	0.0000000E+000	0.0000000E+000	0.0000000E+000	68.4702	0.0000000E+000	0.0000000E+000	0.0000000E+000	-68.4702	0.0000000E+000	0.0000000E+000	0.0000000E+000	-21.5298	0.0000000E+000	0.0000000E+000	0.0000000E+000	21.5298	2.53477	68.4702	-1.96759e-06	-3.66184e-06	1.23662e-09	-3.66308e-06	0.243871	16230.3	5.48108	16235.8
316.316	5.81835	2.8214	6.46633	-25.8694	7.872	0.243782	-0.0148229	178.334	33.9506	1	10	0.00486452	0.000752284	0	-4.3048e-06	3.22356e-05	6.72866e-06	-50.3783	0.00894431	0.00570392	0.00688955	-25.9022	6.47447	5.82405	2.82829	0.13915	0.0674758	0.154647	25.8694	33950.6	70013.6	77811	-64.1306	0.0000000E+000	0.0000000E+000	0.0000000E+000	64.1306	0.0000000E+000	0.0000000E+000	0.0000000E+000	-64.1306	0.0000000E+000	0.0000000E+000	0.0000000E+000	-25.8694	0.0000000E+000	0.0000000E+000	0.0000000E+000	25.8694	2.06222	64.1306	-2.09307e-06	-3.61357e-06	-4.77826e-10	-3.61309e-06	0.24375	16446.3	2.17471	16444.1
100.032	8.72831	4.04494	9.62003	-24.8643	9.21877	0.243781	-0.0127161	393.341	69.541	1	10	0.00485144	0.000504307	0	-8.94939e-06	-0.00046421	7.80645e-06	19.1236	0.0154796	0.0146253	-0.00507121	-24.8004	9.63117	8.74294	4.03987	0.0943143	0.0437079	0.10395	24.8643	69541	150058	165388	-65.1357	0.0000000E+000	0.0000000E+000	0.0000000E+000	65.1357	0.0000000E+000	0.0000000E+000	0.0000000E+000	-65.1357	0.0000000E+000	0.0000000E+000	0.0000000E+000	-24.8643	0.0000000E+000	0.0000000E+000	0.0000000E+000	24.8643	2.15783	65.1357	-1.85922e-06	-3.09995e-06	5.90295e-09	-3.10585e-06	0.244245	19171	36.5056	19207.5
31.6296	12.3253	3.56252	12.8299	-16.1214	10.5475	0.243764	-0.0194468	1412.44	108.903	1	10	0.00484159	0.000377369	0	-1.52838e-05	0.000299552	1.09668e-05	-2.024	0.0290612	0.0290431	0.00102639	-16.0899	12.8581	12.3544	3.56355	0.074878	0.0216428	0.0779431	16.1214	108903	376774	392197	-73.8786	0.0000000E+000	0.0000000E+000	0.0000000E+000	73.8786	0.0000000E+000	0.0000000E+000	0.0000000E+000	-73.8786	0.0000000E+000	0.0000000E+000	0.0000000E+000	-16.1214	0.0000000E+000	0.0000000E+000	0.0000000E+000	16.1214	3.45972	73.8786	-2.95943e-06	-4.74041e-06	-5.82532e-09	-4.73459e-06	0.243464	12534.9	15.4037	12519.5
10.0032	14.4856	2.2288	14.656	-8.74713	12.1298	0.24381	-0.0103179	7138.55	165.089	1	11	0.00484707	0.000330721	0	-2.20549e-05	-0.000254175	1.36812e-05	-103.366	0.0413677	-0.00956269	0.0402472	-8.90836	14.6528	14.476	2.26905	0.0674376	0.0103762	0.0682312	8.74713	165089	1.07296e+06	1.08559e+06	-81.2529	0.0000000E+000	0.0000000E+000	0.0000000E+000	81.2529	0.0000000E+000	0.0000000E+000	0.0000000E+000	-81.2529	0.0000000E+000	0.0000000E+000	0.0000000E+000	-8.74713	0.0000000E+000	0.0000000E+000	0.0000000E+000	8.74713	6.49927	81.2529	-1.91706e-06	-2.5156e-06	2.62255e-09	-2.51823e-06	0.244064	23629.9	24.6345	23654.5
3.1604	15.5655	1.3806	15.6266	-5.06867	13.6464	0.243808	-0.00960769	36476.3	284.722	1	11	0.00484263	0.000309898	0	-2.96216e-05	0.000165894	4.61179e-06	-46.3787	0.0148817	0.0102667	0.0107731	-5.10467	15.6377	15.5757	1.39137	0.0637434	0.00565382	0.0639936	5.06867	284721	3.21006e+06	3.22267e+06	-84.9313	0.0000000E+000	0.0000000E+000	0.0000000E+000	84.9313	0.0000000E+000	0.0000000E+000	0.0000000E+000	-84.9313	0.0000000E+000	0.0000000E+000	0.0000000E+000	-5.06867	0.0000000E+000	0.0000000E+000	0.0000000E+000	5.06867	11.2744	84.9313	-4.12427e-06	-2.34243e-06	-1.59386e-09	-2.34084e-06	0.243642	25376.3	17.2668	25359
1.00006	16.1561	1.03562	16.1893	-3.66769	19.287	0.243819	-0.00746155	153671	628.837	1	12	0.00484346	0.000299177	0	-2.6198e-05	5.13296e-05	3.73226e-06	64.1226	0.0124751	0.00544471	-0.0112242	-3.62683	16.194	16.1616	1.0244	0.0616427	0.00395135	0.0617692	3.66769	628836	9.81012e+06	9.83025e+06	-86.3323	0.0000000E+000	0.0000000E+000	0.0000000E+000	86.3323	0.0000000E+000	0.0000000E+000	0.0000000E+000	-86.3323	0.0000000E+000	0.0000000E+000	0.0000000E+000	-3.66769	0.0000000E+000	0.0000000E+000	0.0000000E+000	3.66769	15.6004	86.3323	-7.72052e-07	-1.81927e-06	-3.82998e-10	-1.81888e-06	0.243768	32676.7	6.87922	32669.8
0.316193	16.5794	1.35746	16.6349	-4.68073	33.6289	0.243832	-0.00477877	370801	2469.2	1	12	0.00484655	0.000291349	0	-9.20495e-05	-2.50466e-05	3.25555e-06	-1.7603	0.011174	0.0111688	0.000343246	-4.67877	16.646	16.5905	1.3578	0.0599142	0.00490556	0.0601147	4.68073	2.4692e+06	3.01577e+07	3.02586e+07	-85.3193	0.0000000E+000	0.0000000E+000	0.0000000E+000	85.3193	0.0000000E+000	0.0000000E+000	0.0000000E+000	-85.3193	0.0000000E+000	0.0000000E+000	0.0000000E+000	-4.68073	0.0000000E+000	0.0000000E+000	0.0000000E+000	4.68073	12.2135	85.3193	-3.42471e-05	-1.16521e-06	1.19692e-10	-1.16533e-06	0.243857	51024	5.24123	51029.2
0.0999041	17.2432	2.973	17.4976	-9.78252	78.8368	0.243823	-0.00599979	535848	15469.4	1	12	0.00484546	0.000276921	0	-0.000136078	8.95178e-05	2.389e-06	39.3982	0.00862701	0.00666656	-0.00547562	-9.76115	17.5033	17.2499	2.96753	0.0563196	0.0097104	0.0571506	9.78252	1.54694e+07	8.97215e+07	9.10454e+07	-80.2175	0.0000000E+000	0.0000000E+000	0.0000000E+000	80.2175	0.0000000E+000	0.0000000E+000	0.0000000E+000	-80.2175	0.0000000E+000	0.0000000E+000	0.0000000E+000	-9.78252	0.0000000E+000	0.0000000E+000	0.0000000E+000	9.78252	5.79993	80.2175	1.66926e-05	-1.46289e-06	-5.37088e-10	-1.46235e-06	0.243733	40638.6	14.9201	40623.6
0.0315922	19.0457	7.0078	20.294	-20.201	221.72	0.243822	-0.00185465	718884	85720.9	1	12	0.00484634	0.000238806	0	7.03183e-05	3.22356e-05	3.44511e-06	4.91922	0.0144264	0.0143732	-0.00123708	-20.1837	20.3071	19.06	7.00656	0.0462446	0.0170156	0.0492757	20.201	8.57209e+07	2.32971e+08	2.48241e+08	-69.799	0.0000000E+000	0.0000000E+000	0.0000000E+000	69.799	0.0000000E+000	0.0000000E+000	0.0000000E+000	-69.799	0.0000000E+000	0.0000000E+000	0.0000000E+000	-20.201	0.0000000E+000	0.0000000E+000	0.0000000E+000	20.201	2.71778	69.799	4.06793e-05	-4.52204e-07	-5.97856e-11	-4.52144e-07	0.24379	131465	17.381	131448
0.0100092	23.2624	16.7541	28.6678	-35.7624	672.939	0.243818	-0.00317802	949073	324158	1	12	0.00484421	0.000168978	0	-0.00123767	-2.50466e-05	1.55266e-06	-32.2005	0.00918856	0.00777525	0.00489643	-35.7612	28.6769	23.2702	16.759	0.0283052	0.0203861	0.0348824	35.7624	3.24158e+08	4.50079e+08	5.54662e+08	-54.2376	0.0000000E+000	0.0000000E+000	0.0000000E+000	54.2376	0.0000000E+000	0.0000000E+000	0.0000000E+000	-54.2376	0.0000000E+000	0.0000000E+000	0.0000000E+000	-35.7624	0.0000000E+000	0.0000000E+000	0.0000000E+000	35.7624	1.38846	54.2376	-0.000657638	-7.74857e-07	7.95986e-11	-7.74937e-07	0.243843	76720.1	7.88121	76728