File: txt/19003_R309_UA708_SOC00_C02.mpt
EC-Lab ASCII FILE
Nb header lines : 66

Potentio Electrochemical Impedance Spectroscopy

Run on channel : 2 (SN 66139)
Grouped channel(s) : 2, 3, 4, 5, 6
User :
CE vs. WE compliance from -10 V to 10 V
Electrode connection : standard
Potential control : Ewe
Ewe ctrl range : min = -10.00 V, max = 10.00 V
Safety Limits :
	Do not start on E overload
Acquisition started on : 11/04/2025 16:08:38.802
Loaded Setting File :  C:\Users\Celltest\OneDrive - store-dot.com\Documents\EC-Lab\Data\@Biologic Test Protocols\anode half cell EIS SOC00.mps
Saved on :
	File : 19003_R309_UA708_SOC00_C02.mpr
	Directory : C:\Users\Celltest\OneDrive - store-dot.com\Documents\EC-Lab\Data\Charmaine\
	Host : 169.254.61.224
Device : VMP-3e (SN .003165)
Address : USB
EC-LAB for windows v11.62 (software)
Internet server v27.00 (firmware)
Command interpretor v12.03 (firmware)
Electrode material :
Initial state :
Electrolyte :
Comments :
Electrode surface area : 0.001 cm²
Characteristic mass : 0.001 g
Equivalent Weight : 0.000 g/eq.
Density : 0.000 g/cm3
Volume (V) : 0.001 cm³
Record Ece
Cycle Definition : Charge/Discharge alternance
Mode                Single sine
E (V)               0.0000
vs.                 Eoc
tE (h:m:s)          0:00:0.0000
record              0
dI                  0.000
unit dI             mA
dt (s)              0.000
fi                  100.000
unit fi             kHz
ff                  10.000
unit ff             mHz
Nd                  6
Points              per decade
spacing             Logarithmic
Va (mV)             5.0
pw                  0.10
Na                  2
corr                0
E range min (V)     -10.000
E range max (V)     10.000
I Range             Auto
Bandwidth           5
nc cycles           0
goto Ns'            0
nr cycles           0
inc. cycle          0

freq/Hz	Re(Z)/Ohm	-Im(Z)/Ohm	|Z|/Ohm	Phase(Z)/deg	time/s	<Ewe>/V	<I>/mA	Cs/µF	Cp/µF	cycle number	I Range	|Ewe|/V	|I|/A	Ns	(Q-Qo)/mA.h	<Ece>/V	|Ece|/V	Phase(Zce)/deg	|Zce|/Ohm	Re(Zce)/Ohm	-Im(Zce)/Ohm	Phase(Zwe-ce)/deg	|Zwe-ce|/Ohm	Re(Zwe-ce)/Ohm	-Im(Zwe-ce)/Ohm	Re(Y)/Ohm-1	Im(Y)/Ohm-1	|Y|/Ohm-1	Phase(Y)/deg	Re(C)/nF	Im(C)/nF	|C|/nF	Phase(C)/deg	Re(M)	Im(M)	|M|	Phase(M)/deg	Re(Permittivity)	Im(Permittivity)	|Permittivity|	Phase(Permittivity)/deg	Re(Resistivity)/Ohm.cm	Im(Resistivity)/Ohm.cm	|Resistivity|/Ohm.cm	Phase(Resistivity)/deg	Re(Conductivity)/mS/cm	Im(Conductivity)/mS/cm	|Conductivity|/mS/cm	Phase(Conductivity)/deg	Tan(Delta)	Loss Angle(Delta)/deg	dq/mA.h	Pwe/W	Pce/W	Pwe-ce/W	<Ewe-Ece>/V	Rwe/Ohm	Rce/Ohm	Rwe-ce/Ohm		Ewe-Ece/V
100004	1.96544	0.686037	2.08173	-19.2416	1.86755	0.250425	-0.0379885	2.31983	0.251943	1	9	0.00497053	0.00238769	0	-8.75617e-06	-1.72211e-05	2.32527e-05	77.3634	0.00973856	0.00213048	-0.00950266	-18.9752	2.08063	1.96757	0.676535	0.453535	0.158307	0.48037	19.2416	251.943	721.797	764.504	-70.7584	0.0000000E+000	0.0000000E+000	0.0000000E+000	70.7584	0.0000000E+000	0.0000000E+000	0.0000000E+000	-70.7584	0.0000000E+000	0.0000000E+000	0.0000000E+000	-19.2416	0.0000000E+000	0.0000000E+000	0.0000000E+000	19.2416	2.86492	70.7584	-8.75617e-06	-9.51327e-06	6.54203e-10	-9.51392e-06	0.250442	6592.11	0.453322	6592.56
31621.1	2.58773	0.866131	2.72883	-18.5057	3.14254	0.250387	-0.0550472	5.81111	0.585426	1	9	0.00541081	0.00198283	0	-1.48223e-05	-0.000131766	1.19048e-05	-4.22786	0.00600395	0.00598761	0.00044263	-18.4747	2.73465	2.59372	0.866573	0.347508	0.116313	0.366457	18.5057	585.426	1749.07	1844.44	-71.4943	0.0000000E+000	0.0000000E+000	0.0000000E+000	71.4943	0.0000000E+000	0.0000000E+000	0.0000000E+000	-71.4943	0.0000000E+000	0.0000000E+000	0.0000000E+000	-18.5057	0.0000000E+000	0.0000000E+000	0.0000000E+000	18.5057	2.98769	71.4943	-2.30456e-06	-1.37831e-05	7.25336e-09	-1.37904e-05	0.250519	4548.6	2.39369	4550.99
10002.2	3.21043	1.00723	3.36472	-17.4186	4.16756	0.250428	-0.00320089	15.7977	1.41565	1	9	0.0053755	0.00159761	0	-2.76039e-05	-7.44936e-05	9.06141e-06	-145.459	0.00567187	-0.00467201	0.00321596	-17.4948	3.36123	3.20575	1.01045	0.283573	0.0889675	0.297201	17.4186	1415.65	4512.19	4729.05	-72.5814	0.0000000E+000	0.0000000E+000	0.0000000E+000	72.5814	0.0000000E+000	0.0000000E+000	0.0000000E+000	-72.5814	0.0000000E+000	0.0000000E+000	0.0000000E+000	-17.4186	0.0000000E+000	0.0000000E+000	0.0000000E+000	17.4186	3.18737	72.5814	-2.22434e-06	-8.01593e-07	2.38445e-10	-8.01831e-07	0.250503	78237.2	23.2728	78260.5
3163.08	3.95623	1.33072	4.17404	-18.5909	5.27767	0.250373	-0.0339141	37.8114	3.84313	1	10	0.00537042	0.00128662	0	-3.62245e-05	0.000192778	5.15465e-06	-14.7949	0.00400634	0.00387351	0.00102306	-18.5873	4.17804	3.9601	1.33175	0.227075	0.0763792	0.239576	18.5909	3843.13	11425.6	12054.6	-71.4091	0.0000000E+000	0.0000000E+000	0.0000000E+000	71.4091	0.0000000E+000	0.0000000E+000	0.0000000E+000	-71.4091	0.0000000E+000	0.0000000E+000	0.0000000E+000	-18.5909	0.0000000E+000	0.0000000E+000	0.0000000E+000	18.5909	2.97299	71.4091	-3.9449e-06	-8.49118e-06	-6.5379e-09	-8.48464e-06	0.25018	7382.56	5.68431	7376.88
1000.32	4.96067	1.94402	5.32799	-21.3995	6.62982	0.250381	-0.0269778	81.8429	10.8957	1	10	0.0052497	0.000985307	0	-4.67329e-05	0.000250051	5.1598e-06	21.2184	0.00523674	0.00488173	-0.0018953	-21.3614	5.33184	4.96555	1.94212	0.174749	0.0684816	0.187688	21.3995	10895.7	27803.2	29861.9	-68.6005	0.0000000E+000	0.0000000E+000	0.0000000E+000	68.6005	0.0000000E+000	0.0000000E+000	0.0000000E+000	-68.6005	0.0000000E+000	0.0000000E+000	0.0000000E+000	-21.3995	0.0000000E+000	0.0000000E+000	0.0000000E+000	21.3995	2.55176	68.6005	-4.1249e-06	-6.75473e-06	-6.74581e-09	-6.74798e-06	0.250131	9281.02	9.26877	9271.75
316.316	6.55125	3.09324	7.24479	-25.2748	7.97908	0.250374	-0.0267021	162.662	29.6525	1	10	0.00518094	0.000715126	0	-5.62784e-05	-1.72211e-05	6.08999e-06	-12.554	0.00851596	0.00831236	0.00185102	-25.26	7.2531	6.55956	3.09509	0.124817	0.0589335	0.13803	25.2748	29652.5	62801.7	69450.1	-64.7252	0.0000000E+000	0.0000000E+000	0.0000000E+000	64.7252	0.0000000E+000	0.0000000E+000	0.0000000E+000	-64.7252	0.0000000E+000	0.0000000E+000	0.0000000E+000	-25.2748	0.0000000E+000	0.0000000E+000	0.0000000E+000	25.2748	2.11792	64.7252	-3.7755e-06	-6.68551e-06	4.59839e-10	-6.68597e-06	0.250391	9376.54	0.644932	9377.19
100.032	9.69081	4.39911	10.6426	-24.4155	9.32677	0.250364	-0.025674	361.673	61.7951	1	10	0.00516336	0.000485161	0	-6.56136e-05	9.7324e-05	9.19811e-06	-131.157	0.0189589	-0.0124772	0.0142744	-24.5133	10.6371	9.67833	4.41339	0.0855595	0.0388395	0.0939624	24.4155	61795.1	136129	149498	-65.5845	0.0000000E+000	0.0000000E+000	0.0000000E+000	65.5845	0.0000000E+000	0.0000000E+000	0.0000000E+000	-65.5845	0.0000000E+000	0.0000000E+000	0.0000000E+000	-24.4155	0.0000000E+000	0.0000000E+000	0.0000000E+000	24.4155	2.2029	65.5845	-3.57916e-06	-6.42784e-06	-2.49869e-09	-6.42534e-06	0.250267	9751.67	3.79077	9747.88
31.6296	13.6851	3.89262	14.2279	-15.878	10.6555	0.250364	-0.027626	1292.66	96.7577	1	10	0.00515829	0.000362547	0	-7.56327e-05	0.000440959	7.83271e-06	23.5186	0.0216047	0.01981	-0.0086213	-15.8229	14.2446	13.7049	3.884	0.0676027	0.0192291	0.0702843	15.878	96757.7	340166	353659	-74.122	0.0000000E+000	0.0000000E+000	0.0000000E+000	74.122	0.0000000E+000	0.0000000E+000	0.0000000E+000	-74.122	0.0000000E+000	0.0000000E+000	0.0000000E+000	-15.878	0.0000000E+000	0.0000000E+000	0.0000000E+000	15.878	3.51565	74.122	-3.86186e-06	-6.91656e-06	-1.21819e-08	-6.90438e-06	0.249923	9062.63	15.9618	9046.67
10.0032	16.0082	2.37068	16.1828	-8.42383	12.2368	0.250418	-0.0158902	6711.31	144.029	1	11	0.00515888	0.000318789	0	-8.56892e-05	7.82332e-05	6.88304e-06	18.6197	0.0215913	0.0204611	-0.00689377	-8.38911	16.202	16.0286	2.36379	0.0611275	0.0090525	0.0617941	8.42383	144029	972563	983170	-81.5762	0.0000000E+000	0.0000000E+000	0.0000000E+000	81.5762	0.0000000E+000	0.0000000E+000	0.0000000E+000	-81.5762	0.0000000E+000	0.0000000E+000	0.0000000E+000	-8.42383	0.0000000E+000	0.0000000E+000	0.0000000E+000	8.42383	6.75255	81.5762	-1.45222e-06	-3.97918e-06	-1.24314e-09	-3.97794e-06	0.25034	15759.3	4.92337	15754.4
3.1604	17.0586	1.37312	17.1138	-4.60207	13.7534	0.250417	-0.0148175	36674.9	236.1	1	11	0.00515566	0.000301258	0	-9.49915e-05	0.000192778	5.18503e-06	49.196	0.0172113	0.0112471	-0.0130281	-4.5556	17.1239	17.0698	1.36009	0.0582441	0.00468832	0.0584325	4.60207	236100	2.93312e+06	2.94261e+06	-85.3979	0.0000000E+000	0.0000000E+000	0.0000000E+000	85.3979	0.0000000E+000	0.0000000E+000	0.0000000E+000	-85.3979	0.0000000E+000	0.0000000E+000	0.0000000E+000	-4.60207	0.0000000E+000	0.0000000E+000	0.0000000E+000	4.60207	12.4232	85.3979	-3.33636e-06	-3.71055e-06	-2.85649e-09	-3.70769e-06	0.250224	16900.1	13.0102	16887.1
1.00006	17.6373	1.02094	17.6668	-3.31287	19.3909	0.250417	-0.0130123	155881	520.564	1	12	0.0051579	0.000291954	0	-0.000103241	-0.000150857	2.12892e-06	-41.4874	0.00729196	0.00546242	0.0048306	-3.32749	17.6725	17.6427	1.02577	0.0565087	0.00327101	0.0566033	3.31287	520564	8.99307e+06	9.00812e+06	-86.6871	0.0000000E+000	0.0000000E+000	0.0000000E+000	86.6871	0.0000000E+000	0.0000000E+000	0.0000000E+000	-86.6871	0.0000000E+000	0.0000000E+000	0.0000000E+000	-3.31287	0.0000000E+000	0.0000000E+000	0.0000000E+000	3.31287	17.2756	86.6871	-9.17593e-06	-3.25849e-06	1.96299e-09	-3.26045e-06	0.250568	19244.7	11.5935	19256.3
0.316193	18.0582	1.33035	18.1071	-4.21337	33.733	0.250418	-0.00853461	378358	2042.37	1	12	0.00515881	0.000284906	0	-0.000184959	-5.54027e-05	2.94631e-06	-0.479968	0.0103414	0.010341	8.66288e-05	-4.21124	18.1174	18.0685	1.33043	0.0550777	0.00405758	0.055227	4.21337	2.04237e+06	2.77232e+07	2.77983e+07	-85.7866	0.0000000E+000	0.0000000E+000	0.0000000E+000	85.7866	0.0000000E+000	0.0000000E+000	0.0000000E+000	-85.7866	0.0000000E+000	0.0000000E+000	0.0000000E+000	-4.21337	0.0000000E+000	0.0000000E+000	0.0000000E+000	4.21337	13.574	85.7866	-3.53234e-05	-2.13722e-06	4.72841e-10	-2.13769e-06	0.250473	29341.4	6.49154	29347.9
0.0999041	18.7208	2.92041	18.9472	-8.86658	78.9422	0.25042	-0.00637124	545497	12959.6	1	12	0.00515834	0.000272248	0	-0.000204343	-9.35844e-05	2.56643e-06	-23.671	0.00942684	0.00863372	0.00378472	-8.87386	18.9563	18.7294	2.9242	0.0521475	0.00813492	0.0527782	8.86658	1.29595e+07	8.3075e+07	8.40797e+07	-81.1334	0.0000000E+000	0.0000000E+000	0.0000000E+000	81.1334	0.0000000E+000	0.0000000E+000	0.0000000E+000	-81.1334	0.0000000E+000	0.0000000E+000	0.0000000E+000	-8.86658	0.0000000E+000	0.0000000E+000	0.0000000E+000	8.86658	6.41033	81.1334	3.25552e-05	-1.59549e-06	5.96249e-10	-1.59608e-06	0.250513	39304.7	14.6886	39319.4
0.0315922	20.4672	7.01034	21.6345	-18.9071	221.826	0.250416	-0.00186468	718623	75454.7	1	12	0.00515852	0.00023844	0	-0.000139337	9.7324e-05	2.43258e-06	2.85908	0.0102021	0.0101894	-0.000508877	-18.8971	21.644	20.4774	7.00983	0.0437286	0.0149777	0.0462225	18.9071	7.54547e+07	2.20295e+08	2.32859e+08	-71.0928	0.0000000E+000	0.0000000E+000	0.0000000E+000	71.0928	0.0000000E+000	0.0000000E+000	0.0000000E+000	-71.0928	0.0000000E+000	0.0000000E+000	0.0000000E+000	-18.9071	0.0000000E+000	0.0000000E+000	0.0000000E+000	18.9071	2.91957	71.0928	-5.41541e-05	-4.66947e-07	-1.81478e-10	-4.66765e-07	0.250319	134294	52.1934	134242
0.0146812	22.7363	12.4317	25.913	-28.669	462.866	0.250406	-0.00261823	872022	200703	1	12	0.00515977	0.000199119	0	-0.000941615	0.000116415	1.25741e-06	-14.1186	0.00631486	0.0061241	0.00154038	-28.6655	25.9192	22.7424	12.4333	0.0338596	0.0185138	0.0385906	28.669	2.00703e+08	3.67064e+08	4.18351e+08	-61.331	0.0000000E+000	0.0000000E+000	0.0000000E+000	61.331	0.0000000E+000	0.0000000E+000	0.0000000E+000	-61.331	0.0000000E+000	0.0000000E+000	0.0000000E+000	-28.669	0.0000000E+000	0.0000000E+000	0.0000000E+000	28.669	1.82889	61.331	-0.00051684	-6.55623e-07	-3.04801e-10	-6.55318e-07	0.25029	95639.4	44.4631	95595

0.0100092	24.9894	16.782	30.1016	-33.8839	673.049	0.250402	-0.00318409	947500	294501	1	12	0.00515827	0.000171362	0	-0.0014914	0.000250051	2.42383e-06	64.9893	0.0141445	0.00598011	-0.0128181	-33.8573	30.0994	24.9954	16.7691	0.0275789	0.018521	0.0332209	33.8839	2.94501e+08	4.3853e+08	5.28242e+08	-56.1161	0.0000000E+000	0.0000000E+000	0.0000000E+000	56.1161	0.0000000E+000	0.0000000E+000	0.0000000E+000	-56.1161	0.0000000E+000	0.0000000E+000	0.0000000E+000	-33.8839	0.0000000E+000	0.0000000E+000	0.0000000E+000	33.8839	1.48906	56.1161	-0.000549783	-7.97302e-07	-7.96184e-10	-7.96506e-07	0.250152	78641.7	78.5314	78563.1