File: txt/19008_R308_UA709_SOC00_C07.mpt
EC-Lab ASCII FILE
Nb header lines : 66

Potentio Electrochemical Impedance Spectroscopy

Run on channel : 7 (SN 66126)
Grouped channel(s) : 7, 8
User :
CE vs. WE compliance from -10 V to 10 V
Electrode connection : standard
Potential control : Ewe
Ewe ctrl range : min = -10.00 V, max = 10.00 V
Safety Limits :
	Do not start on E overload
Acquisition started on : 11/04/2025 16:09:03.172
Technique started on : 11/04/2025 16:09:04.899
Loaded Setting File :  C:\Users\Celltest\OneDrive - store-dot.com\Documents\EC-Lab\Data\@Biologic Test Protocols\anode half cell EIS SOC00.mps
Saved on :
	File : 19008_R308_UA709_SOC00_C07.mpr
	Directory : C:\Users\Celltest\OneDrive - store-dot.com\Documents\EC-Lab\Data\Charmaine\
	Host : 169.254.61.224
Device : VMP-3e (SN .003165)
Address : USB
EC-LAB for windows v11.62 (software)
Internet server v27.00 (firmware)
Command interpretor v12.03 (firmware)
Electrode material :
Initial state :
Electrolyte :
Comments :
Electrode surface area : 0.001 cm²
Characteristic mass : 0.001 g
Equivalent Weight : 0.000 g/eq.
Density : 0.000 g/cm3
Volume (V) : 0.001 cm³
Record Ece
Cycle Definition : Charge/Discharge alternance
Mode                Single sine
E (V)               0.0000
vs.                 Eoc
tE (h:m:s)          0:00:0.0000
record              0
dI                  0.000
unit dI             mA
dt (s)              0.000
fi                  100.000
unit fi             kHz
ff                  10.000
unit ff             mHz
Nd                  6
Points              per decade
spacing             Logarithmic
Va (mV)             5.0
pw                  0.10
Na                  2
corr                0
E range min (V)     -10.000
E range max (V)     10.000
I Range             Auto
Bandwidth           5
nc cycles           0
goto Ns'            0
nr cycles           0
inc. cycle          0

freq/Hz	Re(Z)/Ohm	-Im(Z)/Ohm	|Z|/Ohm	Phase(Z)/deg	time/s	<Ewe>/V	<I>/mA	Cs/µF	Cp/µF	cycle number	I Range	|Ewe|/V	|I|/A	Ns	(Q-Qo)/mA.h	<Ece>/V	|Ece|/V	Phase(Zce)/deg	|Zce|/Ohm	Re(Zce)/Ohm	-Im(Zce)/Ohm	Phase(Zwe-ce)/deg	|Zwe-ce|/Ohm	Re(Zwe-ce)/Ohm	-Im(Zwe-ce)/Ohm	Re(Y)/Ohm-1	Im(Y)/Ohm-1	|Y|/Ohm-1	Phase(Y)/deg	Re(C)/nF	Im(C)/nF	|C|/nF	Phase(C)/deg	Re(M)	Im(M)	|M|	Phase(M)/deg	Re(Permittivity)	Im(Permittivity)	|Permittivity|	Phase(Permittivity)/deg	Re(Resistivity)/Ohm.cm	Im(Resistivity)/Ohm.cm	|Resistivity|/Ohm.cm	Phase(Resistivity)/deg	Re(Conductivity)/mS/cm	Im(Conductivity)/mS/cm	|Conductivity|/mS/cm	Phase(Conductivity)/deg	Tan(Delta)	Loss Angle(Delta)/deg	dq/mA.h	Pwe/W	Pce/W	Pwe-ce/W	<Ewe-Ece>/V	Rwe/Ohm	Rce/Ohm	Rwe-ce/Ohm		Ewe-Ece/V
100004	2.24823	0.943762	2.43828	-22.7717	1.72654	0.241651	0.0215297	1.68633	0.252638	1	9	0.00453374	0.0018594	0	2.46373e-06	-5.38653e-05	3.91912e-05	59.4699	0.0210773	0.0107071	-0.0181552	-22.2816	2.44121	2.25893	0.925607	0.378158	0.158743	0.410125	22.7717	252.638	601.834	652.71	-67.2283	0.0000000E+000	0.0000000E+000	0.0000000E+000	67.2283	0.0000000E+000	0.0000000E+000	0.0000000E+000	-67.2283	0.0000000E+000	0.0000000E+000	0.0000000E+000	-22.7717	0.0000000E+000	0.0000000E+000	0.0000000E+000	22.7717	2.3822	67.2283	2.46373e-06	5.20269e-06	-1.15971e-09	5.20385e-06	0.241705	11224.1	2.5019	11226.6
31621.1	3.1626	1.26484	3.40615	-21.7982	3.00152	0.241692	0.0539251	3.97931	0.548719	1	9	0.00532583	0.00156359	0	1.73428e-05	-0.000301846	1.29803e-05	36.8136	0.00830159	0.00664616	-0.00497443	-21.6792	3.41048	3.16925	1.25986	0.272594	0.10902	0.293587	21.7982	548.719	1372.02	1477.68	-68.2018	0.0000000E+000	0.0000000E+000	0.0000000E+000	68.2018	0.0000000E+000	0.0000000E+000	0.0000000E+000	-68.2018	0.0000000E+000	0.0000000E+000	0.0000000E+000	-21.7982	0.0000000E+000	0.0000000E+000	0.0000000E+000	21.7982	2.5004	68.2018	5.40651e-06	1.30333e-05	-1.62771e-08	1.30496e-05	0.241994	4482	5.5975	4487.6
10002.2	4.18699	1.34084	4.39645	-17.7572	4.43157	0.241688	-0.0071246	11.8671	1.10382	1	10	0.0048984	0.00111417	0	3.28391e-05	-0.000187393	5.27732e-06	36.8152	0.00473654	0.00379194	-0.0028383	-17.7069	4.39919	4.19078	1.338	0.21662	0.0693704	0.227456	17.7572	1103.82	3446.84	3619.28	-72.2428	0.0000000E+000	0.0000000E+000	0.0000000E+000	72.2428	0.0000000E+000	0.0000000E+000	0.0000000E+000	-72.2428	0.0000000E+000	0.0000000E+000	0.0000000E+000	-17.7572	0.0000000E+000	0.0000000E+000	0.0000000E+000	17.7572	3.12266	72.2428	1.23444e-06	-1.72193e-06	1.3351e-09	-1.72326e-06	0.241875	33923	26.3023	33949.3
3163.08	5.0925	1.47592	5.30207	-16.1628	5.45461	0.24164	-0.0119158	34.0915	2.6417	1	10	0.00512802	0.000967174	0	2.941e-05	-7.29407e-05	4.64412e-06	-46.9095	0.00480174	0.00328032	0.00350659	-16.1893	5.30619	5.09578	1.47943	0.181151	0.0525017	0.188606	16.1628	2641.7	9114.88	9489.97	-73.8372	0.0000000E+000	0.0000000E+000	0.0000000E+000	73.8372	0.0000000E+000	0.0000000E+000	0.0000000E+000	-73.8372	0.0000000E+000	0.0000000E+000	0.0000000E+000	-16.1628	0.0000000E+000	0.0000000E+000	0.0000000E+000	16.1628	3.45038	73.8372	-1.63793e-06	-2.87933e-06	8.69147e-10	-2.8802e-06	0.241713	20279	6.12135	20285.1
1000.32	6.08208	2.05342	6.41936	-18.6556	6.80882	0.241632	-0.00684913	77.4824	7.92821	1	10	0.0050599	0.000788224	0	2.6414e-05	-0.000473525	7.22164e-06	-38.708	0.00916191	0.00714943	0.00572942	-18.6836	6.42797	6.08923	2.05915	0.147594	0.0498303	0.155779	18.6556	7928.21	23482.8	24785	-71.3444	0.0000000E+000	0.0000000E+000	0.0000000E+000	71.3444	0.0000000E+000	0.0000000E+000	0.0000000E+000	-71.3444	0.0000000E+000	0.0000000E+000	0.0000000E+000	-18.6556	0.0000000E+000	0.0000000E+000	0.0000000E+000	18.6556	2.96193	71.3444	-1.27184e-07	-1.65497e-06	3.24323e-09	-1.65821e-06	0.242105	35279.2	69.1365	35348.3
316.316	7.75229	3.42174	8.47386	-23.8159	8.15909	0.241638	-0.00740755	147.046	23.9764	1	10	0.00500035	0.000590091	0	2.33665e-05	-5.38653e-05	1.12933e-05	-40.7134	0.0191382	0.0145064	0.0124834	-23.8535	8.49218	7.7668	3.43423	0.107961	0.0476524	0.11801	23.8159	23976.4	54320.8	59376.9	-66.1841	0.0000000E+000	0.0000000E+000	0.0000000E+000	66.1841	0.0000000E+000	0.0000000E+000	0.0000000E+000	-66.1841	0.0000000E+000	0.0000000E+000	0.0000000E+000	-23.8159	0.0000000E+000	0.0000000E+000	0.0000000E+000	23.8159	2.2656	66.1841	-1.11236e-06	-1.78994e-06	3.9901e-10	-1.79034e-06	0.241691	32620.5	7.27168	32627.7
100.032	11.3803	4.9193	12.398	-23.3771	9.50584	0.241627	-0.00697944	323.428	50.9191	1	10	0.0049845	0.00040204	0	2.1266e-05	-7.29407e-05	7.49872e-06	32.4707	0.0186516	0.0157358	-0.0100135	-23.3059	12.4085	11.396	4.90929	0.0740371	0.0320037	0.0806581	23.3771	50919.1	117796	128330	-66.6229	0.0000000E+000	0.0000000E+000	0.0000000E+000	66.6229	0.0000000E+000	0.0000000E+000	0.0000000E+000	-66.6229	0.0000000E+000	0.0000000E+000	0.0000000E+000	-23.3771	0.0000000E+000	0.0000000E+000	0.0000000E+000	23.3771	2.3134	66.6229	-9.83939e-07	-1.68642e-06	5.09085e-10	-1.68693e-06	0.2417	34619.9	10.4508	34630.3
31.6296	15.7055	4.07575	16.2257	-14.548	10.8346	0.241623	-0.00930616	1234.58	77.8978	1	10	0.00497582	0.000306662	0	1.78212e-05	-0.000301846	6.21052e-06	-147.828	0.020252	-0.0171424	0.0107834	-14.6001	16.2119	15.6884	4.08653	0.0596545	0.015481	0.0616305	14.548	77897.9	300172	310115	-75.452	0.0000000E+000	0.0000000E+000	0.0000000E+000	75.452	0.0000000E+000	0.0000000E+000	0.0000000E+000	-75.452	0.0000000E+000	0.0000000E+000	0.0000000E+000	-14.548	0.0000000E+000	0.0000000E+000	0.0000000E+000	14.548	3.8534	75.452	-1.72195e-06	-2.24858e-06	2.80903e-09	-2.25139e-06	0.241925	25963.8	32.435	25996.2
10.0032	18.0265	2.2371	18.1648	-7.07427	12.3988	0.24167	-0.00647399	7112.06	107.871	1	11	0.00498975	0.000274693	0	1.50734e-05	-0.0004926	1.09823e-05	4.07347	0.0399801	0.0398791	-0.00284001	-7.04994	18.204	18.0664	2.23426	0.0546324	0.00677991	0.0550515	7.07427	107871	869223	875891	-82.9257	0.0000000E+000	0.0000000E+000	0.0000000E+000	82.9257	0.0000000E+000	0.0000000E+000	0.0000000E+000	-82.9257	0.0000000E+000	0.0000000E+000	0.0000000E+000	-7.07427	0.0000000E+000	0.0000000E+000	0.0000000E+000	7.07427	8.05798	82.9257	1.44582e-06	-1.56457e-06	3.18909e-09	-1.56775e-06	0.242162	37329.3	76.0891	37405.4
3.1604	18.8257	1.20246	18.864	-3.65471	13.9154	0.241676	-0.00540405	41880.2	170.169	1	11	0.004974	0.000263677	0	1.40697e-05	-0.000168318	8.295e-06	-114.72	0.031459	-0.0131558	0.0285761	-3.74393	18.8527	18.8125	1.23103	0.0529032	0.0033791	0.053011	3.65471	170169	2.66416e+06	2.66959e+06	-86.3453	0.0000000E+000	0.0000000E+000	0.0000000E+000	86.3453	0.0000000E+000	0.0000000E+000	0.0000000E+000	-86.3453	0.0000000E+000	0.0000000E+000	0.0000000E+000	-3.65471	0.0000000E+000	0.0000000E+000	0.0000000E+000	3.65471	15.656	86.3453	2.59857e-06	-1.30603e-06	9.09597e-10	-1.30694e-06	0.241845	44721.4	31.1466	44752.5
1.00006	19.2679	0.925456	19.2901	-2.74986	19.5539	0.241676	-0.00345018	171964	395.803	1	12	0.00497544	0.000257927	0	-1.28629e-06	-0.000301846	2.13118e-06	-9.72799	0.00826272	0.00814391	0.00139616	-2.75284	19.2983	19.276	0.926852	0.0517804	0.00248706	0.0518401	2.74986	395803	8.24058e+06	8.25008e+06	-87.2501	0.0000000E+000	0.0000000E+000	0.0000000E+000	87.2501	0.0000000E+000	0.0000000E+000	0.0000000E+000	-87.2501	0.0000000E+000	0.0000000E+000	0.0000000E+000	-2.74986	0.0000000E+000	0.0000000E+000	0.0000000E+000	2.74986	20.8199	87.2501	-1.17835e-05	-8.33826e-07	1.04142e-09	-8.34868e-07	0.241978	70047.5	87.487	70135
0.316193	19.6619	1.39098	19.7111	-4.04664	33.8969	0.241672	-0.00529752	361865	1802.05	1	12	0.0049779	0.000252543	0	-1.29358e-05	-0.000206469	2.49912e-06	-24.4921	0.0098958	0.00900536	0.00410248	-4.05668	19.7204	19.6709	1.39508	0.0506064	0.00358014	0.0507329	4.04664	1.80205e+06	2.54726e+07	2.55363e+07	-85.9534	0.0000000E+000	0.0000000E+000	0.0000000E+000	85.9534	0.0000000E+000	0.0000000E+000	0.0000000E+000	-85.9534	0.0000000E+000	0.0000000E+000	0.0000000E+000	-4.04664	0.0000000E+000	0.0000000E+000	0.0000000E+000	4.04664	14.1353	85.9534	5.41025e-06	-1.28026e-06	1.09377e-09	-1.28136e-06	0.241879	45619.9	38.9746	45658.9
0.0999041	20.4184	3.00542	20.6384	-8.37334	79.1049	0.241686	-0.000596804	530069	11240.6	1	12	0.0049829	0.000241439	0	5.57028e-05	-0.000225544	3.11808e-06	3.17367	0.0129146	0.0128948	-0.000714986	-8.36616	20.651	20.4313	3.0047	0.0479369	0.00705591	0.0484534	8.37334	1.12406e+07	7.63672e+07	7.719e+07	-81.6267	0.0000000E+000	0.0000000E+000	0.0000000E+000	81.6267	0.0000000E+000	0.0000000E+000	0.0000000E+000	-81.6267	0.0000000E+000	0.0000000E+000	0.0000000E+000	-8.37334	0.0000000E+000	0.0000000E+000	0.0000000E+000	8.37334	6.79386	81.6267	1.84259e-05	-1.44239e-07	1.34606e-10	-1.44374e-07	0.241911	404966	377.92	405344
0.0315922	21.9975	7.201	23.1461	-18.1261	221.989	0.241686	-0.00196709	699596	67713.6	1	12	0.00497652	0.000215004	0	-0.000328248	6.05872e-05	2.18636e-06	11.8019	0.0101689	0.00995393	-0.00207983	-18.1136	23.155	22.0074	7.19892	0.0410597	0.0134411	0.0432037	18.1261	6.77136e+07	2.0685e+08	2.17651e+08	-71.8739	0.0000000E+000	0.0000000E+000	0.0000000E+000	71.8739	0.0000000E+000	0.0000000E+000	0.0000000E+000	-71.8739	0.0000000E+000	0.0000000E+000	0.0000000E+000	-18.1261	0.0000000E+000	0.0000000E+000	0.0000000E+000	18.1261	3.05478	71.8739	-0.000233533	-4.75417e-07	-1.1918e-10	-4.75297e-07	0.241625	122865	30.8005	122834
0.0100092	26.5459	17.9268	32.0321	-34.0317	673.213	0.241679	-0.00314683	886992	277814	1	12	0.00497701	0.000155376	0	-0.000519072	-0.00028277	2.19794e-06	1.6564	0.014146	0.01414	-0.000408899	-34.0169	32.0436	26.56	17.9264	0.0258718	0.0174716	0.0312187	34.0317	2.77814e+08	4.11386e+08	4.96406e+08	-55.9683	0.0000000E+000	0.0000000E+000	0.0000000E+000	55.9683	0.0000000E+000	0.0000000E+000	0.0000000E+000	-55.9683	0.0000000E+000	0.0000000E+000	0.0000000E+000	-34.0317	0.0000000E+000	0.0000000E+000	0.0000000E+000	34.0317	1.48079	55.9683	0.000166127	-7.60523e-07	8.8983e-10	-7.61412e-07	0.241962	76800.8	89.8588	76890.7