File: txt/19006_R309_UA708_SOC00_C05.mpt
EC-Lab ASCII FILE
Nb header lines : 65

Potentio Electrochemical Impedance Spectroscopy

Run on channel : 5 (SN 65912)
Grouped channel(s) : 2, 3, 4, 5, 6
User :
CE vs. WE compliance from -10 V to 10 V
Electrode connection : standard
Potential control : Ewe
Ewe ctrl range : min = -10.00 V, max = 10.00 V
Safety Limits :
	Do not start on E overload
Acquisition started on : 11/04/2025 16:08:38.802
Loaded Setting File :  C:\Users\Celltest\OneDrive - store-dot.com\Documents\EC-Lab\Data\@Biologic Test Protocols\anode half cell EIS SOC00.mps
Saved on :
	File : 19003_R309_UA708_SOC00_C05.mpr
	Directory : C:\Users\Celltest\OneDrive - store-dot.com\Documents\EC-Lab\Data\Charmaine\
	Host : 169.254.61.224
Device : VMP-3e (SN .003165)
Address : USB
EC-LAB for windows v11.62 (software)
Internet server v27.00 (firmware)
Command interpretor v12.03 (firmware)
Electrode material :
Initial state :
Electrolyte :
Comments :
Electrode surface area : 0.001 cm²
Characteristic mass : 0.001 g
Equivalent Weight : 0.000 g/eq.
Density : 0.000 g/cm3
Volume (V) : 0.001 cm³
Record Ece
Cycle Definition : Charge/Discharge alternance
Mode                Single sine
E (V)               0.0000
vs.                 Eoc
tE (h:m:s)          0:00:0.0000
record              0
dI                  0.000
unit dI             mA
dt (s)              0.000
fi                  100.000
unit fi             kHz
ff                  10.000
unit ff             mHz
Nd                  6
Points              per decade
spacing             Logarithmic
Va (mV)             5.0
pw                  0.10
Na                  2
corr                0
E range min (V)     -10.000
E range max (V)     10.000
I Range             Auto
Bandwidth           5
nc cycles           0
goto Ns'            0
nr cycles           0
inc. cycle          0

freq/Hz	Re(Z)/Ohm	-Im(Z)/Ohm	|Z|/Ohm	Phase(Z)/deg	time/s	<Ewe>/V	<I>/mA	Cs/µF	Cp/µF	cycle number	I Range	|Ewe|/V	|I|/A	Ns	(Q-Qo)/mA.h	<Ece>/V	|Ece|/V	Phase(Zce)/deg	|Zce|/Ohm	Re(Zce)/Ohm	-Im(Zce)/Ohm	Phase(Zwe-ce)/deg	|Zwe-ce|/Ohm	Re(Zwe-ce)/Ohm	-Im(Zwe-ce)/Ohm	Re(Y)/Ohm-1	Im(Y)/Ohm-1	|Y|/Ohm-1	Phase(Y)/deg	Re(C)/nF	Im(C)/nF	|C|/nF	Phase(C)/deg	Re(M)	Im(M)	|M|	Phase(M)/deg	Re(Permittivity)	Im(Permittivity)	|Permittivity|	Phase(Permittivity)/deg	Re(Resistivity)/Ohm.cm	Im(Resistivity)/Ohm.cm	|Resistivity|/Ohm.cm	Phase(Resistivity)/deg	Re(Conductivity)/mS/cm	Im(Conductivity)/mS/cm	|Conductivity|/mS/cm	Phase(Conductivity)/deg	Tan(Delta)	Loss Angle(Delta)/deg	dq/mA.h	Pwe/W	Pce/W	Pwe-ce/W	<Ewe-Ece>/V	Rwe/Ohm	Rce/Ohm	Rwe-ce/Ohm		Ewe-Ece/V
100004	1.57377	0.561232	1.67085	-19.6271	1.72651	0.243032	-0.00188351	2.83571	0.319943	1	9	0.00450587	0.00269676	0	-4.46644e-06	0.000101297	2.9608e-05	94.5571	0.0109791	-0.000872317	-0.0109444	-19.2827	1.66638	1.5729	0.550288	0.563725	0.201034	0.598498	19.6271	319.943	897.163	952.504	-70.3729	0.0000000E+000	0.0000000E+000	0.0000000E+000	70.3729	0.0000000E+000	0.0000000E+000	0.0000000E+000	-70.3729	0.0000000E+000	0.0000000E+000	0.0000000E+000	-19.6271	0.0000000E+000	0.0000000E+000	0.0000000E+000	19.6271	2.80413	70.3729	-4.46644e-06	-4.57754e-07	-1.90793e-10	-4.57563e-07	0.242931	129031	53.7808	128978
31621.1	2.09319	0.728148	2.21622	-19.181	3.24956	0.242983	-0.0231475	6.9123	0.746168	1	9	0.00497844	0.00224637	0	-2.163e-05	0.000215844	1.17633e-05	-24.9606	0.00523659	0.00474748	0.00220982	-19.1946	2.22143	2.09793	0.730358	0.42617	0.14825	0.451219	19.181	746.168	2144.99	2271.07	-70.819	0.0000000E+000	0.0000000E+000	0.0000000E+000	70.819	0.0000000E+000	0.0000000E+000	0.0000000E+000	-70.819	0.0000000E+000	0.0000000E+000	0.0000000E+000	-19.181	0.0000000E+000	0.0000000E+000	0.0000000E+000	19.181	2.87467	70.819	-8.16912e-06	-5.62443e-06	-4.99624e-09	-5.61944e-06	0.242767	10497.2	9.32474	10487.8
10002.2	2.65279	0.842458	2.78335	-17.6185	4.15256	0.242983	-0.0251584	18.8875	1.73037	1	9	0.00458663	0.00164788	0	-2.79378e-05	0.000368574	9.13824e-06	-59.8629	0.00554544	0.0027842	0.00479584	-17.6952	2.78745	2.65557	0.847254	0.342427	0.108746	0.35928	17.6185	1730.37	5448.68	5716.84	-72.3815	0.0000000E+000	0.0000000E+000	0.0000000E+000	72.3815	0.0000000E+000	0.0000000E+000	0.0000000E+000	-72.3815	0.0000000E+000	0.0000000E+000	0.0000000E+000	-17.6185	0.0000000E+000	0.0000000E+000	0.0000000E+000	17.6185	3.14886	72.3815	-3.10722e-06	-6.11306e-06	-9.27273e-09	-6.10379e-06	0.242614	9658.11	14.6501	9643.46
3163.08	3.25992	1.11904	3.44664	-18.9458	5.17561	0.242821	-0.0475395	44.9641	4.73982	1	9	0.00482573	0.00140012	0	-4.16132e-05	5.8406e-06	1.13631e-05	-127.184	0.00811575	-0.00490501	0.00646578	-19.0741	3.44411	3.25502	1.1255	0.27442	0.0942002	0.290138	18.9458	4739.82	13807.8	14598.7	-71.0542	0.0000000E+000	0.0000000E+000	0.0000000E+000	71.0542	0.0000000E+000	0.0000000E+000	0.0000000E+000	-71.0542	0.0000000E+000	0.0000000E+000	0.0000000E+000	-18.9458	0.0000000E+000	0.0000000E+000	0.0000000E+000	18.9458	2.91315	71.0542	-4.33535e-06	-1.15436e-05	-2.7766e-10	-1.15433e-05	0.242815	5107.76	0.122858	5107.64
1000.32	4.03422	1.70358	4.37917	-22.8934	6.77485	0.24294	-0.0213745	93.3939	14.1338	1	10	0.004841	0.00110546	0	-4.69677e-05	0.000254026	7.89821e-06	-47.2049	0.00714472	0.00485397	0.00524271	-22.9319	4.38568	4.03908	1.70882	0.210366	0.0888338	0.228354	22.8934	14133.8	33470.1	36332	-67.1066	0.0000000E+000	0.0000000E+000	0.0000000E+000	67.1066	0.0000000E+000	0.0000000E+000	0.0000000E+000	-67.1066	0.0000000E+000	0.0000000E+000	0.0000000E+000	-22.8934	0.0000000E+000	0.0000000E+000	0.0000000E+000	22.8934	2.36809	67.1066	-2.90119e-06	-5.19272e-06	-5.42969e-09	-5.18729e-06	0.242686	11365.9	11.8846	11354
316.316	5.44148	2.91209	6.17171	-28.1542	8.12409	0.242949	-0.0196878	172.78	38.4675	1	10	0.00478475	0.000775271	0	-5.37503e-05	-0.000242345	4.67358e-06	63.674	0.00602832	0.00267343	-0.00540309	-28.0982	6.17152	5.44415	2.90669	0.142859	0.076453	0.16203	28.1542	38467.5	71879.5	81525.5	-61.8458	0.0000000E+000	0.0000000E+000	0.0000000E+000	61.8458	0.0000000E+000	0.0000000E+000	0.0000000E+000	-61.8458	0.0000000E+000	0.0000000E+000	0.0000000E+000	-28.1542	0.0000000E+000	0.0000000E+000	0.0000000E+000	28.1542	1.86858	61.8458	-2.68305e-06	-4.78314e-06	4.77125e-09	-4.78791e-06	0.243192	12340.1	12.3094	12352.4
100.032	8.52401	4.27782	9.53722	-26.65	9.47077	0.24294	-0.021058	371.927	74.8273	1	10	0.00476361	0.000499476	0	-6.21583e-05	0.000387665	4.77597e-06	69.356	0.00956197	0.00337118	-0.00894799	-26.5929	9.53623	8.52739	4.26888	0.0937131	0.0470304	0.104852	26.65	74827.3	149101	166824	-63.35	0.0000000E+000	0.0000000E+000	0.0000000E+000	63.35	0.0000000E+000	0.0000000E+000	0.0000000E+000	-63.35	0.0000000E+000	0.0000000E+000	0.0000000E+000	-26.65	0.0000000E+000	0.0000000E+000	0.0000000E+000	26.65	1.99261	63.35	-1.81539e-06	-5.11583e-06	-8.16346e-09	-5.10767e-06	0.242552	11536.7	18.4094	11518.3
31.6296	12.3737	3.6355	12.8967	-16.3732	10.7986	0.242919	-0.0263862	1384.09	109.984	1	10	0.00475802	0.000368932	0	-6.97189e-05	0.000196753	6.7529e-06	-45.3654	0.0183039	0.01286	0.0130251	-16.4126	12.9128	12.3866	3.64852	0.0743945	0.0218577	0.077539	16.3732	109984	374341	390164	-73.6268	0.0000000E+000	0.0000000E+000	0.0000000E+000	73.6268	0.0000000E+000	0.0000000E+000	0.0000000E+000	-73.6268	0.0000000E+000	0.0000000E+000	0.0000000E+000	-16.3732	0.0000000E+000	0.0000000E+000	0.0000000E+000	16.3732	3.40358	73.6268	-2.68253e-06	-6.40972e-06	-5.19157e-09	-6.40453e-06	0.242722	9206.28	7.45664	9198.82
10.0032	14.452	2.12471	14.6074	-8.3636	12.3808	0.242984	-0.0113243	7488.28	158.429	1	11	0.00474702	0.000324974	0	-7.539e-05	8.22055e-05	9.8377e-06	28.929	0.0302722	0.0264949	-0.0146434	-8.29177	14.6315	14.4785	2.11007	0.0677305	0.0099576	0.0684586	8.3636	158429	1.07762e+06	1.0892e+06	-81.6364	0.0000000E+000	0.0000000E+000	0.0000000E+000	81.6364	0.0000000E+000	0.0000000E+000	0.0000000E+000	-81.6364	0.0000000E+000	0.0000000E+000	0.0000000E+000	-8.3636	0.0000000E+000	0.0000000E+000	0.0000000E+000	8.3636	6.80189	81.6364	-3.15166e-06	-2.75163e-06	-9.30921e-10	-2.7507e-06	0.242902	21456.8	7.25919	21449.6
3.1604	15.4107	1.25892	15.4621	-4.67018	13.8985	0.242978	-0.00940744	40001.9	265.18	1	11	0.00475835	0.000307743	0	-7.75787e-05	4.4023e-05	3.9085e-06	-60.0536	0.0127005	0.00633996	0.0110049	-4.7089	15.4693	15.4171	1.26992	0.0644597	0.00526578	0.0646744	4.67018	265180	3.24613e+06	3.25695e+06	-85.3298	0.0000000E+000	0.0000000E+000	0.0000000E+000	85.3298	0.0000000E+000	0.0000000E+000	0.0000000E+000	-85.3298	0.0000000E+000	0.0000000E+000	0.0000000E+000	-4.67018	0.0000000E+000	0.0000000E+000	0.0000000E+000	4.67018	12.2412	85.3298	-3.44648e-06	-2.2858e-06	-4.14144e-10	-2.28539e-06	0.242934	25828.3	4.6796	25823.6
1.00006	15.9203	0.938508	15.948	-3.3737	18.4908	0.242985	-0.00926646	169572	587.245	1	11	0.00476065	0.000298511	0	-9.56489e-05	0.000234935	1.80087e-06	-16.9282	0.00603286	0.00577145	0.00175661	-3.37877	15.9538	15.9261	0.940265	0.0625952	0.00369	0.0627039	3.3737	587244	9.9617e+06	9.97899e+06	-86.6263	0.0000000E+000	0.0000000E+000	0.0000000E+000	86.6263	0.0000000E+000	0.0000000E+000	0.0000000E+000	-86.6263	0.0000000E+000	0.0000000E+000	0.0000000E+000	-3.3737	0.0000000E+000	0.0000000E+000	0.0000000E+000	3.3737	16.9635	86.6263	-2.79977e-06	-2.25161e-06	-2.17702e-09	-2.24943e-06	0.24275	26222	25.3533	26196.6
0.316193	16.2922	1.24223	16.3395	-4.36018	34.3472	0.242982	-0.00440556	405198	2342.03	1	12	0.00475879	0.000291245	0	-8.38405e-05	0.000120388	2.18364e-06	-17.6197	0.00749762	0.00714588	0.00226951	-4.36621	16.3468	16.2993	1.24449	0.0610244	0.00465291	0.0612015	4.36018	2.34203e+06	3.07164e+07	3.08056e+07	-85.6398	0.0000000E+000	0.0000000E+000	0.0000000E+000	85.6398	0.0000000E+000	0.0000000E+000	0.0000000E+000	-85.6398	0.0000000E+000	0.0000000E+000	0.0000000E+000	-4.36018	0.0000000E+000	0.0000000E+000	0.0000000E+000	4.36018	13.1153	85.6398	2.88422e-06	-1.07047e-06	-5.30376e-10	-1.06994e-06	0.242862	55153.6	27.3264	55126.3
0.0999041	16.8638	2.68834	17.0767	-9.05758	79.5552	0.242984	-0.00253789	592588	14686.3	1	12	0.00476134	0.00027882	0	-0.000245037	8.22055e-05	2.66501e-06	19.8346	0.00955818	0.00899115	-0.00324315	-9.04209	17.0851	16.8728	2.68509	0.057829	0.0092188	0.0585592	9.05758	1.46863e+07	9.21261e+07	9.32894e+07	-80.9424	0.0000000E+000	0.0000000E+000	0.0000000E+000	80.9424	0.0000000E+000	0.0000000E+000	0.0000000E+000	-80.9424	0.0000000E+000	0.0000000E+000	0.0000000E+000	-9.05758	0.0000000E+000	0.0000000E+000	0.0000000E+000	9.05758	6.27294	80.9424	-9.29987e-05	-6.16669e-07	-2.08629e-10	-6.1646e-07	0.242902	95742.5	32.3912	95710.1
0.0315922	18.3294	6.71404	19.5204	-20.1177	222.438	0.24298	-0.00384441	750337	88766.3	1	12	0.00475857	0.000243775	0	-0.000409579	-0.000280528	2.24031e-06	12.0345	0.00919007	0.00898809	-0.00191613	-20.1034	19.5281	18.3384	6.71213	0.048103	0.0176201	0.0512285	20.1177	8.87663e+07	2.42333e+08	2.58079e+08	-69.8822	0.0000000E+000	0.0000000E+000	0.0000000E+000	69.8822	0.0000000E+000	0.0000000E+000	0.0000000E+000	-69.8822	0.0000000E+000	0.0000000E+000	0.0000000E+000	-20.1177	0.0000000E+000	0.0000000E+000	0.0000000E+000	20.1177	2.73001	69.8822	4.02568e-05	-9.34114e-07	1.07846e-09	-9.35192e-07	0.24326	63203.5	72.9703	63276.5
0.0100092	22.6967	16.3457	27.97	-35.7606	673.66	0.24298	-0.00239744	972790	332230	1	12	0.00475905	0.000170148	0	9.54131e-05	0.000406756	2.75554e-06	14.934	0.0161949	0.0156479	-0.00417354	-35.7349	27.9803	22.7124	16.3415	0.029012	0.0208938	0.0357526	35.7606	3.3223e+08	4.61317e+08	5.68498e+08	-54.2394	0.0000000E+000	0.0000000E+000	0.0000000E+000	54.2394	0.0000000E+000	0.0000000E+000	0.0000000E+000	-54.2394	0.0000000E+000	0.0000000E+000	0.0000000E+000	-35.7606	0.0000000E+000	0.0000000E+000	0.0000000E+000	35.7606	1.38855	54.2394	2.44221e-05	-5.82529e-07	-9.75174e-10	-5.81554e-07	0.242573	101350	169.663	101180