File: txt/19007_R309_UA708_SOC00_C06.mpt
EC-Lab ASCII FILE
Nb header lines : 65

Potentio Electrochemical Impedance Spectroscopy

Run on channel : 6 (SN 65795)
Grouped channel(s) : 2, 3, 4, 5, 6
User :
CE vs. WE compliance from -10 V to 10 V
Electrode connection : standard
Potential control : Ewe
Ewe ctrl range : min = -10.00 V, max = 10.00 V
Safety Limits :
	Do not start on E overload
Acquisition started on : 11/04/2025 16:08:38.802
Loaded Setting File :  C:\Users\Celltest\OneDrive - store-dot.com\Documents\EC-Lab\Data\@Biologic Test Protocols\anode half cell EIS SOC00.mps
Saved on :
	File : 19003_R309_UA708_SOC00_C06.mpr
	Directory : C:\Users\Celltest\OneDrive - store-dot.com\Documents\EC-Lab\Data\Charmaine\
	Host : 169.254.61.224
Device : VMP-3e (SN .003165)
Address : USB
EC-LAB for windows v11.62 (software)
Internet server v27.00 (firmware)
Command interpretor v12.03 (firmware)
Electrode material :
Initial state :
Electrolyte :
Comments :
Electrode surface area : 0.001 cm²
Characteristic mass : 0.001 g
Equivalent Weight : 0.000 g/eq.
Density : 0.000 g/cm3
Volume (V) : 0.001 cm³
Record Ece
Cycle Definition : Charge/Discharge alternance
Mode                Single sine
E (V)               0.0000
vs.                 Eoc
tE (h:m:s)          0:00:0.0000
record              0
dI                  0.000
unit dI             mA
dt (s)              0.000
fi                  100.000
unit fi             kHz
ff                  10.000
unit ff             mHz
Nd                  6
Points              per decade
spacing             Logarithmic
Va (mV)             5.0
pw                  0.10
Na                  2
corr                0
E range min (V)     -10.000
E range max (V)     10.000
I Range             Auto
Bandwidth           5
nc cycles           0
goto Ns'            0
nr cycles           0
inc. cycle          0

freq/Hz	Re(Z)/Ohm	-Im(Z)/Ohm	|Z|/Ohm	Phase(Z)/deg	time/s	<Ewe>/V	<I>/mA	Cs/µF	Cp/µF	cycle number	I Range	|Ewe|/V	|I|/A	Ns	(Q-Qo)/mA.h	<Ece>/V	|Ece|/V	Phase(Zce)/deg	|Zce|/Ohm	Re(Zce)/Ohm	-Im(Zce)/Ohm	Phase(Zwe-ce)/deg	|Zwe-ce|/Ohm	Re(Zwe-ce)/Ohm	-Im(Zwe-ce)/Ohm	Re(Y)/Ohm-1	Im(Y)/Ohm-1	|Y|/Ohm-1	Phase(Y)/deg	Re(C)/nF	Im(C)/nF	|C|/nF	Phase(C)/deg	Re(M)	Im(M)	|M|	Phase(M)/deg	Re(Permittivity)	Im(Permittivity)	|Permittivity|	Phase(Permittivity)/deg	Re(Resistivity)/Ohm.cm	Im(Resistivity)/Ohm.cm	|Resistivity|/Ohm.cm	Phase(Resistivity)/deg	Re(Conductivity)/mS/cm	Im(Conductivity)/mS/cm	|Conductivity|/mS/cm	Phase(Conductivity)/deg	Tan(Delta)	Loss Angle(Delta)/deg	dq/mA.h	Pwe/W	Pce/W	Pwe-ce/W	<Ewe-Ece>/V	Rwe/Ohm	Rce/Ohm	Rwe-ce/Ohm		Ewe-Ece/V
100004	1.52266	0.537672	1.6148	-19.4488	1.86754	0.23659	-0.00134781	2.95996	0.328159	1	9	0.00493774	0.0030578	0	-7.40933e-06	8.26222e-05	4.42632e-05	69.337	0.0144755	0.00510799	-0.0135443	-18.9355	1.61517	1.52777	0.524128	0.583935	0.206196	0.619271	19.4488	328.159	929.327	985.565	-70.5512	0.0000000E+000	0.0000000E+000	0.0000000E+000	70.5512	0.0000000E+000	0.0000000E+000	0.0000000E+000	-70.5512	0.0000000E+000	0.0000000E+000	0.0000000E+000	-19.4488	0.0000000E+000	0.0000000E+000	0.0000000E+000	19.4488	2.83195	70.5512	-7.40933e-06	-3.18878e-07	-1.11359e-10	-3.18766e-07	0.236507	175536	61.3011	175475
31621.1	2.03398	0.718186	2.15705	-19.4479	3.01653	0.236528	-0.0251505	7.00819	0.776892	1	9	0.00541337	0.00250962	0	-7.64479e-06	0.000139916	1.35069e-05	1.96286	0.00538204	0.00537888	-0.000184344	-19.3958	2.16206	2.03935	0.718001	0.437146	0.154354	0.463597	19.4479	776.892	2200.24	2333.37	-70.5521	0.0000000E+000	0.0000000E+000	0.0000000E+000	70.5521	0.0000000E+000	0.0000000E+000	0.0000000E+000	-70.5521	0.0000000E+000	0.0000000E+000	0.0000000E+000	-19.4479	0.0000000E+000	0.0000000E+000	0.0000000E+000	19.4479	2.8321	70.5521	-2.17236e-06	-5.94881e-06	-3.51897e-09	-5.94529e-06	0.236388	9404.49	5.56315	9398.92
10002.2	2.58206	0.84009	2.71528	-18.0227	4.16655	0.236608	0.0480456	18.9408	1.81309	1	9	0.00523316	0.0019273	0	-4.49212e-06	0.000216308	9.80257e-06	-8.15365	0.00508617	0.00503476	0.000721363	-18.0043	2.72029	2.58709	0.840812	0.350215	0.113945	0.368286	18.0227	1813.09	5572.61	5860.15	-71.9773	0.0000000E+000	0.0000000E+000	0.0000000E+000	71.9773	0.0000000E+000	0.0000000E+000	0.0000000E+000	-71.9773	0.0000000E+000	0.0000000E+000	0.0000000E+000	-18.0227	0.0000000E+000	0.0000000E+000	0.0000000E+000	18.0227	3.07355	71.9773	6.66898e-07	1.1368e-05	1.03927e-08	1.13576e-05	0.236392	4924.67	4.50215	4920.16
3163.08	3.16625	1.11571	3.35707	-19.4112	5.18661	0.236492	-0.0110701	45.0982	4.98125	1	9	0.00528407	0.00157401	0	-6.32233e-06	-7.01621e-05	5.68179e-06	164.302	0.00360975	-0.0034751	-0.000976708	-19.4152	3.35347	3.16277	1.11473	0.280946	0.0989985	0.297878	19.4112	4981.26	14136.2	14988.2	-70.5888	0.0000000E+000	0.0000000E+000	0.0000000E+000	70.5888	0.0000000E+000	0.0000000E+000	0.0000000E+000	-70.5888	0.0000000E+000	0.0000000E+000	0.0000000E+000	-19.4112	0.0000000E+000	0.0000000E+000	0.0000000E+000	19.4112	2.83788	70.5888	-1.94093e-06	-2.61799e-06	7.76701e-10	-2.61876e-06	0.236562	21363.1	6.33799	21369.5
1000.32	3.97582	1.7021	4.32485	-23.1763	6.78685	0.236527	-0.0202098	93.4753	14.4785	1	10	0.00522047	0.00120709	0	-1.22706e-05	8.26222e-05	7.22998e-06	-134.49	0.0059896	-0.00419744	0.00427279	-23.2503	4.32267	3.97163	1.70637	0.212562	0.0910003	0.231222	23.1763	14478.5	33819.5	36788.4	-66.8237	0.0000000E+000	0.0000000E+000	0.0000000E+000	66.8237	0.0000000E+000	0.0000000E+000	0.0000000E+000	-66.8237	0.0000000E+000	0.0000000E+000	0.0000000E+000	-23.1763	0.0000000E+000	0.0000000E+000	0.0000000E+000	23.1763	2.33584	66.8237	-1.59064e-06	-4.78017e-06	-1.66978e-09	-4.7785e-06	0.236445	11703.6	4.08823	11699.5
316.316	5.36491	2.92978	6.11277	-28.6389	8.13608	0.236522	-0.0198558	171.737	39.451	1	10	0.00510055	0.00083441	0	-2.01512e-05	0.00010172	4.28447e-06	-4.15662	0.00513472	0.00512122	0.00037218	-28.619	6.11744	5.37004	2.93015	0.143578	0.0784078	0.163592	28.6389	39451	72241.4	82311.7	-61.3611	0.0000000E+000	0.0000000E+000	0.0000000E+000	61.3611	0.0000000E+000	0.0000000E+000	0.0000000E+000	-61.3611	0.0000000E+000	0.0000000E+000	0.0000000E+000	-28.6389	0.0000000E+000	0.0000000E+000	0.0000000E+000	28.6389	1.83117	61.3611	-1.90816e-06	-4.69632e-06	-2.01973e-09	-4.6943e-06	0.23642	11912	5.12296	11906.9
100.032	8.50707	4.2941	9.5294	-26.7832	9.48382	0.236519	-0.0195502	370.518	75.2354	1	10	0.00506475	0.000531486	0	-2.644e-05	-0.00018475	9.62246e-06	111.486	0.0181048	-0.00663138	-0.0168466	-26.7106	9.5159	8.50044	4.27725	0.0936804	0.0472869	0.104938	26.7832	75235.4	149049	166961	-63.2168	0.0000000E+000	0.0000000E+000	0.0000000E+000	63.2168	0.0000000E+000	0.0000000E+000	0.0000000E+000	-63.2168	0.0000000E+000	0.0000000E+000	0.0000000E+000	-26.7832	0.0000000E+000	0.0000000E+000	0.0000000E+000	26.7832	1.98111	63.2168	-2.29816e-06	-4.62399e-06	3.61191e-09	-4.6276e-06	0.236704	12098	9.45005	12107.5
31.6296	12.3542	3.65065	12.8823	-16.4623	10.8125	0.2365	-0.0198521	1378.34	110.69	1	10	0.00505562	0.000392446	0	-3.24417e-05	-0.000108358	6.68837e-06	-155.282	0.0170428	-0.0154812	0.00712658	-16.5123	12.8695	12.3388	3.65778	0.0744435	0.0219979	0.0776257	16.4623	110690	374588	390600	-73.5377	0.0000000E+000	0.0000000E+000	0.0000000E+000	73.5377	0.0000000E+000	0.0000000E+000	0.0000000E+000	-73.5377	0.0000000E+000	0.0000000E+000	0.0000000E+000	-16.4623	0.0000000E+000	0.0000000E+000	0.0000000E+000	16.4623	3.38412	73.5377	-1.47586e-06	-4.695e-06	2.15113e-09	-4.69715e-06	0.236608	11913.1	5.45829	11918.6
10.0032	14.4066	2.13721	14.5642	-8.43827	12.3938	0.236544	-0.0140365	7444.47	160.307	1	11	0.00505198	0.000346876	0	-3.86321e-05	0.000235406	7.88527e-06	-4.607	0.0227323	0.0226588	0.00182587	-8.43231	14.5869	14.4292	2.13904	0.0679181	0.0100756	0.0686614	8.43827	160307	1.0806e+06	1.09243e+06	-81.5617	0.0000000E+000	0.0000000E+000	0.0000000E+000	81.5617	0.0000000E+000	0.0000000E+000	0.0000000E+000	-81.5617	0.0000000E+000	0.0000000E+000	0.0000000E+000	-8.43827	0.0000000E+000	0.0000000E+000	0.0000000E+000	8.43827	6.74083	81.5617	-8.80018e-08	-3.32025e-06	-3.30428e-09	-3.31694e-06	0.236309	16852.1	16.7711	16835.3
3.1604	15.3986	1.32211	15.4552	-4.90732	13.9104	0.236544	-0.0128376	38090.1	278.737	1	11	0.00505529	0.000327092	0	-4.0854e-05	0.000349995	2.47734e-06	11.7665	0.00757382	0.00741467	-0.00154448	-4.89927	15.4625	15.406	1.32056	0.0644659	0.00553497	0.064703	4.90732	278736	3.24645e+06	3.25839e+06	-85.0927	0.0000000E+000	0.0000000E+000	0.0000000E+000	85.0927	0.0000000E+000	0.0000000E+000	0.0000000E+000	-85.0927	0.0000000E+000	0.0000000E+000	0.0000000E+000	-4.90732	0.0000000E+000	0.0000000E+000	0.0000000E+000	4.90732	11.647	85.0927	1.17096e-06	-3.03667e-06	-4.49311e-09	-3.03218e-06	0.236194	18425.8	27.2632	18398.6
1.00006	16.0405	1.02697	16.0733	-3.66329	19.5509	0.236547	-0.00958303	154966	632.615	1	12	0.00506101	0.000314871	0	-7.36586e-05	0.000139916	3.59865e-06	-44.9802	0.011429	0.00808431	0.00807873	-3.69017	16.0819	16.0485	1.03505	0.0620879	0.00397509	0.062215	3.66329	632615	9.88096e+06	9.90119e+06	-86.3367	0.0000000E+000	0.0000000E+000	0.0000000E+000	86.3367	0.0000000E+000	0.0000000E+000	0.0000000E+000	-86.3367	0.0000000E+000	0.0000000E+000	0.0000000E+000	-3.66329	0.0000000E+000	0.0000000E+000	0.0000000E+000	3.66329	15.6192	86.3367	-1.74798e-05	-2.26684e-06	-1.34082e-09	-2.2655e-06	0.236407	24683.9	14.6004	24669.3
0.316193	16.4281	1.30867	16.4802	-4.55457	33.8939	0.236545	-0.00903794	384626	2425.34	1	12	0.00505889	0.000306968	0	-7.13654e-05	0.000139916	9.084e-07	-45.6138	0.00295926	0.00206998	0.00211481	-4.56133	16.4824	16.4302	1.31078	0.0604874	0.00481843	0.060679	4.55457	2.42534e+06	3.04462e+07	3.05426e+07	-85.4454	0.0000000E+000	0.0000000E+000	0.0000000E+000	85.4454	0.0000000E+000	0.0000000E+000	0.0000000E+000	-85.4454	0.0000000E+000	0.0000000E+000	0.0000000E+000	-4.55457	0.0000000E+000	0.0000000E+000	0.0000000E+000	4.55457	12.5533	85.4454	1.10515e-05	-2.13788e-06	-1.26455e-09	-2.13662e-06	0.236405	26172.5	15.481	26157
0.0999041	17.068	2.79429	17.2952	-9.2977	79.1017	0.236535	-0.00134976	570120	14881.8	1	12	0.00506436	0.000292819	0	-9.43379e-05	0.000273603	1.71467e-06	-12.167	0.00585572	0.00572419	0.00123416	-9.29867	17.3011	17.0737	2.79552	0.0570599	0.00934156	0.0578195	9.2977	1.48818e+07	9.09008e+07	9.21109e+07	-80.7023	0.0000000E+000	0.0000000E+000	0.0000000E+000	80.7023	0.0000000E+000	0.0000000E+000	0.0000000E+000	-80.7023	0.0000000E+000	0.0000000E+000	0.0000000E+000	-9.2977	0.0000000E+000	0.0000000E+000	0.0000000E+000	9.2977	6.10817	80.7023	-3.99328e-05	-3.19264e-07	-3.69297e-10	-3.18895e-07	0.236261	175242	202.705	175040
0.0315922	18.5958	6.67184	19.7564	-19.7371	221.985	0.236532	-0.00363611	755083	86113.2	1	12	0.00505599	0.000255916	0	-0.000631608	0.000311799	1.82269e-06	-1.7162	0.00712223	0.00711903	0.000213303	-19.7307	19.7632	18.6029	6.67205	0.0476429	0.0170934	0.0506165	19.7371	8.61132e+07	2.40015e+08	2.54995e+08	-70.2629	0.0000000E+000	0.0000000E+000	0.0000000E+000	70.2629	0.0000000E+000	0.0000000E+000	0.0000000E+000	-70.2629	0.0000000E+000	0.0000000E+000	0.0000000E+000	-19.7371	0.0000000E+000	0.0000000E+000	0.0000000E+000	19.7371	2.7872	70.2629	-0.000227959	-8.60057e-07	-1.13373e-09	-8.58923e-07	0.23622	65050.8	85.7506	64965.1
0.0100092	22.5861	16.485	27.9623	-36.1247	673.206	0.236523	-0.00323547	964568	335248	1	12	0.00505458	0.000180764	0	-0.000178336	0.00010172	1.9727e-06	44.3544	0.0109131	0.0078032	-0.00762929	-36.1026	27.9641	22.5939	16.4774	0.0288866	0.0210836	0.0357625	36.1247	3.35248e+08	4.59324e+08	5.68656e+08	-53.8753	0.0000000E+000	0.0000000E+000	0.0000000E+000	53.8753	0.0000000E+000	0.0000000E+000	0.0000000E+000	-53.8753	0.0000000E+000	0.0000000E+000	0.0000000E+000	-36.1247	0.0000000E+000	0.0000000E+000	0.0000000E+000	36.1247	1.3701	53.8753	0.000365745	-7.65262e-07	-3.29112e-10	-7.64933e-07	0.236421	73103.1	31.4391	73071.7