File: txt/19004_R309_UA708_SOC00_C03.mpt
EC-Lab ASCII FILE
Nb header lines : 65

Potentio Electrochemical Impedance Spectroscopy

Run on channel : 3 (SN 65921)
Grouped channel(s) : 2, 3, 4, 5, 6
User :
CE vs. WE compliance from -10 V to 10 V
Electrode connection : standard
Potential control : Ewe
Ewe ctrl range : min = -10.00 V, max = 10.00 V
Safety Limits :
	Do not start on E overload
Acquisition started on : 11/04/2025 16:08:38.802
Loaded Setting File :  C:\Users\Celltest\OneDrive - store-dot.com\Documents\EC-Lab\Data\@Biologic Test Protocols\anode half cell EIS SOC00.mps
Saved on :
	File : 19003_R309_UA708_SOC00_C03.mpr
	Directory : C:\Users\Celltest\OneDrive - store-dot.com\Documents\EC-Lab\Data\Charmaine\
	Host : 169.254.61.224
Device : VMP-3e (SN .003165)
Address : USB
EC-LAB for windows v11.62 (software)
Internet server v27.00 (firmware)
Command interpretor v12.03 (firmware)
Electrode material :
Initial state :
Electrolyte :
Comments :
Electrode surface area : 0.001 cm²
Characteristic mass : 0.001 g
Equivalent Weight : 0.000 g/eq.
Density : 0.000 g/cm3
Volume (V) : 0.001 cm³
Record Ece
Cycle Definition : Charge/Discharge alternance
Mode                Single sine
E (V)               0.0000
vs.                 Eoc
tE (h:m:s)          0:00:0.0000
record              0
dI                  0.000
unit dI             mA
dt (s)              0.000
fi                  100.000
unit fi             kHz
ff                  10.000
unit ff             mHz
Nd                  6
Points              per decade
spacing             Logarithmic
Va (mV)             5.0
pw                  0.10
Na                  2
corr                0
E range min (V)     -10.000
E range max (V)     10.000
I Range             Auto
Bandwidth           5
nc cycles           0
goto Ns'            0
nr cycles           0
inc. cycle          0

freq/Hz	Re(Z)/Ohm	-Im(Z)/Ohm	|Z|/Ohm	Phase(Z)/deg	time/s	<Ewe>/V	<I>/mA	Cs/µF	Cp/µF	cycle number	I Range	|Ewe|/V	|I|/A	Ns	(Q-Qo)/mA.h	<Ece>/V	|Ece|/V	Phase(Zce)/deg	|Zce|/Ohm	Re(Zce)/Ohm	-Im(Zce)/Ohm	Phase(Zwe-ce)/deg	|Zwe-ce|/Ohm	Re(Zwe-ce)/Ohm	-Im(Zwe-ce)/Ohm	Re(Y)/Ohm-1	Im(Y)/Ohm-1	|Y|/Ohm-1	Phase(Y)/deg	Re(C)/nF	Im(C)/nF	|C|/nF	Phase(C)/deg	Re(M)	Im(M)	|M|	Phase(M)/deg	Re(Permittivity)	Im(Permittivity)	|Permittivity|	Phase(Permittivity)/deg	Re(Resistivity)/Ohm.cm	Im(Resistivity)/Ohm.cm	|Resistivity|/Ohm.cm	Phase(Resistivity)/deg	Re(Conductivity)/mS/cm	Im(Conductivity)/mS/cm	|Conductivity|/mS/cm	Phase(Conductivity)/deg	Tan(Delta)	Loss Angle(Delta)/deg	dq/mA.h	Pwe/W	Pce/W	Pwe-ce/W	<Ewe-Ece>/V	Rwe/Ohm	Rce/Ohm	Rwe-ce/Ohm		Ewe-Ece/V
100004	1.84133	0.689765	1.96628	-20.5361	1.86852	0.249894	-0.0463623	2.30729	0.283932	1	9	0.00493873	0.00251171	0	-9.19406e-06	7.2142e-05	3.361e-05	63.6667	0.0133813	0.00593584	-0.0119927	-20.1484	1.96768	1.84726	0.677773	0.476255	0.178406	0.508574	20.5361	283.932	757.955	809.391	-69.4639	0.0000000E+000	0.0000000E+000	0.0000000E+000	69.4639	0.0000000E+000	0.0000000E+000	0.0000000E+000	-69.4639	0.0000000E+000	0.0000000E+000	0.0000000E+000	-20.5361	0.0000000E+000	0.0000000E+000	0.0000000E+000	20.5361	2.6695	69.4639	-9.19406e-06	-1.15857e-05	-3.34467e-09	-1.15823e-05	0.249822	5390.02	1.55605	5388.47
31621.1	2.47645	0.869251	2.62458	-19.3414	3.01752	0.249974	0.0543303	5.79025	0.635141	1	9	0.00539356	0.00205502	0	-1.35618e-05	-2.33283e-05	1.37973e-05	116.887	0.00671396	-0.00303631	-0.00598816	-19.2399	2.61973	2.47341	0.863263	0.35951	0.126191	0.381014	19.3414	635.14	1809.48	1917.71	-70.6586	0.0000000E+000	0.0000000E+000	0.0000000E+000	70.6586	0.0000000E+000	0.0000000E+000	0.0000000E+000	-70.6586	0.0000000E+000	0.0000000E+000	0.0000000E+000	-19.3414	0.0000000E+000	0.0000000E+000	0.0000000E+000	19.3414	2.84894	70.6586	2.07471e-06	1.35812e-05	-1.26744e-09	1.35825e-05	0.249998	4601.01	0.42938	4601.44
10002.2	3.12245	0.983458	3.27366	-17.4825	4.17055	0.249948	-0.011381	16.1796	1.4602	1	9	0.00506913	0.00154846	0	-9.59122e-06	-0.000271551	4.25287e-06	40.6847	0.00274652	0.00208271	-0.00179045	-17.4417	3.27511	3.12453	0.981668	0.291358	0.0917672	0.305468	17.4825	1460.19	4636.08	4860.59	-72.5175	0.0000000E+000	0.0000000E+000	0.0000000E+000	72.5175	0.0000000E+000	0.0000000E+000	0.0000000E+000	-72.5175	0.0000000E+000	0.0000000E+000	0.0000000E+000	-17.4825	0.0000000E+000	0.0000000E+000	0.0000000E+000	17.4825	3.17497	72.5175	3.82122e-07	-2.84465e-06	3.09052e-09	-2.84774e-06	0.25022	21961.9	23.8601	21985.8
3163.08	3.81015	1.26409	4.01437	-18.3543	5.40563	0.249916	-0.0276577	39.8044	3.94688	1	10	0.00515963	0.00128529	0	-1.11622e-05	-0.000156987	6.12128e-06	-48.8278	0.00476257	0.00313532	0.00358495	-18.3887	4.01848	3.81329	1.26768	0.236432	0.0784412	0.249105	18.3543	3946.88	11896.4	12534.1	-71.6457	0.0000000E+000	0.0000000E+000	0.0000000E+000	71.6457	0.0000000E+000	0.0000000E+000	0.0000000E+000	-71.6457	0.0000000E+000	0.0000000E+000	0.0000000E+000	-18.3543	0.0000000E+000	0.0000000E+000	0.0000000E+000	18.3543	3.01414	71.6457	-1.63553e-06	-6.91211e-06	4.3419e-09	-6.91645e-06	0.250073	9036.03	5.67606	9041.7
1000.32	4.74313	1.86123	5.09524	-21.4253	6.75876	0.249943	-0.0182796	85.4835	11.4065	1	10	0.00509329	0.000999617	0	-1.88773e-05	0.000263083	8.22682e-06	-74.2512	0.00822998	0.00223378	0.00792103	-21.4989	5.10022	4.74537	1.86915	0.182699	0.0716919	0.196262	21.4253	11406.5	29068.1	31226	-68.5747	0.0000000E+000	0.0000000E+000	0.0000000E+000	68.5747	0.0000000E+000	0.0000000E+000	0.0000000E+000	-68.5747	0.0000000E+000	0.0000000E+000	0.0000000E+000	-21.4253	0.0000000E+000	0.0000000E+000	0.0000000E+000	21.4253	2.54839	68.5747	-2.92494e-06	-4.56885e-06	-4.80905e-09	-4.56404e-06	0.24968	13673.3	14.3921	13658.9
316.316	6.27639	3.04039	6.97403	-25.8463	8.10809	0.249941	-0.017243	165.489	31.4529	1	10	0.00501456	0.000719034	0	-2.54462e-05	-0.000233363	6.29262e-06	63.783	0.00875149	0.00386616	-0.0078512	-25.7744	6.97409	6.28026	3.03254	0.129045	0.0625117	0.143389	25.8463	31452.9	64929.5	72146.5	-64.1537	0.0000000E+000	0.0000000E+000	0.0000000E+000	64.1537	0.0000000E+000	0.0000000E+000	0.0000000E+000	-64.1537	0.0000000E+000	0.0000000E+000	0.0000000E+000	-25.8463	0.0000000E+000	0.0000000E+000	0.0000000E+000	25.8463	2.06434	64.1537	-2.44058e-06	-4.30973e-06	4.02388e-09	-4.31375e-06	0.250174	14495.2	13.5338	14508.8
100.032	9.38544	4.43112	10.3789	-25.2733	9.45585	0.249946	-0.0163033	359.06	65.4476	1	10	0.00498202	0.000480015	0	-3.13949e-05	-0.000290645	9.34026e-06	35.9153	0.0194583	0.015759	-0.011414	-25.1793	10.3883	9.40119	4.41971	0.0871271	0.0411351	0.0963495	25.2733	65447.6	138623	153296	-64.7267	0.0000000E+000	0.0000000E+000	0.0000000E+000	64.7267	0.0000000E+000	0.0000000E+000	0.0000000E+000	-64.7267	0.0000000E+000	0.0000000E+000	0.0000000E+000	-25.2733	0.0000000E+000	0.0000000E+000	0.0000000E+000	25.2733	2.11807	64.7267	-2.65535e-06	-4.07494e-06	4.73848e-09	-4.07968e-06	0.250236	15331	17.8274	15348.8
31.6296	13.4282	3.98534	14.0071	-16.5303	10.7856	0.249928	-0.0194132	1262.59	102.21	1	10	0.00496964	0.000354794	0	-3.78842e-05	-0.000233363	3.1965e-06	-25.7197	0.00900947	0.00811688	0.00390983	-16.5362	14.016	13.4363	3.98925	0.0684415	0.0203127	0.0713922	16.5303	102210	344387	359234	-73.4697	0.0000000E+000	0.0000000E+000	0.0000000E+000	73.4697	0.0000000E+000	0.0000000E+000	0.0000000E+000	-73.4697	0.0000000E+000	0.0000000E+000	0.0000000E+000	-16.5303	0.0000000E+000	0.0000000E+000	0.0000000E+000	16.5303	3.3694	73.4697	-2.15498e-06	-4.85191e-06	4.53032e-09	-4.85644e-06	0.250162	12874.1	12.0208	12886.2
10.0032	15.7765	2.40664	15.959	-8.67334	12.3668	0.249961	-0.0142729	6611.06	150.341	1	11	0.0049638	0.000311034	0	-4.56577e-05	-8.06105e-05	1.19453e-05	-28.2057	0.038405	0.0338447	0.0181517	-8.71934	15.9952	15.8104	2.42479	0.0619439	0.00944925	0.0626605	8.67334	150341	985552	996953	-81.3267	0.0000000E+000	0.0000000E+000	0.0000000E+000	81.3267	0.0000000E+000	0.0000000E+000	0.0000000E+000	-81.3267	0.0000000E+000	0.0000000E+000	0.0000000E+000	-8.67334	0.0000000E+000	0.0000000E+000	0.0000000E+000	8.67334	6.55543	81.3267	5.29864e-07	-3.56767e-06	1.15054e-09	-3.56882e-06	0.250042	17513	5.64781	17518.7
3.1604	16.887	1.42066	16.9466	-4.80882	13.8834	0.249964	-0.0135752	35447.8	249.116	1	11	0.0049699	0.000293268	0	-5.21085e-05	-0.000176081	7.23332e-06	40.0064	0.0246646	0.0188924	-0.0158562	-4.7501	16.9641	16.9059	1.4048	0.0588011	0.00494678	0.0590088	4.80882	249116	2.96117e+06	2.97163e+06	-85.1912	0.0000000E+000	0.0000000E+000	0.0000000E+000	85.1912	0.0000000E+000	0.0000000E+000	0.0000000E+000	-85.1912	0.0000000E+000	0.0000000E+000	0.0000000E+000	-4.80882	0.0000000E+000	0.0000000E+000	0.0000000E+000	4.80882	11.8867	85.1912	2.55935e-07	-3.39331e-06	2.39033e-09	-3.3957e-06	0.25014	18413.3	12.9708	18426.3
1.00006	17.4517	1.03644	17.4824	-3.39877	19.5219	0.249971	-0.00951998	153549	539.679	1	12	0.00496913	0.000284236	0	-6.89497e-05	0.000167612	3.15336e-06	-34.18	0.0110942	0.00917795	0.00623265	-3.41737	17.4919	17.4608	1.04268	0.0570997	0.00339112	0.0572004	3.39877	539680	9.08713e+06	9.10314e+06	-86.6012	0.0000000E+000	0.0000000E+000	0.0000000E+000	86.6012	0.0000000E+000	0.0000000E+000	0.0000000E+000	-86.6012	0.0000000E+000	0.0000000E+000	0.0000000E+000	-3.39877	0.0000000E+000	0.0000000E+000	0.0000000E+000	3.39877	16.838	86.6012	-1.51224e-05	-2.37972e-06	-1.59567e-09	-2.37812e-06	0.249804	26257.5	17.6064	26239.9
0.316193	17.9057	1.36465	17.9576	-4.35828	33.8641	0.249968	-0.00945329	368846	2130.06	1	12	0.00497296	0.000276927	0	-0.000128981	5.30479e-05	2.54165e-06	-28.7909	0.00917806	0.00804349	0.00442029	-4.37038	17.966	17.9138	1.36907	0.0555256	0.00423179	0.0556866	4.35828	2.13006e+06	2.79486e+07	2.80297e+07	-85.6417	0.0000000E+000	0.0000000E+000	0.0000000E+000	85.6417	0.0000000E+000	0.0000000E+000	0.0000000E+000	-85.6417	0.0000000E+000	0.0000000E+000	0.0000000E+000	-4.35828	0.0000000E+000	0.0000000E+000	0.0000000E+000	4.35828	13.1211	85.6417	-1.70863e-05	-2.36302e-06	-5.01477e-10	-2.36252e-06	0.249915	26442.5	5.61158	26436.8
0.0999041	18.5557	2.84091	18.7719	-8.70451	79.0726	0.24996	-0.00449005	560762	12843.4	1	12	0.00497106	0.000264814	0	-7.53387e-05	-8.06105e-05	2.00504e-06	3.02756	0.00757149	0.00756092	-0.000399898	-8.69982	18.7793	18.5632	2.84051	0.0526576	0.00806199	0.0532711	8.70451	1.28434e+07	8.38876e+07	8.48651e+07	-81.2955	0.0000000E+000	0.0000000E+000	0.0000000E+000	81.2955	0.0000000E+000	0.0000000E+000	0.0000000E+000	-81.2955	0.0000000E+000	0.0000000E+000	0.0000000E+000	-8.70451	0.0000000E+000	0.0000000E+000	0.0000000E+000	8.70451	6.53159	81.2955	3.57033e-05	-1.12233e-06	3.61945e-10	-1.1227e-06	0.250041	55669.9	17.9532	55687.8
0.0315922	20.0459	6.92458	21.2082	-19.0568	221.955	0.249969	-0.00211368	727523	77558.2	1	12	0.00497033	0.000234359	0	-0.00033468	-0.000195175	2.35557e-06	8.77036	0.0100511	0.00993358	-0.00153254	-19.0441	21.217	20.0558	6.92305	0.0445675	0.0153953	0.0471517	19.0568	7.75582e+07	2.24522e+08	2.3754e+08	-70.9432	0.0000000E+000	0.0000000E+000	0.0000000E+000	70.9432	0.0000000E+000	0.0000000E+000	0.0000000E+000	-70.9432	0.0000000E+000	0.0000000E+000	0.0000000E+000	-19.0568	0.0000000E+000	0.0000000E+000	0.0000000E+000	19.0568	2.89488	70.9432	-0.000219111	-5.28356e-07	4.12538e-10	-5.28768e-07	0.250165	118262	92.3388	118355
0.0100092	24.5607	17.0138	29.878	-34.7114	673.175	0.249958	-0.00360434	934588	303054	1	12	0.00497079	0.000166369	0	-0.00123042	0.000129424	3.71369e-06	2.26029	0.022322	0.0223046	-0.000880363	-34.6857	29.8959	24.583	17.0129	0.0275129	0.0190589	0.0334694	34.7114	3.03054e+08	4.3748e+08	5.32194e+08	-55.2886	0.0000000E+000	0.0000000E+000	0.0000000E+000	55.2886	0.0000000E+000	0.0000000E+000	0.0000000E+000	-55.2886	0.0000000E+000	0.0000000E+000	0.0000000E+000	-34.7114	0.0000000E+000	0.0000000E+000	0.0000000E+000	34.7114	1.44357	55.2886	-0.000146415	-9.00932e-07	-4.66488e-10	-9.00466e-07	0.249828	69349.2	35.9079	69313.3