File: txt/19005_R309_UA708_SOC00_C04.mpt
EC-Lab ASCII FILE
Nb header lines : 65

Potentio Electrochemical Impedance Spectroscopy

Run on channel : 4 (SN 66756)
Grouped channel(s) : 2, 3, 4, 5, 6
User :
CE vs. WE compliance from -10 V to 10 V
Electrode connection : standard
Potential control : Ewe
Ewe ctrl range : min = -10.00 V, max = 10.00 V
Safety Limits :
	Do not start on E overload
Acquisition started on : 11/04/2025 16:08:38.802
Loaded Setting File :  C:\Users\Celltest\OneDrive - store-dot.com\Documents\EC-Lab\Data\@Biologic Test Protocols\anode half cell EIS SOC00.mps
Saved on :
	File : 19003_R309_UA708_SOC00_C04.mpr
	Directory : C:\Users\Celltest\OneDrive - store-dot.com\Documents\EC-Lab\Data\Charmaine\
	Host : 169.254.61.224
Device : VMP-3e (SN .003165)
Address : USB
EC-LAB for windows v11.62 (software)
Internet server v27.00 (firmware)
Command interpretor v12.03 (firmware)
Electrode material :
Initial state :
Electrolyte :
Comments :
Electrode surface area : 0.001 cm²
Characteristic mass : 0.001 g
Equivalent Weight : 0.000 g/eq.
Density : 0.000 g/cm3
Volume (V) : 0.001 cm³
Record Ece
Cycle Definition : Charge/Discharge alternance
Mode                Single sine
E (V)               0.0000
vs.                 Eoc
tE (h:m:s)          0:00:0.0000
record              0
dI                  0.000
unit dI             mA
dt (s)              0.000
fi                  100.000
unit fi             kHz
ff                  10.000
unit ff             mHz
Nd                  6
Points              per decade
spacing             Logarithmic
Va (mV)             5.0
pw                  0.10
Na                  2
corr                0
E range min (V)     -10.000
E range max (V)     10.000
I Range             Auto
Bandwidth           5
nc cycles           0
goto Ns'            0
nr cycles           0
inc. cycle          0

freq/Hz	Re(Z)/Ohm	-Im(Z)/Ohm	|Z|/Ohm	Phase(Z)/deg	time/s	<Ewe>/V	<I>/mA	Cs/µF	Cp/µF	cycle number	I Range	|Ewe|/V	|I|/A	Ns	(Q-Qo)/mA.h	<Ece>/V	|Ece|/V	Phase(Zce)/deg	|Zce|/Ohm	Re(Zce)/Ohm	-Im(Zce)/Ohm	Phase(Zwe-ce)/deg	|Zwe-ce|/Ohm	Re(Zwe-ce)/Ohm	-Im(Zwe-ce)/Ohm	Re(Y)/Ohm-1	Im(Y)/Ohm-1	|Y|/Ohm-1	Phase(Y)/deg	Re(C)/nF	Im(C)/nF	|C|/nF	Phase(C)/deg	Re(M)	Im(M)	|M|	Phase(M)/deg	Re(Permittivity)	Im(Permittivity)	|Permittivity|	Phase(Permittivity)/deg	Re(Resistivity)/Ohm.cm	Im(Resistivity)/Ohm.cm	|Resistivity|/Ohm.cm	Phase(Resistivity)/deg	Re(Conductivity)/mS/cm	Im(Conductivity)/mS/cm	|Conductivity|/mS/cm	Phase(Conductivity)/deg	Tan(Delta)	Loss Angle(Delta)/deg	dq/mA.h	Pwe/W	Pce/W	Pwe-ce/W	<Ewe-Ece>/V	Rwe/Ohm	Rce/Ohm	Rwe-ce/Ohm		Ewe-Ece/V
100004	1.66252	0.612323	1.77169	-20.2193	1.86856	0.240788	-0.0122188	2.5991	0.310461	1	9	0.00491226	0.00277264	0	-4.08285e-06	-0.000336214	3.32901e-05	54.9687	0.0120066	0.0068921	-0.00983151	-19.8446	1.7748	1.66941	0.602491	0.52965	0.195076	0.564432	20.2193	310.461	842.932	898.288	-69.7807	0.0000000E+000	0.0000000E+000	0.0000000E+000	69.7807	0.0000000E+000	0.0000000E+000	0.0000000E+000	-69.7807	0.0000000E+000	0.0000000E+000	0.0000000E+000	-20.2193	0.0000000E+000	0.0000000E+000	0.0000000E+000	20.2193	2.7151	69.7807	-4.08285e-06	-2.94214e-06	4.10814e-09	-2.94625e-06	0.241124	19706.3	27.5161	19733.9
31621.1	2.22437	0.794333	2.36195	-19.6519	3.01956	0.24078	-0.00774315	6.33636	0.716646	1	9	0.00541751	0.00229366	0	-1.45966e-05	4.59847e-05	7.76341e-06	33.4139	0.00338472	0.00282527	-0.00186391	-19.5863	2.36398	2.2272	0.792469	0.398719	0.142384	0.42338	19.6519	716.646	2006.83	2130.95	-70.3481	0.0000000E+000	0.0000000E+000	0.0000000E+000	70.3481	0.0000000E+000	0.0000000E+000	0.0000000E+000	-70.3481	0.0000000E+000	0.0000000E+000	0.0000000E+000	-19.6519	0.0000000E+000	0.0000000E+000	0.0000000E+000	19.6519	2.8003	70.3481	-3.84788e-06	-1.86439e-06	-3.56066e-10	-1.86404e-06	0.240734	31095.9	5.93876	31090
10002.2	2.79799	0.896082	2.93797	-17.7582	4.16856	0.240717	-0.0661134	17.7572	1.65187	1	9	0.00535293	0.00182198	0	-3.26864e-05	8.42046e-05	6.67458e-06	-89.794	0.00366337	1.31713e-05	0.00366334	-17.8261	2.93911	2.798	0.899746	0.324153	0.103813	0.340371	17.7582	1651.87	5157.9	5415.96	-72.2418	0.0000000E+000	0.0000000E+000	0.0000000E+000	72.2418	0.0000000E+000	0.0000000E+000	0.0000000E+000	-72.2418	0.0000000E+000	0.0000000E+000	0.0000000E+000	-17.7582	0.0000000E+000	0.0000000E+000	0.0000000E+000	17.7582	3.12246	72.2418	-4.28627e-06	-1.59146e-05	-5.56705e-09	-1.5909e-05	0.240632	3640.96	1.27364	3639.69
3163.08	3.42833	1.16621	3.62125	-18.7866	5.31666	0.240692	-0.0422432	43.1454	4.47474	1	9	0.00532048	0.00146924	0	-4.20147e-05	-0.000202445	3.98711e-06	-11.3677	0.00271373	0.00266049	0.00053489	-18.7811	3.62395	3.43099	1.16674	0.261435	0.0889319	0.276147	18.7866	4474.74	13154.5	13894.8	-71.2134	0.0000000E+000	0.0000000E+000	0.0000000E+000	71.2134	0.0000000E+000	0.0000000E+000	0.0000000E+000	-71.2134	0.0000000E+000	0.0000000E+000	0.0000000E+000	-18.7866	0.0000000E+000	0.0000000E+000	0.0000000E+000	18.7866	2.93973	71.2134	-3.55738e-06	-1.01676e-05	8.55191e-09	-1.01762e-05	0.240895	5697.77	4.79237	5702.57
1000.32	4.30412	1.74038	4.64267	-22.016	6.91483	0.240705	-0.0143522	91.419	12.8466	1	10	0.00530776	0.00114326	0	-5.01655e-05	-3.04551e-05	9.48108e-06	-75.7295	0.00829306	0.00204424	0.00803716	-22.0985	4.64759	4.30617	1.74842	0.199686	0.0807436	0.215393	22.016	12846.6	31770.9	34269.9	-67.9839	0.0000000E+000	0.0000000E+000	0.0000000E+000	67.9839	0.0000000E+000	0.0000000E+000	0.0000000E+000	-67.9839	0.0000000E+000	0.0000000E+000	0.0000000E+000	-22.016	0.0000000E+000	0.0000000E+000	0.0000000E+000	22.016	2.47309	67.9839	-2.23906e-06	-3.45465e-06	4.37099e-10	-3.45508e-06	0.240735	16771.3	2.12198	16773.4
316.316	5.76109	2.88556	6.44334	-26.605	8.26509	0.240723	-0.0147141	174.369	34.971	1	10	0.00518503	0.000804712	0	-5.62726e-05	-0.000202445	5.21473e-06	-30.7521	0.00648025	0.00556904	0.00331351	-26.6091	6.4498	5.76666	2.88888	0.138766	0.0695038	0.155199	26.605	34971	69820.3	78088.7	-63.395	0.0000000E+000	0.0000000E+000	0.0000000E+000	63.395	0.0000000E+000	0.0000000E+000	0.0000000E+000	-63.395	0.0000000E+000	0.0000000E+000	0.0000000E+000	-26.605	0.0000000E+000	0.0000000E+000	0.0000000E+000	26.605	1.99652	63.395	-2.29212e-06	-3.54201e-06	2.97878e-09	-3.54499e-06	0.240925	16360	13.7586	16373.8
100.032	8.78898	4.07718	9.68863	-24.8864	9.61181	0.240713	-0.0145014	390.231	69.1061	1	10	0.00513217	0.000529711	0	-6.24322e-05	-0.000164225	1.04027e-05	-8.05838	0.0196385	0.0194446	0.00275297	-24.8529	9.70742	8.80842	4.07993	0.0936298	0.0434345	0.103214	24.8864	69106.1	148969	164217	-65.1136	0.0000000E+000	0.0000000E+000	0.0000000E+000	65.1136	0.0000000E+000	0.0000000E+000	0.0000000E+000	-65.1136	0.0000000E+000	0.0000000E+000	0.0000000E+000	-24.8864	0.0000000E+000	0.0000000E+000	0.0000000E+000	24.8864	2.15565	65.1136	-9.43399e-07	-3.49069e-06	2.3815e-09	-3.49307e-06	0.240877	16599.2	11.3247	16610.6
31.6296	12.3289	3.33895	12.773	-15.1535	10.9406	0.24072	-0.0151095	1507.01	102.979	1	10	0.00512579	0.000401298	0	-6.76814e-05	-1.13452e-05	7.72121e-06	56.1906	0.0192406	0.0107061	-0.0159869	-15.0718	12.7792	12.3396	3.32296	0.0755677	0.0204655	0.07829	15.1535	102979	380245	393943	-74.8465	0.0000000E+000	0.0000000E+000	0.0000000E+000	74.8465	0.0000000E+000	0.0000000E+000	0.0000000E+000	-74.8465	0.0000000E+000	0.0000000E+000	0.0000000E+000	-15.1535	0.0000000E+000	0.0000000E+000	0.0000000E+000	15.1535	3.69245	74.8465	-1.95816e-06	-3.63715e-06	1.7142e-10	-3.63732e-06	0.240731	15931.7	0.750866	15932.5
10.0032	14.2124	1.96703	14.3478	-7.87983	12.5218	0.240729	-0.00673913	8088.54	152.026	1	11	0.00512267	0.000357034	0	-7.08245e-05	-1.13452e-05	4.28994e-06	46.0808	0.0120155	0.00833446	-0.00865498	-7.84105	14.3549	14.2207	1.95837	0.0690388	0.00955515	0.0696969	7.87983	152026	1.09843e+06	1.1089e+06	-82.1202	0.0000000E+000	0.0000000E+000	0.0000000E+000	82.1202	0.0000000E+000	0.0000000E+000	0.0000000E+000	-82.1202	0.0000000E+000	0.0000000E+000	0.0000000E+000	-7.87983	0.0000000E+000	0.0000000E+000	0.0000000E+000	7.87983	7.2253	82.1202	-3.61405e-06	-1.6223e-06	7.64567e-11	-1.62238e-06	0.24074	35721	1.68348	35722.7
3.1604	15.0598	1.13425	15.1025	-4.30718	14.0385	0.240748	-0.00499144	44398.6	250.434	1	11	0.00512236	0.000339174	0	-7.26041e-05	-4.95651e-05	3.3225e-06	-10.3532	0.00979587	0.00963638	0.00176048	-4.31109	15.1122	15.0694	1.13601	0.0660274	0.00497295	0.0662144	4.30718	250434	3.32509e+06	3.3345e+06	-85.6928	0.0000000E+000	0.0000000E+000	0.0000000E+000	85.6928	0.0000000E+000	0.0000000E+000	0.0000000E+000	-85.6928	0.0000000E+000	0.0000000E+000	0.0000000E+000	-4.30718	0.0000000E+000	0.0000000E+000	0.0000000E+000	4.30718	13.2773	85.6928	-4.57063e-06	-1.20168e-06	2.47401e-10	-1.20193e-06	0.240797	48232.1	9.93001	48242
1.00006	15.5286	0.893738	15.5543	-3.29399	18.6336	0.240736	-0.00639614	178066	587.9	1	11	0.00512377	0.000329412	0	-7.80372e-05	0.000198864	1.99152e-06	-24.1368	0.00604567	0.00551711	0.00247217	-3.30191	15.5599	15.5341	0.89621	0.0641848	0.00369412	0.0642911	3.29399	587900	1.02147e+07	1.02316e+07	-86.706	0.0000000E+000	0.0000000E+000	0.0000000E+000	86.706	0.0000000E+000	0.0000000E+000	0.0000000E+000	-86.706	0.0000000E+000	0.0000000E+000	0.0000000E+000	-3.29399	0.0000000E+000	0.0000000E+000	0.0000000E+000	3.29399	17.3748	86.706	3.95484e-06	-1.53978e-06	-1.27196e-09	-1.53851e-06	0.240537	37637.7	31.0913	37606.6
0.316193	15.8986	1.25667	15.9482	-4.51942	32.9779	0.240739	-0.00153033	400539	2486.94	1	11	0.00512074	0.000321085	0	-5.8367e-05	-4.95651e-05	2.96253e-06	-10.0225	0.00922661	0.00908581	0.00160575	-4.5226	15.9574	15.9077	1.25828	0.0625079	0.0049408	0.0627029	4.51942	2.48694e+06	3.14632e+07	3.15613e+07	-85.4806	0.0000000E+000	0.0000000E+000	0.0000000E+000	85.4806	0.0000000E+000	0.0000000E+000	0.0000000E+000	-85.4806	0.0000000E+000	0.0000000E+000	0.0000000E+000	-4.51942	0.0000000E+000	0.0000000E+000	0.0000000E+000	4.51942	12.6514	85.4806	6.51483e-07	-3.68411e-07	7.58511e-11	-3.68487e-07	0.240789	157312	32.3885	157344
0.0999041	16.5249	2.71914	16.7471	-9.34418	82.8819	0.240744	-0.00269797	585875	15445	1	12	0.00512467	0.000306003	0	-0.00023819	-0.000202445	1.7385e-06	-12.3338	0.0056813	0.00555018	0.00121356	-9.3452	16.7528	16.5304	2.72036	0.0589194	0.00969509	0.0597118	9.34418	1.5445e+07	9.38632e+07	9.51255e+07	-80.6558	0.0000000E+000	0.0000000E+000	0.0000000E+000	80.6558	0.0000000E+000	0.0000000E+000	0.0000000E+000	-80.6558	0.0000000E+000	0.0000000E+000	0.0000000E+000	-9.34418	0.0000000E+000	0.0000000E+000	0.0000000E+000	9.34418	6.07725	80.6558	-9.29739e-05	-6.4952e-07	5.46189e-10	-6.50067e-07	0.240947	89231.7	75.036	89306.8
0.0315922	17.9761	6.71751	19.1902	-20.4903	225.765	0.240744	-0.00336365	749949	91894.2	1	12	0.00512096	0.000266852	0	-0.000218285	-0.000317104	2.76806e-06	-2.11645	0.010373	0.0103659	0.000383083	-20.4805	19.2001	17.9865	6.7179	0.0488129	0.018241	0.0521098	20.4903	9.18942e+07	2.45909e+08	2.62518e+08	-69.5097	0.0000000E+000	0.0000000E+000	0.0000000E+000	69.5097	0.0000000E+000	0.0000000E+000	0.0000000E+000	-69.5097	0.0000000E+000	0.0000000E+000	0.0000000E+000	-20.4903	0.0000000E+000	0.0000000E+000	0.0000000E+000	20.4903	2.67601	69.5097	0.000134042	-8.09779e-07	1.06663e-09	-8.10845e-07	0.241061	71572.1	94.2738	71666.4
0.0100092	22.4121	16.3993	27.7713	-36.1936	676.988	0.240739	-0.00205138	969607	338110	1	12	0.00512336	0.000184484	0	0.000110128	-3.04551e-05	2.6135e-06	-66.2194	0.0141665	0.00571244	0.0129637	-36.2082	27.7835	22.4179	16.4123	0.0290598	0.0212635	0.0360085	36.1936	3.3811e+08	4.62077e+08	5.72567e+08	-53.8064	0.0000000E+000	0.0000000E+000	0.0000000E+000	53.8064	0.0000000E+000	0.0000000E+000	0.0000000E+000	-53.8064	0.0000000E+000	0.0000000E+000	0.0000000E+000	-36.1936	0.0000000E+000	0.0000000E+000	0.0000000E+000	36.1936	1.36665	53.8064	-0.00015545	-4.93847e-07	6.24751e-11	-4.93909e-07	0.240769	117355	14.8462	117370