File: txt/19001_R309_UA707_SOC00_C04.mpt
EC-Lab ASCII FILE
Nb header lines : 65

Potentio Electrochemical Impedance Spectroscopy

Run on channel : 4 (SN 66756)
Grouped channel(s) : 1, 2, 3, 4
User :
CE vs. WE compliance from -10 V to 10 V
Electrode connection : standard
Potential control : Ewe
Ewe ctrl range : min = -10.00 V, max = 10.00 V
Safety Limits :
	Do not start on E overload
Acquisition started on : 11/04/2025 15:54:15.751
Loaded Setting File :  C:\Users\Celltest\OneDrive - store-dot.com\Documents\EC-Lab\Data\@Biologic Test Protocols\anode half cell EIS SOC00.mps
Saved on :
	File : 18998_R309_UA707_SOC00_C04.mpr
	Directory : C:\Users\Celltest\OneDrive - store-dot.com\Documents\EC-Lab\Data\Charmaine\
	Host : 169.254.61.224
Device : VMP-3e (SN .003165)
Address : USB
EC-LAB for windows v11.62 (software)
Internet server v27.00 (firmware)
Command interpretor v12.03 (firmware)
Electrode material :
Initial state :
Electrolyte :
Comments :
Electrode surface area : 0.001 cm²
Characteristic mass : 0.001 g
Equivalent Weight : 0.000 g/eq.
Density : 0.000 g/cm3
Volume (V) : 0.001 cm³
Record Ece
Cycle Definition : Charge/Discharge alternance
Mode                Single sine
E (V)               0.0000
vs.                 Eoc
tE (h:m:s)          0:00:0.0000
record              0
dI                  0.000
unit dI             mA
dt (s)              0.000
fi                  100.000
unit fi             kHz
ff                  10.000
unit ff             mHz
Nd                  6
Points              per decade
spacing             Logarithmic
Va (mV)             5.0
pw                  0.10
Na                  2
corr                0
E range min (V)     -10.000
E range max (V)     10.000
I Range             Auto
Bandwidth           5
nc cycles           0
goto Ns'            0
nr cycles           0
inc. cycle          0

freq/Hz	Re(Z)/Ohm	-Im(Z)/Ohm	|Z|/Ohm	Phase(Z)/deg	time/s	<Ewe>/V	<I>/mA	Cs/µF	Cp/µF	cycle number	I Range	|Ewe|/V	|I|/A	Ns	(Q-Qo)/mA.h	<Ece>/V	|Ece|/V	Phase(Zce)/deg	|Zce|/Ohm	Re(Zce)/Ohm	-Im(Zce)/Ohm	Phase(Zwe-ce)/deg	|Zwe-ce|/Ohm	Re(Zwe-ce)/Ohm	-Im(Zwe-ce)/Ohm	Re(Y)/Ohm-1	Im(Y)/Ohm-1	|Y|/Ohm-1	Phase(Y)/deg	Re(C)/nF	Im(C)/nF	|C|/nF	Phase(C)/deg	Re(M)	Im(M)	|M|	Phase(M)/deg	Re(Permittivity)	Im(Permittivity)	|Permittivity|	Phase(Permittivity)/deg	Re(Resistivity)/Ohm.cm	Im(Resistivity)/Ohm.cm	|Resistivity|/Ohm.cm	Phase(Resistivity)/deg	Re(Conductivity)/mS/cm	Im(Conductivity)/mS/cm	|Conductivity|/mS/cm	Phase(Conductivity)/deg	Tan(Delta)	Loss Angle(Delta)/deg	dq/mA.h	Pwe/W	Pce/W	Pwe-ce/W	<Ewe-Ece>/V	Rwe/Ohm	Rce/Ohm	Rwe-ce/Ohm		Ewe-Ece/V
100004	1.61324	0.302435	1.64134	-10.6181	1.59451	0.24477	-0.0262799	5.26225	0.178665	1	9	0.00221563	0.00134989	0	-8.96732e-06	-3.27484e-05	2.44711e-05	59.1673	0.0181282	0.00929129	-0.0155661	-10.0265	1.64769	1.62253	0.286869	0.598826	0.112263	0.609259	10.6181	178.665	953.026	969.629	-79.3819	0.0000000E+000	0.0000000E+000	0.0000000E+000	79.3819	0.0000000E+000	0.0000000E+000	0.0000000E+000	-79.3819	0.0000000E+000	0.0000000E+000	0.0000000E+000	-10.6181	0.0000000E+000	0.0000000E+000	0.0000000E+000	10.6181	5.33415	79.3819	-8.96732e-06	-6.43254e-06	8.60626e-10	-6.43341e-06	0.244803	9313.96	1.24614	9315.2
31621.1	1.89973	0.664984	2.01276	-19.2921	3.11955	0.244792	-0.047241	7.56888	0.826174	1	9	0.00508815	0.00252795	0	3.90272e-05	-0.000242958	1.18824e-05	15.7648	0.00470039	0.00452359	-0.00127704	-19.2154	2.01661	1.90426	0.663706	0.468932	0.164145	0.496831	19.2921	826.174	2360.22	2500.64	-70.7079	0.0000000E+000	0.0000000E+000	0.0000000E+000	70.7079	0.0000000E+000	0.0000000E+000	0.0000000E+000	-70.7079	0.0000000E+000	0.0000000E+000	0.0000000E+000	-19.2921	0.0000000E+000	0.0000000E+000	0.0000000E+000	19.2921	2.85681	70.7079	5.38881e-05	-1.15642e-05	1.14776e-08	-1.15757e-05	0.245035	5181.78	5.14295	5186.92
10002.2	2.39116	0.779791	2.5151	-18.0619	4.02252	0.244797	-0.0544021	20.4054	1.96152	1	9	0.00488942	0.00194403	0	2.82168e-05	-5.18584e-05	1.15269e-05	-118.883	0.00592937	-0.00286402	0.0051918	-18.1946	2.51399	2.3883	0.784983	0.378006	0.123273	0.397599	18.0619	1961.52	6014.81	6326.57	-71.9381	0.0000000E+000	0.0000000E+000	0.0000000E+000	71.9381	0.0000000E+000	0.0000000E+000	0.0000000E+000	-71.9381	0.0000000E+000	0.0000000E+000	0.0000000E+000	-18.0619	0.0000000E+000	0.0000000E+000	0.0000000E+000	18.0619	3.06641	71.9381	-1.89486e-06	-1.33175e-05	2.8212e-09	-1.33203e-05	0.244849	4499.77	0.953242	4500.73
3163.08	2.93999	1.04423	3.11993	-19.5542	4.92264	0.244638	-0.0757734	48.1851	5.39782	1	9	0.00460308	0.00147538	0	1.46395e-05	-0.000319398	9.11034e-06	-123.315	0.00617492	-0.0033915	0.00516016	-19.6644	3.11847	2.9366	1.04939	0.302034	0.107277	0.32052	19.5542	5397.82	15197.3	16127.4	-70.4458	0.0000000E+000	0.0000000E+000	0.0000000E+000	70.4458	0.0000000E+000	0.0000000E+000	0.0000000E+000	-70.4458	0.0000000E+000	0.0000000E+000	0.0000000E+000	-19.5542	0.0000000E+000	0.0000000E+000	0.0000000E+000	19.5542	2.81545	70.4458	-8.21982e-06	-1.8537e-05	2.42019e-08	-1.85612e-05	0.244957	3228.54	4.21517	3232.76
1000.32	3.74692	1.59455	4.0721	-23.0528	6.5228	0.244694	-0.0327047	99.7798	15.2997	1	10	0.00459827	0.00112921	0	4.95114e-07	-0.000223848	1.27153e-05	-3.97905	0.0112603	0.0112332	0.000781374	-23.0012	4.08274	3.75815	1.59533	0.225963	0.0961616	0.245574	23.0528	15299.7	35951.6	39071.7	-66.9472	0.0000000E+000	0.0000000E+000	0.0000000E+000	66.9472	0.0000000E+000	0.0000000E+000	0.0000000E+000	-66.9472	0.0000000E+000	0.0000000E+000	0.0000000E+000	-23.0528	0.0000000E+000	0.0000000E+000	0.0000000E+000	23.0528	2.34983	66.9472	-3.52527e-06	-8.00263e-06	7.32088e-09	-8.00995e-06	0.244918	7481.92	6.84452	7488.76
316.316	5.09387	2.6041	5.72091	-27.0771	7.87308	0.244724	-0.0284635	193.215	40.0337	1	10	0.00452944	0.000791734	0	-9.75296e-06	-0.000262068	7.81446e-06	28.6575	0.00987007	0.00866101	-0.00473341	-26.9955	5.72648	5.10253	2.59937	0.155639	0.0795658	0.174797	27.0771	40033.7	78309.8	87949.6	-62.9229	0.0000000E+000	0.0000000E+000	0.0000000E+000	62.9229	0.0000000E+000	0.0000000E+000	0.0000000E+000	-62.9229	0.0000000E+000	0.0000000E+000	0.0000000E+000	-27.0771	0.0000000E+000	0.0000000E+000	0.0000000E+000	27.0771	1.9561	62.9229	-3.288e-06	-6.9657e-06	7.45937e-09	-6.97316e-06	0.244986	8597.83	9.20716	8607.03
100.032	7.80253	3.60104	8.59343	-24.7744	9.22081	0.244724	-0.0289484	441.828	77.5847	1	10	0.00450958	0.000524771	0	-1.94386e-05	-0.000242958	8.51978e-06	49.6292	0.0162352	0.0105161	-0.0123691	-24.6701	8.5978	7.81305	3.58867	0.105658	0.0487635	0.116368	24.7744	77584.7	168106	185146	-65.2256	0.0000000E+000	0.0000000E+000	0.0000000E+000	65.2256	0.0000000E+000	0.0000000E+000	0.0000000E+000	-65.2256	0.0000000E+000	0.0000000E+000	0.0000000E+000	-24.7744	0.0000000E+000	0.0000000E+000	0.0000000E+000	24.7744	2.16674	65.2256	-3.87478e-06	-7.08437e-06	7.03325e-09	-7.09141e-06	0.244967	8453.79	8.39279	8462.19
31.6296	10.8916	2.975	11.2906	-15.2774	10.5506	0.24473	-0.0319736	1691.38	117.43	1	10	0.00450477	0.000398984	0	-2.91601e-05	-0.000147408	1.11317e-05	54.5526	0.0279002	0.0161809	-0.0227289	-15.1446	11.3003	10.9078	2.95227	0.0854393	0.0233374	0.0885692	15.2774	117430	429917	445666	-74.7226	0.0000000E+000	0.0000000E+000	0.0000000E+000	74.7226	0.0000000E+000	0.0000000E+000	0.0000000E+000	-74.7226	0.0000000E+000	0.0000000E+000	0.0000000E+000	-15.2774	0.0000000E+000	0.0000000E+000	0.0000000E+000	15.2774	3.66105	74.7226	-2.69523e-06	-7.82489e-06	4.71317e-09	-7.82961e-06	0.244877	7654.12	4.61031	7658.73
10.0032	12.6313	1.87251	12.7694	-8.43229	12.3459	0.244759	-0.0129106	8496.83	182.711	1	11	0.00501275	0.00039256	0	-4.11876e-05	-0.000204738	1.67795e-05	94.1287	0.0427437	-0.00307745	-0.0426328	-8.24496	12.7602	12.6283	1.82988	0.0774657	0.0114838	0.0783123	8.43229	182711	1.23251e+06	1.24598e+06	-81.5677	0.0000000E+000	0.0000000E+000	0.0000000E+000	81.5677	0.0000000E+000	0.0000000E+000	0.0000000E+000	-81.5677	0.0000000E+000	0.0000000E+000	0.0000000E+000	-8.43229	0.0000000E+000	0.0000000E+000	0.0000000E+000	8.43229	6.74568	81.5677	-5.00836e-06	-3.15999e-06	2.64329e-09	-3.16263e-06	0.244964	18958	15.8582	18973.9
3.1604	13.5061	1.12919	13.5532	-4.77918	13.8635	0.24477	-0.0115007	44597.5	309.574	1	11	0.00499643	0.000368654	0	-4.27377e-05	-3.27484e-05	7.53548e-06	44.915	0.0204405	0.0144751	-0.0144322	-4.71334	13.5664	13.5205	1.11476	0.0735269	0.00614731	0.0737834	4.77918	309573	3.70275e+06	3.71567e+06	-85.2208	0.0000000E+000	0.0000000E+000	0.0000000E+000	85.2208	0.0000000E+000	0.0000000E+000	0.0000000E+000	-85.2208	0.0000000E+000	0.0000000E+000	0.0000000E+000	-4.77918	0.0000000E+000	0.0000000E+000	0.0000000E+000	4.77918	11.9608	85.2208	2.59813e-06	-2.81503e-06	3.7663e-10	-2.81541e-06	0.244803	21283	2.84751	21285.9
1.00006	14.0122	0.88051	14.0398	-3.59567	18.4586	0.244761	-0.00885584	180742	710.892	1	11	0.00499827	0.000356007	0	-7.21872e-05	0.000101021	3.10172e-06	27.3521	0.00871253	0.00773846	-0.00400304	-3.5774	14.0473	14.0199	0.876507	0.0710858	0.00446695	0.071226	3.59567	710891	1.13129e+07	1.13352e+07	-86.4043	0.0000000E+000	0.0000000E+000	0.0000000E+000	86.4043	0.0000000E+000	0.0000000E+000	0.0000000E+000	-86.4043	0.0000000E+000	0.0000000E+000	0.0000000E+000	-3.59567	0.0000000E+000	0.0000000E+000	0.0000000E+000	3.59567	15.9137	86.4043	-1.64029e-05	-2.16756e-06	-8.94628e-10	-2.16667e-06	0.24466	27638.4	11.4073	27626.9
0.316193	14.379	1.25498	14.4337	-4.98807	32.7999	0.244761	-0.00995036	401079	3032.16	1	11	0.00500061	0.000346454	0	-9.02283e-05	-3.27484e-05	2.53933e-06	58.1783	0.00732948	0.00386467	-0.00622781	-4.96211	14.437	14.3829	1.24876	0.06902	0.00602399	0.0692824	4.98807	3.03216e+06	3.4741e+07	3.48731e+07	-85.0119	0.0000000E+000	0.0000000E+000	0.0000000E+000	85.0119	0.0000000E+000	0.0000000E+000	0.0000000E+000	-85.0119	0.0000000E+000	0.0000000E+000	0.0000000E+000	-4.98807	0.0000000E+000	0.0000000E+000	0.0000000E+000	4.98807	11.4575	85.0119	6.64007e-06	-2.43546e-06	3.25858e-10	-2.43579e-06	0.244794	24598.2	3.29118	24601.5
0.0999041	15.0807	2.70923	15.3221	-10.1845	78.0089	0.24477	-0.00159884	588019	18384.2	1	11	0.00499838	0.00032622	0	-3.19456e-05	-0.000128298	1.61721e-06	-12.5924	0.00495743	0.00483818	0.00108079	-10.1852	15.3271	15.0856	2.71031	0.0642367	0.01154	0.065265	10.1845	1.83842e+07	1.02334e+08	1.03972e+08	-79.8155	0.0000000E+000	0.0000000E+000	0.0000000E+000	79.8155	0.0000000E+000	0.0000000E+000	0.0000000E+000	-79.8155	0.0000000E+000	0.0000000E+000	0.0000000E+000	-10.1845	0.0000000E+000	0.0000000E+000	0.0000000E+000	10.1845	5.56642	79.8155	4.52023e-06	-3.91349e-07	2.05129e-10	-3.91554e-07	0.244899	153092	80.2445	153173
0.0315922	16.6506	6.44713	17.8552	-21.1664	242.534	0.24477	-0.00326276	781401	101877	1	12	0.00499663	0.000279842	0	-0.000619347	-0.000357618	2.20316e-06	0.367053	0.0078729	0.00787274	-5.04356e-05	-21.1572	17.8625	16.6585	6.44708	0.0522277	0.0202226	0.0560061	21.1664	1.01877e+08	2.63112e+08	2.82147e+08	-68.8336	0.0000000E+000	0.0000000E+000	0.0000000E+000	68.8336	0.0000000E+000	0.0000000E+000	0.0000000E+000	-68.8336	0.0000000E+000	0.0000000E+000	0.0000000E+000	-21.1664	0.0000000E+000	0.0000000E+000	0.0000000E+000	21.1664	2.58264	68.8336	-0.00030921	-7.98625e-07	1.16682e-09	-7.99792e-07	0.245127	75019.2	109.606	75128.9
0.0100092	20.5652	15.8842	25.9853	-37.6818	693.755	0.244771	-0.00394803	1.00105e+06	374051	1	12	0.00500064	0.000192441	0	-0.000594823	-0.000242958	1.88208e-06	-18.0069	0.00978005	0.00930102	0.00302331	-37.6746	25.9945	20.5745	15.8872	0.0304563	0.0235239	0.0384832	37.6818	3.74051e+08	4.84283e+08	6.11919e+08	-52.3182	0.0000000E+000	0.0000000E+000	0.0000000E+000	52.3182	0.0000000E+000	0.0000000E+000	0.0000000E+000	-52.3182	0.0000000E+000	0.0000000E+000	0.0000000E+000	-37.6818	0.0000000E+000	0.0000000E+000	0.0000000E+000	37.6818	1.2947	52.3182	0.000292551	-9.66365e-07	9.59206e-10	-9.67325e-07	0.245014	61998.3	61.539	62059.8