File: txt/19010_R308_UA709_SOC00_C06.mpt
EC-Lab ASCII FILE
Nb header lines : 66

Potentio Electrochemical Impedance Spectroscopy

Run on channel : 6 (SN 65795)
Grouped channel(s) : 6, 7, 8
User :
CE vs. WE compliance from -10 V to 10 V
Electrode connection : standard
Potential control : Ewe
Ewe ctrl range : min = -10.00 V, max = 10.00 V
Safety Limits :
	Do not start on E overload
Acquisition started on : 11/04/2025 16:28:53.021
Technique started on : 11/04/2025 16:28:54.890
Loaded Setting File :  C:\Users\Celltest\OneDrive - store-dot.com\Documents\EC-Lab\Data\@Biologic Test Protocols\anode half cell EIS SOC00.mps
Saved on :
	File : 19010_R308_UA709_SOC00_C06.mpr
	Directory : C:\Users\Celltest\OneDrive - store-dot.com\Documents\EC-Lab\Data\Charmaine\
	Host : 169.254.61.224
Device : VMP-3e (SN .003165)
Address : USB
EC-LAB for windows v11.62 (software)
Internet server v27.00 (firmware)
Command interpretor v12.03 (firmware)
Electrode material :
Initial state :
Electrolyte :
Comments :
Electrode surface area : 0.001 cm²
Characteristic mass : 0.001 g
Equivalent Weight : 0.000 g/eq.
Density : 0.000 g/cm3
Volume (V) : 0.001 cm³
Record Ece
Cycle Definition : Charge/Discharge alternance
Mode                Single sine
E (V)               0.0000
vs.                 Eoc
tE (h:m:s)          0:00:0.0000
record              0
dI                  0.000
unit dI             mA
dt (s)              0.000
fi                  100.000
unit fi             kHz
ff                  10.000
unit ff             mHz
Nd                  6
Points              per decade
spacing             Logarithmic
Va (mV)             5.0
pw                  0.10
Na                  2
corr                0
E range min (V)     -10.000
E range max (V)     10.000
I Range             Auto
Bandwidth           5
nc cycles           0
goto Ns'            0
nr cycles           0
inc. cycle          0

freq/Hz	Re(Z)/Ohm	-Im(Z)/Ohm	|Z|/Ohm	Phase(Z)/deg	time/s	<Ewe>/V	<I>/mA	Cs/µF	Cp/µF	cycle number	I Range	|Ewe|/V	|I|/A	Ns	(Q-Qo)/mA.h	<Ece>/V	|Ece|/V	Phase(Zce)/deg	|Zce|/Ohm	Re(Zce)/Ohm	-Im(Zce)/Ohm	Phase(Zwe-ce)/deg	|Zwe-ce|/Ohm	Re(Zwe-ce)/Ohm	-Im(Zwe-ce)/Ohm	Re(Y)/Ohm-1	Im(Y)/Ohm-1	|Y|/Ohm-1	Phase(Y)/deg	Re(C)/nF	Im(C)/nF	|C|/nF	Phase(C)/deg	Re(M)	Im(M)	|M|	Phase(M)/deg	Re(Permittivity)	Im(Permittivity)	|Permittivity|	Phase(Permittivity)/deg	Re(Resistivity)/Ohm.cm	Im(Resistivity)/Ohm.cm	|Resistivity|/Ohm.cm	Phase(Resistivity)/deg	Re(Conductivity)/mS/cm	Im(Conductivity)/mS/cm	|Conductivity|/mS/cm	Phase(Conductivity)/deg	Tan(Delta)	Loss Angle(Delta)/deg	dq/mA.h	Pwe/W	Pce/W	Pwe-ce/W	<Ewe-Ece>/V	Rwe/Ohm	Rce/Ohm	Rwe-ce/Ohm		Ewe-Ece/V
100004	1.94816	0.876049	2.13607	-24.2125	1.86856	0.2478	0.0491258	1.81667	0.305564	1	9	0.00492084	0.00230369	0	5.02489e-06	0.000195492	3.85946e-05	51.1238	0.0167534	0.0105151	-0.0130426	-23.7786	2.14037	1.95867	0.863006	0.426967	0.191999	0.46815	24.2125	305.564	679.514	745.056	-65.7875	0.0000000E+000	0.0000000E+000	0.0000000E+000	65.7875	0.0000000E+000	0.0000000E+000	0.0000000E+000	-65.7875	0.0000000E+000	0.0000000E+000	0.0000000E+000	-24.2125	0.0000000E+000	0.0000000E+000	0.0000000E+000	24.2125	2.2238	65.7875	5.02489e-06	1.21734e-05	9.60369e-09	1.21638e-05	0.247604	5044.19	3.97941	5040.21
31621.1	2.77893	1.11181	2.99309	-21.8055	3.01856	0.247777	0.0380626	4.52704	0.624643	1	9	0.0053906	0.00180102	0	2.33364e-05	0.0001191	8.77266e-06	49.9496	0.00487095	0.00313427	-0.00372861	-21.717	2.99462	2.78207	1.10808	0.310198	0.124105	0.334103	21.8055	624.643	1561.28	1681.6	-68.1945	0.0000000E+000	0.0000000E+000	0.0000000E+000	68.1945	0.0000000E+000	0.0000000E+000	0.0000000E+000	-68.1945	0.0000000E+000	0.0000000E+000	0.0000000E+000	-21.8055	0.0000000E+000	0.0000000E+000	0.0000000E+000	21.8055	2.49948	68.1945	4.19643e-06	9.43105e-06	4.53324e-09	9.42652e-06	0.247658	6509.74	3.12904	6506.61
10002.2	3.62945	1.16211	3.81096	-17.7545	4.16953	0.247781	0.0249506	13.6923	1.27322	1	9	0.00523214	0.00137292	0	3.8506e-05	0.00021459	7.85887e-06	-62.7212	0.0057242	0.00262352	0.00508759	-17.8153	3.81501	3.63207	1.1672	0.249903	0.0800166	0.262401	17.7545	1273.22	3976.45	4175.31	-72.2455	0.0000000E+000	0.0000000E+000	0.0000000E+000	72.2455	0.0000000E+000	0.0000000E+000	0.0000000E+000	-72.2455	0.0000000E+000	0.0000000E+000	0.0000000E+000	-17.7545	0.0000000E+000	0.0000000E+000	0.0000000E+000	17.7545	3.12315	72.2455	1.87819e-06	6.18228e-06	5.35414e-09	6.17692e-06	0.247566	9930.84	8.60058	9922.24
3163.08	4.3967	1.3338	4.59456	-16.8759	5.52563	0.24772	-0.0158721	37.7241	3.17917	1	10	0.00516321	0.00112377	0	4.07212e-05	0.000252786	6.88396e-06	15.3724	0.00612579	0.00590663	-0.00162389	-16.8352	4.59974	4.4026	1.33218	0.208276	0.0631835	0.217649	16.8759	3179.17	10479.7	10951.3	-73.1241	0.0000000E+000	0.0000000E+000	0.0000000E+000	73.1241	0.0000000E+000	0.0000000E+000	0.0000000E+000	-73.1241	0.0000000E+000	0.0000000E+000	0.0000000E+000	-16.8759	0.0000000E+000	0.0000000E+000	0.0000000E+000	16.8759	3.29637	73.1241	-1.24279e-06	-3.93184e-06	-4.01223e-09	-3.92782e-06	0.247468	15607.3	15.9264	15591.4
1000.32	5.27972	1.961	5.63214	-20.376	6.87881	0.247742	-0.0100326	81.1342	9.83584	1	10	0.00521128	0.000925275	0	3.7166e-05	0.000271884	6.01963e-06	-78.4116	0.00650578	0.00130687	0.00637317	-20.4321	5.63559	5.28103	1.96737	0.166443	0.0618202	0.177552	20.376	9835.84	26481.7	28249.3	-69.624	0.0000000E+000	0.0000000E+000	0.0000000E+000	69.624	0.0000000E+000	0.0000000E+000	0.0000000E+000	-69.624	0.0000000E+000	0.0000000E+000	0.0000000E+000	-20.376	0.0000000E+000	0.0000000E+000	0.0000000E+000	20.376	2.69237	69.624	-2.03953e-06	-2.48549e-06	-2.72769e-09	-2.48276e-06	0.24747	24693.8	27.1002	24666.7
316.316	6.87226	3.46464	7.69621	-26.7549	8.22901	0.247734	-0.009686	145.225	29.4309	1	10	0.00511125	0.000664126	0	3.43247e-05	0.000233688	6.34982e-06	-90.5438	0.00956116	-9.07415e-05	0.00956073	-26.8187	7.70044	6.87217	3.4742	0.116023	0.058493	0.129934	26.7549	29430.9	58377.4	65376.6	-63.2451	0.0000000E+000	0.0000000E+000	0.0000000E+000	63.2451	0.0000000E+000	0.0000000E+000	0.0000000E+000	-63.2451	0.0000000E+000	0.0000000E+000	0.0000000E+000	-26.7549	0.0000000E+000	0.0000000E+000	0.0000000E+000	26.7549	1.98354	63.2451	-6.89407e-07	-2.39955e-06	-2.2635e-09	-2.39728e-06	0.2475	25576.5	24.1263	25552.3
100.032	10.557	5.20593	11.7708	-26.2491	9.57581	0.247757	-0.00928726	305.621	59.7815	1	10	0.00507076	0.000430791	0	3.05722e-05	0.000157296	5.78869e-06	-49.6291	0.0134373	0.00870382	0.0102375	-26.275	11.7831	10.5657	5.21617	0.0761952	0.0375738	0.0849559	26.2491	59781.5	121230	135168	-63.7509	0.0000000E+000	0.0000000E+000	0.0000000E+000	63.7509	0.0000000E+000	0.0000000E+000	0.0000000E+000	-63.7509	0.0000000E+000	0.0000000E+000	0.0000000E+000	-26.2491	0.0000000E+000	0.0000000E+000	0.0000000E+000	26.2491	2.02788	63.7509	-5.45498e-07	-2.30098e-06	-1.46084e-09	-2.29952e-06	0.2476	26677.1	16.9367	26660.1
31.6296	15.3564	4.5335	16.0116	-16.4476	10.9046	0.247743	-0.0102264	1109.93	88.98	1	10	0.00505548	0.000315739	0	2.77731e-05	-3.36848e-05	3.2946e-06	-49.6156	0.0104346	0.00676068	0.00794817	-16.468	16.0203	15.3631	4.54145	0.0598991	0.0176834	0.0624548	16.4476	88980	301403	314263	-73.5524	0.0000000E+000	0.0000000E+000	0.0000000E+000	73.5524	0.0000000E+000	0.0000000E+000	0.0000000E+000	-73.5524	0.0000000E+000	0.0000000E+000	0.0000000E+000	-16.4476	0.0000000E+000	0.0000000E+000	0.0000000E+000	16.4476	3.38731	73.5524	-9.40306e-07	-2.53351e-06	3.44473e-10	-2.53385e-06	0.247777	24226	3.29392	24229.2
10.0032	17.9765	2.5733	18.1597	-8.14645	12.4688	0.247762	-0.00877744	6182.87	124.152	1	11	0.00505791	0.000278523	0	2.5397e-05	0.000271884	7.56229e-06	23.7453	0.0271514	0.0248528	-0.0109331	-8.10125	18.1828	18.0013	2.56237	0.0545112	0.00780319	0.0550669	8.14645	124152	867295	876136	-81.8535	0.0000000E+000	0.0000000E+000	0.0000000E+000	81.8535	0.0000000E+000	0.0000000E+000	0.0000000E+000	-81.8535	0.0000000E+000	0.0000000E+000	0.0000000E+000	-8.14645	0.0000000E+000	0.0000000E+000	0.0000000E+000	8.14645	6.98576	81.8535	-1.70682e-06	-2.17472e-06	-2.38644e-09	-2.17233e-06	0.24749	28227.2	30.9753	28196.2
3.1604	19.0121	1.36374	19.061	-4.10279	13.9865	0.247773	-0.00742136	36927.3	189.025	1	11	0.00506031	0.00026548	0	1.91076e-05	0.000138198	6.93751e-06	-97.7069	0.026132	-0.00350445	0.0258959	-4.18119	19.0593	19.0086	1.38963	0.0523288	0.00375354	0.0524632	4.10279	189025	2.63523e+06	2.642e+06	-85.8972	0.0000000E+000	0.0000000E+000	0.0000000E+000	85.8972	0.0000000E+000	0.0000000E+000	0.0000000E+000	-85.8972	0.0000000E+000	0.0000000E+000	0.0000000E+000	-4.10279	0.0000000E+000	0.0000000E+000	0.0000000E+000	4.10279	13.9412	85.8972	-3.50322e-06	-1.83882e-06	-1.02561e-09	-1.83779e-06	0.247635	33386.5	18.6216	33367.9
1.00006	19.5073	0.989103	19.5324	-2.90265	19.625	0.247767	-0.00659192	160898	412.594	1	12	0.00506133	0.000259125	0	2.2949e-05	6.18054e-05	3.0676e-06	-88.1592	0.0118383	0.000380269	0.0118322	-2.93726	19.5334	19.5077	1.00094	0.0511313	0.00259257	0.051197	2.90265	412594	8.13728e+06	8.14774e+06	-87.0974	0.0000000E+000	0.0000000E+000	0.0000000E+000	87.0974	0.0000000E+000	0.0000000E+000	0.0000000E+000	-87.0974	0.0000000E+000	0.0000000E+000	0.0000000E+000	-2.90265	0.0000000E+000	0.0000000E+000	0.0000000E+000	2.90265	19.7222	87.0974	-9.27358e-08	-1.63326e-06	-4.07416e-10	-1.63285e-06	0.247705	37586.4	9.37593	37577.1
0.316193	19.8909	1.35906	19.9373	-3.9087	33.9671	0.247773	-0.0036488	370364	1720.97	1	12	0.00506163	0.000253877	0	-3.37203e-05	6.18054e-05	3.18284e-06	79.2914	0.0125369	0.00232954	-0.0123186	-3.87292	19.9388	19.8933	1.34674	0.0500406	0.00341905	0.0501572	3.9087	1.72097e+06	2.51878e+07	2.52465e+07	-86.0913	0.0000000E+000	0.0000000E+000	0.0000000E+000	86.0913	0.0000000E+000	0.0000000E+000	0.0000000E+000	-86.0913	0.0000000E+000	0.0000000E+000	0.0000000E+000	-3.9087	0.0000000E+000	0.0000000E+000	0.0000000E+000	3.9087	14.6358	86.0913	-2.93143e-05	-9.04074e-07	-2.25516e-10	-9.03848e-07	0.247711	67905.2	16.9385	67888.2
0.0999041	20.5598	3.08299	20.7896	-8.52811	79.1748	0.247771	-0.00483732	516731	11363.6	1	12	0.0050615	0.000243463	0	-7.31895e-05	0.00031008	1.22665e-06	8.47799	0.00503837	0.00498331	-0.000742804	-8.52405	20.7945	20.5648	3.08225	0.047569	0.0071331	0.0481009	8.52811	1.13636e+07	7.57812e+07	7.66284e+07	-81.4719	0.0000000E+000	0.0000000E+000	0.0000000E+000	81.4719	0.0000000E+000	0.0000000E+000	0.0000000E+000	-81.4719	0.0000000E+000	0.0000000E+000	0.0000000E+000	-8.52811	0.0000000E+000	0.0000000E+000	0.0000000E+000	8.52811	6.66877	81.4719	1.34546e-05	-1.19855e-06	-1.49996e-09	-1.19705e-06	0.247461	51220.7	64.1016	51156.6
0.0315922	22.3345	7.45733	23.5466	-18.4638	222.058	0.247765	-0.00116543	675549	67758.9	1	12	0.00505377	0.000214628	0	0.000142566	-0.000281959	2.31707e-06	-0.628709	0.0107957	0.0107951	0.00011846	-18.4557	23.5569	22.3453	7.45745	0.0402828	0.0134501	0.0424689	18.4638	6.77589e+07	2.02936e+08	2.1395e+08	-71.5362	0.0000000E+000	0.0000000E+000	0.0000000E+000	71.5362	0.0000000E+000	0.0000000E+000	0.0000000E+000	-71.5362	0.0000000E+000	0.0000000E+000	0.0000000E+000	-18.4638	0.0000000E+000	0.0000000E+000	0.0000000E+000	18.4638	2.99498	71.5362	5.92327e-05	-2.88754e-07	3.28605e-10	-2.89083e-07	0.248047	212595	241.935	212837
0.0100092	26.8685	18.0281	32.3563	-33.8606	673.281	0.247759	-0.00208738	882006	273813	1	12	0.00505969	0.000156374	0	-0.000945126	2.36093e-05	1.91205e-06	-23.0794	0.0122274	0.0112487	0.00479322	-33.8566	32.3683	26.8798	18.0329	0.0256641	0.01722	0.0309059	33.8606	2.73813e+08	4.08082e+08	4.91432e+08	-56.1394	0.0000000E+000	0.0000000E+000	0.0000000E+000	56.1394	0.0000000E+000	0.0000000E+000	0.0000000E+000	-56.1394	0.0000000E+000	0.0000000E+000	0.0000000E+000	-33.8606	0.0000000E+000	0.0000000E+000	0.0000000E+000	33.8606	1.49037	56.1394	-0.00057373	-5.17167e-07	-4.92816e-11	-5.17118e-07	0.247736	118694	11.3105	118683