File: txt/19012_R308_UA709_SOC00_C08.mpt
EC-Lab ASCII FILE
Nb header lines : 65

Potentio Electrochemical Impedance Spectroscopy

Run on channel : 8 (SN 65398)
Grouped channel(s) : 6, 7, 8
User :
CE vs. WE compliance from -10 V to 10 V
Electrode connection : standard
Potential control : Ewe
Ewe ctrl range : min = -10.00 V, max = 10.00 V
Safety Limits :
	Do not start on E overload
Acquisition started on : 11/04/2025 16:28:53.021
Loaded Setting File :  C:\Users\Celltest\OneDrive - store-dot.com\Documents\EC-Lab\Data\@Biologic Test Protocols\anode half cell EIS SOC00.mps
Saved on :
	File : 19010_R308_UA709_SOC00_C08.mpr
	Directory : C:\Users\Celltest\OneDrive - store-dot.com\Documents\EC-Lab\Data\Charmaine\
	Host : 169.254.61.224
Device : VMP-3e (SN .003165)
Address : USB
EC-LAB for windows v11.62 (software)
Internet server v27.00 (firmware)
Command interpretor v12.03 (firmware)
Electrode material :
Initial state :
Electrolyte :
Comments :
Electrode surface area : 0.001 cm²
Characteristic mass : 0.001 g
Equivalent Weight : 0.000 g/eq.
Density : 0.000 g/cm3
Volume (V) : 0.001 cm³
Record Ece
Cycle Definition : Charge/Discharge alternance
Mode                Single sine
E (V)               0.0000
vs.                 Eoc
tE (h:m:s)          0:00:0.0000
record              0
dI                  0.000
unit dI             mA
dt (s)              0.000
fi                  100.000
unit fi             kHz
ff                  10.000
unit ff             mHz
Nd                  6
Points              per decade
spacing             Logarithmic
Va (mV)             5.0
pw                  0.10
Na                  2
corr                0
E range min (V)     -10.000
E range max (V)     10.000
I Range             Auto
Bandwidth           5
nc cycles           0
goto Ns'            0
nr cycles           0
inc. cycle          0

freq/Hz	Re(Z)/Ohm	-Im(Z)/Ohm	|Z|/Ohm	Phase(Z)/deg	time/s	<Ewe>/V	<I>/mA	Cs/µF	Cp/µF	cycle number	I Range	|Ewe|/V	|I|/A	Ns	(Q-Qo)/mA.h	<Ece>/V	|Ece|/V	Phase(Zce)/deg	|Zce|/Ohm	Re(Zce)/Ohm	-Im(Zce)/Ohm	Phase(Zwe-ce)/deg	|Zwe-ce|/Ohm	Re(Zwe-ce)/Ohm	-Im(Zwe-ce)/Ohm	Re(Y)/Ohm-1	Im(Y)/Ohm-1	|Y|/Ohm-1	Phase(Y)/deg	Re(C)/nF	Im(C)/nF	|C|/nF	Phase(C)/deg	Re(M)	Im(M)	|M|	Phase(M)/deg	Re(Permittivity)	Im(Permittivity)	|Permittivity|	Phase(Permittivity)/deg	Re(Resistivity)/Ohm.cm	Im(Resistivity)/Ohm.cm	|Resistivity|/Ohm.cm	Phase(Resistivity)/deg	Re(Conductivity)/mS/cm	Im(Conductivity)/mS/cm	|Conductivity|/mS/cm	Phase(Conductivity)/deg	Tan(Delta)	Loss Angle(Delta)/deg	dq/mA.h	Pwe/W	Pce/W	Pwe-ce/W	<Ewe-Ece>/V	Rwe/Ohm	Rce/Ohm	Rwe-ce/Ohm		Ewe-Ece/V
100004	1.99495	0.909001	2.19229	-24.4964	1.91056	0.240335	-0.0310243	1.75081	0.301005	1	9	0.00459303	0.00209509	0	-5.60144e-06	-0.000326682	4.16317e-05	88.9659	0.0198711	0.00035864	-0.0198679	-24.0183	2.18445	1.99531	0.889133	0.415086	0.189134	0.456145	24.4964	301.005	660.606	725.95	-65.5036	0.0000000E+000	0.0000000E+000	0.0000000E+000	65.5036	0.0000000E+000	0.0000000E+000	0.0000000E+000	-65.5036	0.0000000E+000	0.0000000E+000	0.0000000E+000	-24.4964	0.0000000E+000	0.0000000E+000	0.0000000E+000	24.4964	2.19466	65.5036	-5.60144e-06	-7.45623e-06	1.01351e-08	-7.46637e-06	0.240662	7746.69	10.5299	7757.22
31621.1	2.88282	1.19196	3.11952	-22.4636	3.30855	0.240324	-0.0438218	4.22261	0.616492	1	9	0.00522911	0.00167625	0	-1.81889e-05	-9.76253e-05	1.6946e-05	20.0368	0.0101095	0.00949757	-0.00346375	-22.3385	3.12698	2.89232	1.1885	0.296238	0.122486	0.320562	22.4636	616.492	1491.02	1613.45	-67.5364	0.0000000E+000	0.0000000E+000	0.0000000E+000	67.5364	0.0000000E+000	0.0000000E+000	0.0000000E+000	-67.5364	0.0000000E+000	0.0000000E+000	0.0000000E+000	-22.4636	0.0000000E+000	0.0000000E+000	0.0000000E+000	22.4636	2.41856	67.5364	-4.23277e-06	-1.05314e-05	4.27812e-09	-1.05357e-05	0.240422	5484.12	2.22778	5486.34
10002.2	3.81658	1.2373	4.01214	-17.9622	4.33356	0.240328	-0.0472445	12.8602	1.22306	1	9	0.00486644	0.00121293	0	-3.03324e-05	0.000322312	5.92623e-06	-56.9881	0.00488588	0.00266189	0.00409709	-18.0061	4.01593	3.81925	1.2414	0.237096	0.0768643	0.249244	17.9622	1223.06	3772.65	3965.95	-72.0378	0.0000000E+000	0.0000000E+000	0.0000000E+000	72.0378	0.0000000E+000	0.0000000E+000	0.0000000E+000	-72.0378	0.0000000E+000	0.0000000E+000	0.0000000E+000	-17.9622	0.0000000E+000	0.0000000E+000	0.0000000E+000	17.9622	3.0846	72.0378	-3.54187e-06	-1.13542e-05	-1.52275e-08	-1.1339e-05	0.240006	5086.91	6.82222	5080.09
3163.08	4.65894	1.37977	4.85896	-16.4969	5.38764	0.240293	-0.0256043	36.4674	2.94055	1	10	0.00472841	0.000973132	0	-3.92154e-05	7.41672e-05	1.30881e-05	-18.1827	0.0134495	0.0127779	0.00419689	-16.5015	4.87241	4.67172	1.38396	0.197333	0.0584411	0.205805	16.4969	2940.55	9929.11	10355.4	-73.5031	0.0000000E+000	0.0000000E+000	0.0000000E+000	73.5031	0.0000000E+000	0.0000000E+000	0.0000000E+000	-73.5031	0.0000000E+000	0.0000000E+000	0.0000000E+000	-16.4969	0.0000000E+000	0.0000000E+000	0.0000000E+000	16.4969	3.37662	73.5031	-2.80202e-06	-6.15253e-06	-1.899e-09	-6.15063e-06	0.240219	9384.9	2.89668	9382
1000.32	5.59282	1.88608	5.90228	-18.6358	6.74082	0.240331	-0.00765543	84.357	8.61393	1	10	0.00466105	0.000789703	0	-4.29199e-05	5.50792e-05	1.02012e-05	-17.2694	0.0129178	0.0123354	0.00383483	-18.6328	5.91519	5.60515	1.88991	0.160543	0.0541403	0.169426	18.6358	8613.93	25543	26956.4	-71.3642	0.0000000E+000	0.0000000E+000	0.0000000E+000	71.3642	0.0000000E+000	0.0000000E+000	0.0000000E+000	-71.3642	0.0000000E+000	0.0000000E+000	0.0000000E+000	-18.6358	0.0000000E+000	0.0000000E+000	0.0000000E+000	18.6358	2.96531	71.3642	-1.28419e-06	-1.83984e-06	-4.21655e-10	-1.83942e-06	0.240276	31393.6	7.19478	31386.4
316.316	7.15559	3.15523	7.82036	-23.7949	8.09002	0.240338	-0.00787491	159.466	25.9584	1	10	0.00462913	0.000591934	0	-4.58041e-05	-9.76253e-05	1.2157e-05	120.316	0.0205378	-0.010367	-0.0177293	-23.7065	7.80373	7.14522	3.1375	0.117002	0.0515915	0.127871	23.7949	25958.4	58869.7	64338.7	-66.2051	0.0000000E+000	0.0000000E+000	0.0000000E+000	66.2051	0.0000000E+000	0.0000000E+000	0.0000000E+000	-66.2051	0.0000000E+000	0.0000000E+000	0.0000000E+000	-23.7949	0.0000000E+000	0.0000000E+000	0.0000000E+000	23.7949	2.26785	66.2051	-1.36009e-06	-1.89264e-06	7.68791e-10	-1.89341e-06	0.240436	30519.5	12.397	30531.9
100.032	10.4732	4.33699	11.3356	-22.4947	9.43685	0.240335	-0.00731693	366.853	53.7004	1	10	0.00460658	0.00040638	0	-4.83758e-05	0.000112343	8.37517e-06	91.4579	0.0206092	-0.000524352	-0.0206025	-22.3994	11.3273	10.4726	4.31639	0.0815053	0.0337517	0.0882173	22.4947	53700.4	129678	140357	-67.5053	0.0000000E+000	0.0000000E+000	0.0000000E+000	67.5053	0.0000000E+000	0.0000000E+000	0.0000000E+000	-67.5053	0.0000000E+000	0.0000000E+000	0.0000000E+000	-22.4947	0.0000000E+000	0.0000000E+000	0.0000000E+000	22.4947	2.41485	67.5053	-5.61122e-07	-1.75851e-06	-8.22008e-10	-1.75769e-06	0.240222	32846.4	15.3539	32831.1
31.6296	14.199	3.39733	14.5998	-13.4559	10.7655	0.240314	-0.0142584	1481.11	80.1997	1	10	0.00460442	0.000315376	0	-5.2221e-05	3.59911e-05	6.32806e-06	-17.9523	0.0200651	0.0190882	0.00618457	-13.4621	14.6198	14.2181	3.40352	0.066614	0.0159384	0.0684942	13.4559	80199.7	335191	344652	-76.5441	0.0000000E+000	0.0000000E+000	0.0000000E+000	76.5441	0.0000000E+000	0.0000000E+000	0.0000000E+000	-76.5441	0.0000000E+000	0.0000000E+000	0.0000000E+000	-13.4559	0.0000000E+000	0.0000000E+000	0.0000000E+000	13.4559	4.17945	76.5441	-2.2279e-06	-3.4265e-06	-5.13175e-10	-3.42598e-06	0.240279	16854.3	2.52421	16851.7
10.0032	16.0307	1.84588	16.1367	-6.56846	12.3468	0.240373	-0.00544765	8619.43	112.786	1	11	0.00460769	0.000285542	0	-5.59782e-05	0.000169608	1.14829e-05	-24.938	0.0402146	0.0364652	0.016956	-6.61335	16.1748	16.0672	1.86283	0.0615639	0.00708885	0.0619707	6.56846	112786	979507	985979	-83.4315	0.0000000E+000	0.0000000E+000	0.0000000E+000	83.4315	0.0000000E+000	0.0000000E+000	0.0000000E+000	-83.4315	0.0000000E+000	0.0000000E+000	0.0000000E+000	-6.56846	0.0000000E+000	0.0000000E+000	0.0000000E+000	6.56846	8.68462	83.4315	-2.42407e-06	-1.30947e-06	-9.23963e-10	-1.30855e-06	0.240204	44124.2	31.1341	44093.1
3.1604	16.7225	0.990279	16.7518	-3.38901	13.8634	0.240403	-0.00352617	50853.5	177.711	1	11	0.00460662	0.000274993	0	-6.02094e-05	0.000303224	4.34924e-06	86.4075	0.0158158	0.000991028	-0.0157847	-3.33492	16.7518	16.7235	0.974495	0.0595908	0.00352888	0.0596952	3.38901	177712	3.00094e+06	3.0062e+06	-86.611	0.0000000E+000	0.0000000E+000	0.0000000E+000	86.611	0.0000000E+000	0.0000000E+000	0.0000000E+000	-86.611	0.0000000E+000	0.0000000E+000	0.0000000E+000	-3.38901	0.0000000E+000	0.0000000E+000	0.0000000E+000	3.38901	16.8866	86.611	-4.15361e-06	-8.47701e-07	-1.06922e-09	-8.46631e-07	0.2401	68176.9	85.9925	68090.9
1.00006	17.0879	0.781474	17.1057	-2.61847	19.5019	0.240411	-0.00297655	203647	425.034	1	12	0.00461169	0.000269599	0	-5.11825e-05	-9.76253e-05	2.84608e-06	31.7802	0.0105567	0.00897399	-0.00555982	-2.5985	17.1144	17.0968	0.775914	0.058399	0.00267074	0.05846	2.61847	425035	9.29389e+06	9.3036e+06	-87.3815	0.0000000E+000	0.0000000E+000	0.0000000E+000	87.3815	0.0000000E+000	0.0000000E+000	0.0000000E+000	-87.3815	0.0000000E+000	0.0000000E+000	0.0000000E+000	-2.61847	0.0000000E+000	0.0000000E+000	0.0000000E+000	2.61847	21.8662	87.3815	5.95586e-06	-7.15596e-07	2.90587e-10	-7.15886e-07	0.240508	80768.2	32.7981	80801
0.316193	17.3975	1.19413	17.4385	-3.9265	33.8442	0.240393	-0.00110472	421519	1976.53	1	12	0.00461432	0.000264606	0	-8.49663e-05	3.59911e-05	3.51979e-06	-12.6883	0.013302	0.0129772	0.00292174	-3.93315	17.4516	17.4105	1.19705	0.0572099	0.00392676	0.0573445	3.9265	1.97653e+06	2.87965e+07	2.88642e+07	-86.0735	0.0000000E+000	0.0000000E+000	0.0000000E+000	86.0735	0.0000000E+000	0.0000000E+000	0.0000000E+000	-86.0735	0.0000000E+000	0.0000000E+000	0.0000000E+000	-3.9265	0.0000000E+000	0.0000000E+000	0.0000000E+000	3.9265	14.5692	86.0735	-2.43412e-05	-2.65567e-07	-3.97601e-11	-2.65528e-07	0.240357	217606	32.5794	217573
0.0999041	18.0634	2.74635	18.271	-8.64504	79.0522	0.240383	-0.00445477	580070	13106	1	12	0.00460997	0.000252311	0	-0.000174266	7.41672e-05	3.06239e-06	-12.2746	0.0121374	0.0118599	0.00258036	-8.64744	18.2831	18.0752	2.74893	0.0541098	0.00822685	0.0547317	8.64504	1.3106e+07	8.62011e+07	8.71918e+07	-81.355	0.0000000E+000	0.0000000E+000	0.0000000E+000	81.355	0.0000000E+000	0.0000000E+000	0.0000000E+000	-81.355	0.0000000E+000	0.0000000E+000	0.0000000E+000	-8.64504	0.0000000E+000	0.0000000E+000	0.0000000E+000	8.64504	6.57722	81.355	-1.47036e-05	-1.07085e-06	-3.30398e-10	-1.07052e-06	0.240309	53960.7	16.6489	53944.1
0.0315922	19.5938	6.55264	20.6605	-18.4912	221.937	0.240388	-0.0016089	768818	77335	1	12	0.00461197	0.000223227	0	0.000110531	-2.1273e-05	2.42483e-06	14.3306	0.0108626	0.0105246	-0.00268867	-18.4748	20.6696	19.6044	6.54996	0.0459027	0.015351	0.0484016	18.4912	7.7335e+07	2.31248e+08	2.43837e+08	-71.5088	0.0000000E+000	0.0000000E+000	0.0000000E+000	71.5088	0.0000000E+000	0.0000000E+000	0.0000000E+000	-71.5088	0.0000000E+000	0.0000000E+000	0.0000000E+000	-18.4912	0.0000000E+000	0.0000000E+000	0.0000000E+000	18.4912	2.99022	71.5088	0.000141408	-3.8676e-07	3.42262e-11	-3.86795e-07	0.24041	149412	13.2221	149425
0.0100092	23.5888	16.1501	28.5877	-34.3976	673.16	0.24038	-0.00192555	984571	314224	1	12	0.00460994	0.000161256	0	-0.000714266	-2.18497e-06	2.38641e-06	16.5566	0.0147989	0.0141853	-0.0042171	-34.3745	28.597	23.603	16.1459	0.0288634	0.0197614	0.0349801	34.3976	3.14224e+08	4.58954e+08	5.56215e+08	-55.6024	0.0000000E+000	0.0000000E+000	0.0000000E+000	55.6024	0.0000000E+000	0.0000000E+000	0.0000000E+000	-55.6024	0.0000000E+000	0.0000000E+000	0.0000000E+000	-34.3976	0.0000000E+000	0.0000000E+000	0.0000000E+000	34.3976	1.4606	55.6024	-0.000586224	-4.62864e-07	4.20728e-12	-4.62869e-07	0.240383	124837	1.13473	124838