File: txt/19011_R308_UA709_SOC00_C07.mpt
EC-Lab ASCII FILE
Nb header lines : 65

Potentio Electrochemical Impedance Spectroscopy

Run on channel : 7 (SN 66126)
Grouped channel(s) : 6, 7, 8
User :
CE vs. WE compliance from -10 V to 10 V
Electrode connection : standard
Potential control : Ewe
Ewe ctrl range : min = -10.00 V, max = 10.00 V
Safety Limits :
	Do not start on E overload
Acquisition started on : 11/04/2025 16:28:53.021
Loaded Setting File :  C:\Users\Celltest\OneDrive - store-dot.com\Documents\EC-Lab\Data\@Biologic Test Protocols\anode half cell EIS SOC00.mps
Saved on :
	File : 19010_R308_UA709_SOC00_C07.mpr
	Directory : C:\Users\Celltest\OneDrive - store-dot.com\Documents\EC-Lab\Data\Charmaine\
	Host : 169.254.61.224
Device : VMP-3e (SN .003165)
Address : USB
EC-LAB for windows v11.62 (software)
Internet server v27.00 (firmware)
Command interpretor v12.03 (firmware)
Electrode material :
Initial state :
Electrolyte :
Comments :
Electrode surface area : 0.001 cm²
Characteristic mass : 0.001 g
Equivalent Weight : 0.000 g/eq.
Density : 0.000 g/cm3
Volume (V) : 0.001 cm³
Record Ece
Cycle Definition : Charge/Discharge alternance
Mode                Single sine
E (V)               0.0000
vs.                 Eoc
tE (h:m:s)          0:00:0.0000
record              0
dI                  0.000
unit dI             mA
dt (s)              0.000
fi                  100.000
unit fi             kHz
ff                  10.000
unit ff             mHz
Nd                  6
Points              per decade
spacing             Logarithmic
Va (mV)             5.0
pw                  0.10
Na                  2
corr                0
E range min (V)     -10.000
E range max (V)     10.000
I Range             Auto
Bandwidth           5
nc cycles           0
goto Ns'            0
nr cycles           0
inc. cycle          0

freq/Hz	Re(Z)/Ohm	-Im(Z)/Ohm	|Z|/Ohm	Phase(Z)/deg	time/s	<Ewe>/V	<I>/mA	Cs/µF	Cp/µF	cycle number	I Range	|Ewe|/V	|I|/A	Ns	(Q-Qo)/mA.h	<Ece>/V	|Ece|/V	Phase(Zce)/deg	|Zce|/Ohm	Re(Zce)/Ohm	-Im(Zce)/Ohm	Phase(Zwe-ce)/deg	|Zwe-ce|/Ohm	Re(Zwe-ce)/Ohm	-Im(Zwe-ce)/Ohm	Re(Y)/Ohm-1	Im(Y)/Ohm-1	|Y|/Ohm-1	Phase(Y)/deg	Re(C)/nF	Im(C)/nF	|C|/nF	Phase(C)/deg	Re(M)	Im(M)	|M|	Phase(M)/deg	Re(Permittivity)	Im(Permittivity)	|Permittivity|	Phase(Permittivity)/deg	Re(Resistivity)/Ohm.cm	Im(Resistivity)/Ohm.cm	|Resistivity|/Ohm.cm	Phase(Resistivity)/deg	Re(Conductivity)/mS/cm	Im(Conductivity)/mS/cm	|Conductivity|/mS/cm	Phase(Conductivity)/deg	Tan(Delta)	Loss Angle(Delta)/deg	dq/mA.h	Pwe/W	Pce/W	Pwe-ce/W	<Ewe-Ece>/V	Rwe/Ohm	Rce/Ohm	Rwe-ce/Ohm		Ewe-Ece/V
100004	2.00618	0.816807	2.16609	-22.1535	1.91054	0.239578	0.0591754	1.94843	0.277059	1	9	0.00459982	0.00212356	0	1.11852e-05	-3.34546e-05	4.13649e-05	75.2538	0.019479	0.00495816	-0.0188374	-21.642	2.16366	2.01114	0.79797	0.427581	0.174088	0.461662	22.1535	277.059	680.491	734.731	-67.8465	0.0000000E+000	0.0000000E+000	0.0000000E+000	67.8465	0.0000000E+000	0.0000000E+000	0.0000000E+000	-67.8465	0.0000000E+000	0.0000000E+000	0.0000000E+000	-22.1535	0.0000000E+000	0.0000000E+000	0.0000000E+000	22.1535	2.45612	67.8465	1.11852e-05	1.41771e-05	-1.97969e-09	1.41791e-05	0.239611	4048.61	0.565347	4049.17
31621.1	2.75258	1.03811	2.94183	-20.6634	3.30955	0.239601	0.0608883	4.84843	0.603738	1	9	0.00531219	0.00180574	0	4.70626e-05	-1.43792e-05	1.68025e-05	30.7727	0.00930504	0.00799492	-0.00476078	-20.522	2.94764	2.76058	1.03335	0.318057	0.119952	0.339924	20.6634	603.738	1600.84	1710.9	-69.3366	0.0000000E+000	0.0000000E+000	0.0000000E+000	69.3366	0.0000000E+000	0.0000000E+000	0.0000000E+000	-69.3366	0.0000000E+000	0.0000000E+000	0.0000000E+000	-20.6634	0.0000000E+000	0.0000000E+000	0.0000000E+000	20.6634	2.65154	69.3366	4.56063e-06	1.45889e-05	-8.75526e-10	1.45898e-05	0.239616	3935.1	0.236158	3935.33
10002.2	3.54637	1.14063	3.72529	-17.8294	4.33455	0.239567	0.0446161	13.9502	1.30781	1	9	0.00539677	0.00144869	0	6.55647e-05	-1.43792e-05	3.55399e-06	24.0479	0.00245325	0.00224032	-0.0009997	-17.8043	3.72712	3.54861	1.13963	0.255543	0.0821907	0.268435	17.8294	1307.81	4066.19	4271.33	-72.1706	0.0000000E+000	0.0000000E+000	0.0000000E+000	72.1706	0.0000000E+000	0.0000000E+000	0.0000000E+000	-72.1706	0.0000000E+000	0.0000000E+000	0.0000000E+000	-17.8294	0.0000000E+000	0.0000000E+000	0.0000000E+000	17.8294	3.10915	72.1706	2.56701e-06	1.06885e-05	-6.41545e-10	1.06892e-05	0.239581	5369.52	0.322288	5369.84
3163.08	4.35314	1.35752	4.5599	-17.3199	5.38964	0.239517	-0.00664437	37.0651	3.28506	1	10	0.00541395	0.0011873	0	7.19545e-05	-0.000434039	3.99528e-06	-77.413	0.00336502	0.000733311	0.00328415	-17.3566	4.56158	4.35388	1.3608	0.209359	0.0652881	0.219303	17.3199	3285.06	10534.2	11034.5	-72.6801	0.0000000E+000	0.0000000E+000	0.0000000E+000	72.6801	0.0000000E+000	0.0000000E+000	0.0000000E+000	-72.6801	0.0000000E+000	0.0000000E+000	0.0000000E+000	-17.3199	0.0000000E+000	0.0000000E+000	0.0000000E+000	17.3199	3.2067	72.6801	4.20615e-07	-1.59144e-06	2.88391e-09	-1.59433e-06	0.239952	36048.2	65.3243	36113.5
1000.32	5.27237	1.98553	5.63384	-20.6359	6.74281	0.239512	-0.00145857	80.132	9.95285	1	10	0.00532401	0.000945005	0	7.25715e-05	-0.000186058	8.061e-06	-57.401	0.00853011	0.00459565	0.00718629	-20.6878	5.64068	5.27696	1.99271	0.16611	0.0625556	0.177499	20.6359	9952.84	26428.8	28240.8	-69.3641	0.0000000E+000	0.0000000E+000	0.0000000E+000	69.3641	0.0000000E+000	0.0000000E+000	0.0000000E+000	-69.3641	0.0000000E+000	0.0000000E+000	0.0000000E+000	-20.6359	0.0000000E+000	0.0000000E+000	0.0000000E+000	20.6359	2.6554	69.3641	9.64715e-08	-3.49344e-07	2.71378e-10	-3.49616e-07	0.239698	164210	127.562	164338
316.316	6.8977	3.4236	7.70061	-26.397	8.09306	0.239519	-0.00218452	146.966	29.0491	1	10	0.00524828	0.00068154	0	7.26051e-05	-7.16055e-05	4.74277e-06	76.4993	0.0069589	0.0016246	-0.00676661	-26.3466	7.69906	6.89933	3.41684	0.11632	0.0577343	0.12986	26.397	29049.1	58526.6	65339.2	-63.603	0.0000000E+000	0.0000000E+000	0.0000000E+000	63.603	0.0000000E+000	0.0000000E+000	0.0000000E+000	-63.603	0.0000000E+000	0.0000000E+000	0.0000000E+000	-26.397	0.0000000E+000	0.0000000E+000	0.0000000E+000	26.397	2.01475	63.603	1.43095e-07	-5.23233e-07	1.56424e-10	-5.23389e-07	0.23959	109644	32.7786	109676
100.032	10.6182	4.91837	11.702	-24.8536	9.4408	0.239522	-0.0019686	323.489	57.1455	1	10	0.00523883	0.000447687	0	7.211e-05	-0.000128832	1.27736e-05	-41.0588	0.0285325	0.0215145	0.0187411	-24.8925	11.7294	10.6397	4.93711	0.0775409	0.035917	0.0854554	24.8536	57145.5	123371	135963	-65.1464	0.0000000E+000	0.0000000E+000	0.0000000E+000	65.1464	0.0000000E+000	0.0000000E+000	0.0000000E+000	-65.1464	0.0000000E+000	0.0000000E+000	0.0000000E+000	-24.8536	0.0000000E+000	0.0000000E+000	0.0000000E+000	24.8536	2.15889	65.1464	-2.60226e-07	-4.71523e-07	2.53618e-10	-4.71776e-07	0.239651	121671	65.4433	121737
31.6296	14.8737	3.8937	15.3749	-14.6699	10.7696	0.239518	-0.00418365	1292.3	82.8826	1	10	0.0052149	0.000339182	0	7.19738e-05	0.000176375	8.43127e-06	109.908	0.0248577	-0.00846424	-0.0233722	-14.5936	15.3608	14.8653	3.87033	0.0629206	0.0164716	0.0650409	14.6699	82882.5	316607	327276	-75.3301	0.0000000E+000	0.0000000E+000	0.0000000E+000	75.3301	0.0000000E+000	0.0000000E+000	0.0000000E+000	-75.3301	0.0000000E+000	0.0000000E+000	0.0000000E+000	-14.6699	0.0000000E+000	0.0000000E+000	0.0000000E+000	14.6699	3.81994	75.3301	2.75443e-07	-1.00206e-06	-7.37891e-10	-1.00132e-06	0.239341	57251	42.1582	57208.8
10.0032	17.0143	2.13946	17.1483	-7.16704	12.3338	0.23955	-3.08575e-05	7436.65	115.757	1	11	0.0052289	0.000304923	0	7.09583e-05	-5.25301e-05	1.30795e-05	-28.5753	0.0428945	0.0376695	0.020517	-7.21923	17.1882	17.0519	2.15998	0.0578593	0.00727552	0.058315	7.16704	115756	920565	927815	-82.833	0.0000000E+000	0.0000000E+000	0.0000000E+000	82.833	0.0000000E+000	0.0000000E+000	0.0000000E+000	-82.833	0.0000000E+000	0.0000000E+000	0.0000000E+000	-7.16704	0.0000000E+000	0.0000000E+000	0.0000000E+000	7.16704	7.9526	82.833	-2.5595e-06	-7.39191e-09	1.62094e-12	-7.39353e-09	0.239603	7.76312e+06	1702.35	7.76482e+06
3.1604	17.7895	1.14137	17.826	-3.67106	13.8514	0.239572	0.00124148	44121.7	180.882	1	11	0.00522504	0.000293113	0	7.05207e-05	-9.06809e-05	2.04402e-06	72.1578	0.00697351	0.00213666	-0.00663811	-3.64933	17.8277	17.7916	1.13473	0.0559826	0.00359184	0.0560977	3.67106	180882	2.81924e+06	2.82503e+06	-86.3289	0.0000000E+000	0.0000000E+000	0.0000000E+000	86.3289	0.0000000E+000	0.0000000E+000	0.0000000E+000	-86.3289	0.0000000E+000	0.0000000E+000	0.0000000E+000	-3.67106	0.0000000E+000	0.0000000E+000	0.0000000E+000	3.67106	15.5861	86.3289	-3.60347e-06	2.97424e-07	-1.12579e-10	2.97537e-07	0.239663	192973	73.0426	193046
1.00006	18.1929	0.856452	18.2131	-2.69527	19.4916	0.239586	-8.30466e-06	185819	410.893	1	12	0.00522651	0.000286965	0	7.8703e-05	-1.43792e-05	1.94947e-06	69.6231	0.00679341	0.00236543	-0.0063683	-2.67491	18.2151	18.1953	0.850084	0.0548449	0.00258188	0.0549056	2.69527	410893	8.72827e+06	8.73794e+06	-87.3047	0.0000000E+000	0.0000000E+000	0.0000000E+000	87.3047	0.0000000E+000	0.0000000E+000	0.0000000E+000	-87.3047	0.0000000E+000	0.0000000E+000	0.0000000E+000	-2.69527	0.0000000E+000	0.0000000E+000	0.0000000E+000	2.69527	21.2422	87.3047	9.265e-06	-1.98968e-09	1.19415e-13	-1.9898e-09	0.2396	2.88496e+07	1731.46	2.88513e+07
0.316193	18.5515	1.3027	18.5972	-4.01676	33.8352	0.239571	0.00194602	386388	1895.91	1	12	0.00522617	0.00028102	0	8.54096e-05	-9.06809e-05	2.22202e-06	-8.94538	0.00790698	0.0078108	0.00122948	-4.01885	18.605	18.5593	1.30393	0.0536396	0.00376661	0.0537717	4.01676	1.89591e+06	2.69993e+07	2.70658e+07	-85.9832	0.0000000E+000	0.0000000E+000	0.0000000E+000	85.9832	0.0000000E+000	0.0000000E+000	0.0000000E+000	-85.9832	0.0000000E+000	0.0000000E+000	0.0000000E+000	-4.01676	0.0000000E+000	0.0000000E+000	0.0000000E+000	4.01676	14.2408	85.9832	-8.71228e-06	4.6621e-07	-1.76467e-10	4.66386e-07	0.239662	123108	46.5982	123155
0.0999041	19.2635	2.86526	19.4754	-8.46015	79.0441	0.239568	-0.00197857	555998	12034.4	1	12	0.00522577	0.000268326	0	-4.45678e-05	-0.000319586	2.13743e-06	-7.53547	0.00796577	0.00789698	0.00104463	-8.45978	19.4834	19.2714	2.8663	0.050788	0.00755421	0.0513467	8.46015	1.20344e+07	8.09092e+07	8.17993e+07	-81.5398	0.0000000E+000	0.0000000E+000	0.0000000E+000	81.5398	0.0000000E+000	0.0000000E+000	0.0000000E+000	-81.5398	0.0000000E+000	0.0000000E+000	0.0000000E+000	-8.46015	0.0000000E+000	0.0000000E+000	0.0000000E+000	8.46015	6.72314	81.5398	-5.10342e-05	-4.74001e-07	6.32322e-10	-4.74633e-07	0.239887	121082	161.524	121243
0.0315922	20.824	7.00852	21.9717	-18.6012	221.929	0.239568	-0.00196574	718810	73137	1	12	0.00522533	0.00023782	0	0.000190665	8.09979e-05	2.57382e-06	-23.4881	0.0108226	0.00992583	0.00431343	-18.6036	21.9825	20.8339	7.01283	0.0431355	0.0145177	0.045513	18.6012	7.3137e+07	2.17308e+08	2.29285e+08	-71.3988	0.0000000E+000	0.0000000E+000	0.0000000E+000	71.3988	0.0000000E+000	0.0000000E+000	0.0000000E+000	-71.3988	0.0000000E+000	0.0000000E+000	0.0000000E+000	-18.6012	0.0000000E+000	0.0000000E+000	0.0000000E+000	18.6012	2.97124	71.3988	0.000185768	-4.70928e-07	-1.5922e-10	-4.70769e-07	0.239487	121872	41.2049	121831
0.0100092	25.4816	17.144	30.7121	-33.9326	673.152	0.239566	-0.00127859	927492	289012	1	12	0.00522819	0.000170233	0	7.94927e-05	2.37716e-05	1.54083e-06	36.7001	0.00905133	0.00725713	-0.00540931	-33.9167	30.7151	25.4889	17.1386	0.0270153	0.0181758	0.0325605	33.9326	2.89012e+08	4.29568e+08	5.17742e+08	-56.0674	0.0000000E+000	0.0000000E+000	0.0000000E+000	56.0674	0.0000000E+000	0.0000000E+000	0.0000000E+000	-56.0674	0.0000000E+000	0.0000000E+000	0.0000000E+000	-33.9326	0.0000000E+000	0.0000000E+000	0.0000000E+000	33.9326	1.48633	56.0674	-0.000356267	-3.06308e-07	-3.03942e-11	-3.06278e-07	0.239543	187367	18.592	187349