File: txt/19063_R307_UA701_3p24_SOC00_C02.mpt
EC-Lab ASCII FILE
Nb header lines : 65

Potentio Electrochemical Impedance Spectroscopy

Run on channel : 2 (SN 66139)
Grouped channel(s) : 1, 2, 3, 4, 5
User :
CE vs. WE compliance from -10 V to 10 V
Electrode connection : standard
Potential control : Ewe
Ewe ctrl range : min = -10.00 V, max = 10.00 V
Safety Limits :
	Do not start on E overload
Acquisition started on : 11/12/2025 10:25:43.761
Loaded Setting File :  C:\Users\Celltest\OneDrive - store-dot.com\Documents\EC-Lab\Data\@Biologic Test Protocols\anode half cell EIS SOC00.mps
Saved on :
	File : 19062_R307_UA701_3p24_SOC00_C02.mpr
	Directory : C:\Users\Celltest\OneDrive - store-dot.com\Documents\EC-Lab\Data\Anna\
	Host : 169.254.61.224
Device : VMP-3e (SN .003165)
Address : USB
EC-LAB for windows v11.62 (software)
Internet server v27.00 (firmware)
Command interpretor v12.03 (firmware)
Electrode material :
Initial state :
Electrolyte :
Comments :
Electrode surface area : 0.001 cm²
Characteristic mass : 0.001 g
Equivalent Weight : 0.000 g/eq.
Density : 0.000 g/cm3
Volume (V) : 0.001 cm³
Record Ece
Cycle Definition : Charge/Discharge alternance
Mode                Single sine
E (V)               0.0000
vs.                 Eoc
tE (h:m:s)          0:00:0.0000
record              0
dI                  0.000
unit dI             mA
dt (s)              0.000
fi                  100.000
unit fi             kHz
ff                  10.000
unit ff             mHz
Nd                  6
Points              per decade
spacing             Logarithmic
Va (mV)             5.0
pw                  0.10
Na                  2
corr                0
E range min (V)     -10.000
E range max (V)     10.000
I Range             Auto
Bandwidth           5
nc cycles           0
goto Ns'            0
nr cycles           0
inc. cycle          0

freq/Hz	Re(Z)/Ohm	-Im(Z)/Ohm	|Z|/Ohm	Phase(Z)/deg	time/s	<Ewe>/V	<I>/mA	Cs/µF	Cp/µF	cycle number	I Range	|Ewe|/V	|I|/A	Ns	(Q-Qo)/mA.h	<Ece>/V	|Ece|/V	Phase(Zce)/deg	|Zce|/Ohm	Re(Zce)/Ohm	-Im(Zce)/Ohm	Phase(Zwe-ce)/deg	|Zwe-ce|/Ohm	Re(Zwe-ce)/Ohm	-Im(Zwe-ce)/Ohm	Re(Y)/Ohm-1	Im(Y)/Ohm-1	|Y|/Ohm-1	Phase(Y)/deg	Re(C)/nF	Im(C)/nF	|C|/nF	Phase(C)/deg	Re(M)	Im(M)	|M|	Phase(M)/deg	Re(Permittivity)	Im(Permittivity)	|Permittivity|	Phase(Permittivity)/deg	Re(Resistivity)/Ohm.cm	Im(Resistivity)/Ohm.cm	|Resistivity|/Ohm.cm	Phase(Resistivity)/deg	Re(Conductivity)/mS/cm	Im(Conductivity)/mS/cm	|Conductivity|/mS/cm	Phase(Conductivity)/deg	Tan(Delta)	Loss Angle(Delta)/deg	dq/mA.h	Pwe/W	Pce/W	Pwe-ce/W	<Ewe-Ece>/V	Rwe/Ohm	Rce/Ohm	Rwe-ce/Ohm		Ewe-Ece/V
100004	0.973842	0.399698	1.05268	-22.3149	1.72554	0.257653	0.0160926	3.98173	0.574046	1	9	0.00473023	0.00449353	0	1.59643e-07	5.43696e-05	1.43897e-05	91.1437	0.00320231	-6.39183e-05	-0.00320167	-22.1548	1.0514	0.973778	0.396496	0.878819	0.360697	0.94996	22.3149	574.046	1398.63	1511.85	-67.6851	0.0000000E+000	0.0000000E+000	0.0000000E+000	67.6851	0.0000000E+000	0.0000000E+000	0.0000000E+000	-67.6851	0.0000000E+000	0.0000000E+000	0.0000000E+000	-22.3149	0.0000000E+000	0.0000000E+000	0.0000000E+000	22.3149	2.43645	67.6851	1.59643e-07	4.1463e-06	8.74947e-10	4.14542e-06	0.257599	16010.7	3.37855	16007.3
31621.1	1.3238	0.563957	1.43892	-23.0747	3.24852	0.257626	0.00592441	8.92476	1.37093	1	9	0.00504949	0.00350922	0	-1.02005e-05	0.000168915	9.38063e-06	32.167	0.00267314	0.00226281	-0.00142315	-22.9873	1.44045	1.32606	0.562534	0.639364	0.272378	0.694965	23.0747	1370.93	3218.04	3497.89	-66.9253	0.0000000E+000	0.0000000E+000	0.0000000E+000	66.9253	0.0000000E+000	0.0000000E+000	0.0000000E+000	-66.9253	0.0000000E+000	0.0000000E+000	0.0000000E+000	-23.0747	0.0000000E+000	0.0000000E+000	0.0000000E+000	23.0747	2.34734	66.9253	1.19317e-05	1.52628e-06	1.00072e-09	1.52528e-06	0.257457	43485.5	28.5117	43457
10002.2	1.76237	0.774845	1.92518	-23.7333	4.27552	0.257639	0.0158318	20.5357	3.32656	1	9	0.00492046	0.00255584	0	-1.5091e-05	0.000531641	4.4391e-06	-34.9908	0.00173685	0.0014229	0.000995984	-23.7433	1.92688	1.76379	0.775841	0.475503	0.209061	0.519432	23.7333	3326.56	7566.18	8265.17	-66.2667	0.0000000E+000	0.0000000E+000	0.0000000E+000	66.2667	0.0000000E+000	0.0000000E+000	0.0000000E+000	-66.2667	0.0000000E+000	0.0000000E+000	0.0000000E+000	-23.7333	0.0000000E+000	0.0000000E+000	0.0000000E+000	23.7333	2.27448	66.2667	2.80105e-06	4.07889e-06	8.41683e-09	4.07047e-06	0.257107	16273.5	33.5806	16239.9
3163.08	2.32965	1.15433	2.59995	-26.3581	5.35064	0.257442	-0.0665934	43.5894	8.59226	1	9	0.00498362	0.00191681	0	-2.52626e-05	0.000111642	7.1433e-06	-66.1452	0.00372666	0.00150714	0.0034083	-26.4106	2.60282	2.33116	1.15774	0.344635	0.170764	0.384622	26.3581	8592.26	17340.8	19352.8	-63.6419	0.0000000E+000	0.0000000E+000	0.0000000E+000	63.6419	0.0000000E+000	0.0000000E+000	0.0000000E+000	-63.6419	0.0000000E+000	0.0000000E+000	0.0000000E+000	-26.3581	0.0000000E+000	0.0000000E+000	0.0000000E+000	26.3581	2.01819	63.6419	-1.21236e-05	-1.71439e-05	-7.43463e-09	-1.71365e-05	0.25733	3865.88	1.67647	3864.2
1000.32	3.09162	1.94416	3.6521	-32.1637	6.94886	0.257551	-0.020481	81.8368	23.1914	1	10	0.00495714	0.00135734	0	-2.97526e-05	0.000245278	9.93044e-06	79.2917	0.00731612	0.0013594	-0.00718872	-32.0568	3.64943	3.09298	1.93697	0.231793	0.145763	0.273815	32.1637	23191.4	36879.1	43565	-57.8363	0.0000000E+000	0.0000000E+000	0.0000000E+000	57.8363	0.0000000E+000	0.0000000E+000	0.0000000E+000	-57.8363	0.0000000E+000	0.0000000E+000	0.0000000E+000	-32.1637	0.0000000E+000	0.0000000E+000	0.0000000E+000	32.1637	1.59021	57.8363	-1.99442e-06	-5.27489e-06	-5.02354e-09	-5.26987e-06	0.257306	12575.1	11.9759	12563.1
316.316	4.51898	3.87591	5.95347	-40.6195	8.29907	0.257533	-0.0222319	129.815	55.0214	1	10	0.0048182	0.00080931	0	-3.83833e-05	0.000168915	9.42472e-06	47.1221	0.0116454	0.00792396	-0.00853379	-40.5075	5.95394	4.5269	3.86737	0.127497	0.109354	0.167969	40.6195	55021.4	64150.3	84514	-49.3805	0.0000000E+000	0.0000000E+000	0.0000000E+000	49.3805	0.0000000E+000	0.0000000E+000	0.0000000E+000	-49.3805	0.0000000E+000	0.0000000E+000	0.0000000E+000	-40.6195	0.0000000E+000	0.0000000E+000	0.0000000E+000	40.6195	1.16592	49.3805	-3.26045e-06	-5.72545e-06	-3.75529e-09	-5.72169e-06	0.257364	11584	7.59786	11576.4
100.032	8.6355	7.02749	11.1336	-39.1384	9.64581	0.25754	-0.0200116	226.402	90.2005	1	10	0.00478692	0.000429951	0	-4.56522e-05	0.000130733	1.07114e-05	-108.348	0.0249131	-0.00784242	0.0236466	-39.2582	11.1425	8.62766	7.05114	0.069665	0.0566928	0.0898181	39.1384	90200.5	110840	142904	-50.8616	0.0000000E+000	0.0000000E+000	0.0000000E+000	50.8616	0.0000000E+000	0.0000000E+000	0.0000000E+000	-50.8616	0.0000000E+000	0.0000000E+000	0.0000000E+000	-39.1384	0.0000000E+000	0.0000000E+000	0.0000000E+000	39.1384	1.22882	50.8616	-2.37349e-06	-5.1538e-06	-2.61618e-09	-5.15119e-06	0.25741	12869.5	6.53285	12863
31.6296	15.8761	7.81146	17.6937	-26.1985	11.2105	0.257566	-0.00622175	644.162	125.551	1	11	0.00479084	0.000270765	0	-5.22543e-05	0.000207096	7.93267e-06	-16.6277	0.0292973	0.0280722	0.00838347	-26.1827	17.7226	15.9041	7.81984	0.0507112	0.0249513	0.0565172	26.1985	125551	255171	284386	-63.8015	0.0000000E+000	0.0000000E+000	0.0000000E+000	63.8015	0.0000000E+000	0.0000000E+000	0.0000000E+000	-63.8015	0.0000000E+000	0.0000000E+000	0.0000000E+000	-26.1985	0.0000000E+000	0.0000000E+000	0.0000000E+000	26.1985	2.03241	63.8015	-2.06873e-06	-1.60251e-06	-1.2885e-09	-1.60122e-06	0.257359	41397.7	33.2859	41364.4
10.0032	21.2907	5.69763	22.0399	-14.9819	12.5428	0.257553	-0.00574263	2792.46	186.619	1	11	0.00478306	0.000217018	0	-5.58129e-05	9.25513e-05	1.05755e-05	-70.6302	0.048731	0.0161623	0.0459727	-15.0864	22.0674	21.3069	5.7436	0.0438299	0.0117294	0.0453723	14.9819	186619	697352	721891	-75.0181	0.0000000E+000	0.0000000E+000	0.0000000E+000	75.0181	0.0000000E+000	0.0000000E+000	0.0000000E+000	-75.0181	0.0000000E+000	0.0000000E+000	0.0000000E+000	-14.9819	0.0000000E+000	0.0000000E+000	0.0000000E+000	14.9819	3.73676	75.0181	-2.25994e-06	-1.47903e-06	-5.31488e-10	-1.4785e-06	0.25746	44849.2	16.1165	44833.1
3.1604	24.4665	4.04074	24.7979	-9.37799	14.0595	0.257576	-0.00415	12462.9	330.91	1	11	0.0047756	0.000192581	0	-5.69401e-05	0.000359823	1.26772e-05	24.6784	0.065828	0.0598156	-0.0274848	-9.293	24.8525	24.5263	4.01326	0.039787	0.006571	0.040326	9.37799	330910	2.00364e+06	2.03078e+06	-80.622	0.0000000E+000	0.0000000E+000	0.0000000E+000	80.622	0.0000000E+000	0.0000000E+000	0.0000000E+000	-80.622	0.0000000E+000	0.0000000E+000	0.0000000E+000	-9.37799	0.0000000E+000	0.0000000E+000	0.0000000E+000	9.37799	6.05494	80.622	-2.56261e-06	-1.06894e-06	-1.49327e-09	-1.06745e-06	0.257216	62066.6	86.7044	61979.9
1.00006	26.847	3.09938	27.0253	-6.58542	19.6978	0.257571	-0.00385156	51347.3	675.346	1	12	0.00479128	0.000177289	0	-6.38216e-05	-0.000117448	3.67466e-06	-81.4191	0.020727	0.0030926	0.0204949	-6.62783	27.0307	26.8501	3.11988	0.0367582	0.0042436	0.0370024	6.58542	675346	5.84988e+06	5.88874e+06	-83.4146	0.0000000E+000	0.0000000E+000	0.0000000E+000	83.4146	0.0000000E+000	0.0000000E+000	0.0000000E+000	-83.4146	0.0000000E+000	0.0000000E+000	0.0000000E+000	-6.58542	0.0000000E+000	0.0000000E+000	0.0000000E+000	6.58542	8.66205	83.4146	2.5354e-07	-9.92051e-07	4.52359e-10	-9.92503e-07	0.257688	66874.4	30.4936	66904.9
0.316193	28.5203	2.72377	28.65	-5.45537	34.04	0.257571	-0.00193839	184798	1670.27	1	12	0.00478957	0.000167175	0	-5.83585e-05	0.000302551	2.54627e-06	6.53468	0.0152312	0.0151322	-0.00173338	-5.44904	28.6649	28.5354	2.72204	0.0347459	0.00331833	0.034904	5.45537	1.67027e+06	1.74892e+07	1.75688e+07	-84.5446	0.0000000E+000	0.0000000E+000	0.0000000E+000	84.5446	0.0000000E+000	0.0000000E+000	0.0000000E+000	-84.5446	0.0000000E+000	0.0000000E+000	0.0000000E+000	-5.45537	0.0000000E+000	0.0000000E+000	0.0000000E+000	5.45537	10.4709	84.5446	-2.84829e-06	-4.99275e-07	-5.86462e-10	-4.98689e-07	0.257269	132879	156.083	132723
0.0999041	29.9215	3.85122	30.1683	-7.33427	79.2479	0.257564	-0.00135473	413655	6741.14	1	12	0.0047921	0.000158845	0	-0.000156212	-0.000270175	2.08796e-06	-11.9714	0.0131446	0.0128587	0.00272649	-7.33629	30.1814	29.9344	3.85395	0.0328761	0.00423152	0.0331473	7.33427	6.74114e+06	5.23742e+07	5.28063e+07	-82.6657	0.0000000E+000	0.0000000E+000	0.0000000E+000	82.6657	0.0000000E+000	0.0000000E+000	0.0000000E+000	-82.6657	0.0000000E+000	0.0000000E+000	0.0000000E+000	-7.33427	0.0000000E+000	0.0000000E+000	0.0000000E+000	7.33427	7.76935	82.6657	-4.84264e-05	-3.48931e-07	3.66015e-10	-3.49297e-07	0.257835	190122	199.43	190321
0.0315922	32.3233	8.12109	33.3279	-14.1034	222.131	0.257558	-0.00179689	620334	36833.2	1	12	0.00478669	0.000143624	0	-0.000161667	0.00028346	2.18141e-06	-2.63901	0.0151884	0.0151722	0.00069932	-14.0982	33.3428	32.3385	8.12179	0.0291005	0.00731138	0.0300049	14.1034	3.68332e+07	1.46602e+08	1.51159e+08	-75.8966	0.0000000E+000	0.0000000E+000	0.0000000E+000	75.8966	0.0000000E+000	0.0000000E+000	0.0000000E+000	-75.8966	0.0000000E+000	0.0000000E+000	0.0000000E+000	-14.1034	0.0000000E+000	0.0000000E+000	0.0000000E+000	14.1034	3.98017	75.8966	6.00846e-05	-4.62803e-07	-5.09346e-10	-4.62293e-07	0.257274	143335	157.75	143177
0.0100092	37.5235	17.9873	41.612	-25.6112	673.355	0.25756	0.000388228	884008	165178	1	12	0.00478846	0.000115074	0	0.000284953	0.000130733	2.23136e-06	-14.3401	0.0193907	0.0187865	0.00480261	-25.606	41.631	37.5423	17.9921	0.0216704	0.0103879	0.0240315	25.6112	1.65178e+08	3.44579e+08	3.82123e+08	-64.3888	0.0000000E+000	0.0000000E+000	0.0000000E+000	64.3888	0.0000000E+000	0.0000000E+000	0.0000000E+000	-64.3888	0.0000000E+000	0.0000000E+000	0.0000000E+000	-25.6112	0.0000000E+000	0.0000000E+000	0.0000000E+000	25.6112	2.08611	64.3888	8.94784e-05	9.99921e-08	5.07543e-11	9.99414e-08	0.257429	663424	336.742	663087