File: txt/19062_R307_UA701_3p24_SOC00_C01.mpt
EC-Lab ASCII FILE
Nb header lines : 66

Potentio Electrochemical Impedance Spectroscopy

Run on channel : 1 (SN 66354)
Grouped channel(s) : 1, 2, 3, 4, 5
User :
CE vs. WE compliance from -10 V to 10 V
Electrode connection : standard
Potential control : Ewe
Ewe ctrl range : min = -10.00 V, max = 10.00 V
Safety Limits :
	Do not start on E overload
Acquisition started on : 11/12/2025 10:25:43.761
Technique started on : 11/12/2025 10:25:45.486
Loaded Setting File :  C:\Users\Celltest\OneDrive - store-dot.com\Documents\EC-Lab\Data\@Biologic Test Protocols\anode half cell EIS SOC00.mps
Saved on :
	File : 19062_R307_UA701_3p24_SOC00_C01.mpr
	Directory : C:\Users\Celltest\OneDrive - store-dot.com\Documents\EC-Lab\Data\Anna\
	Host : 169.254.61.224
Device : VMP-3e (SN .003165)
Address : USB
EC-LAB for windows v11.62 (software)
Internet server v27.00 (firmware)
Command interpretor v12.03 (firmware)
Electrode material :
Initial state :
Electrolyte :
Comments :
Electrode surface area : 0.001 cm²
Characteristic mass : 0.001 g
Equivalent Weight : 0.000 g/eq.
Density : 0.000 g/cm3
Volume (V) : 0.001 cm³
Record Ece
Cycle Definition : Charge/Discharge alternance
Mode                Single sine
E (V)               0.0000
vs.                 Eoc
tE (h:m:s)          0:00:0.0000
record              0
dI                  0.000
unit dI             mA
dt (s)              0.000
fi                  100.000
unit fi             kHz
ff                  10.000
unit ff             mHz
Nd                  6
Points              per decade
spacing             Logarithmic
Va (mV)             5.0
pw                  0.10
Na                  2
corr                0
E range min (V)     -10.000
E range max (V)     10.000
I Range             Auto
Bandwidth           5
nc cycles           0
goto Ns'            0
nr cycles           0
inc. cycle          0

freq/Hz	Re(Z)/Ohm	-Im(Z)/Ohm	|Z|/Ohm	Phase(Z)/deg	time/s	<Ewe>/V	<I>/mA	Cs/µF	Cp/µF	cycle number	I Range	|Ewe|/V	|I|/A	Ns	(Q-Qo)/mA.h	<Ece>/V	|Ece|/V	Phase(Zce)/deg	|Zce|/Ohm	Re(Zce)/Ohm	-Im(Zce)/Ohm	Phase(Zwe-ce)/deg	|Zwe-ce|/Ohm	Re(Zwe-ce)/Ohm	-Im(Zwe-ce)/Ohm	Re(Y)/Ohm-1	Im(Y)/Ohm-1	|Y|/Ohm-1	Phase(Y)/deg	Re(C)/nF	Im(C)/nF	|C|/nF	Phase(C)/deg	Re(M)	Im(M)	|M|	Phase(M)/deg	Re(Permittivity)	Im(Permittivity)	|Permittivity|	Phase(Permittivity)/deg	Re(Resistivity)/Ohm.cm	Im(Resistivity)/Ohm.cm	|Resistivity|/Ohm.cm	Phase(Resistivity)/deg	Re(Conductivity)/mS/cm	Im(Conductivity)/mS/cm	|Conductivity|/mS/cm	Phase(Conductivity)/deg	Tan(Delta)	Loss Angle(Delta)/deg	dq/mA.h	Pwe/W	Pce/W	Pwe-ce/W	<Ewe-Ece>/V	Rwe/Ohm	Rce/Ohm	Rwe-ce/Ohm		Ewe-Ece/V
100004	1.02725	0.402513	1.10329	-21.3971	1.72456	0.262793	0.0800178	3.95388	0.526265	1	9	0.0048531	0.00439875	0	8.16861e-06	0.000247769	4.57813e-05	88.8894	0.0104078	0.000201728	-0.0104058	-20.8885	1.09973	1.02745	0.392107	0.843907	0.330674	0.90638	21.3971	526.265	1343.07	1442.49	-68.6029	0.0000000E+000	0.0000000E+000	0.0000000E+000	68.6029	0.0000000E+000	0.0000000E+000	0.0000000E+000	-68.6029	0.0000000E+000	0.0000000E+000	0.0000000E+000	-21.3971	0.0000000E+000	0.0000000E+000	0.0000000E+000	21.3971	2.55208	68.6029	8.16861e-06	2.10281e-05	1.9826e-08	2.10083e-05	0.262545	3284.18	3.09643	3281.08
31621.1	1.36509	0.521573	1.46134	-20.9108	3.24453	0.262764	0.0713375	9.65001	1.22929	1	9	0.00509194	0.00348443	0	3.08027e-05	0.00017146	1.46099e-05	33.3667	0.00419292	0.00350179	-0.00230609	-20.7775	1.46379	1.3686	0.519267	0.639232	0.244237	0.684302	20.9108	1229.29	3217.37	3444.22	-69.0892	0.0000000E+000	0.0000000E+000	0.0000000E+000	69.0892	0.0000000E+000	0.0000000E+000	0.0000000E+000	-69.0892	0.0000000E+000	0.0000000E+000	0.0000000E+000	-20.9108	0.0000000E+000	0.0000000E+000	0.0000000E+000	20.9108	2.61727	69.0892	9.3255e-06	1.87449e-05	1.22315e-08	1.87327e-05	0.262592	3683.39	2.40351	3680.98
10002.2	1.75258	0.693787	1.88491	-21.5969	4.39554	0.262778	0.0694003	22.9349	3.10719	1	9	0.00506981	0.00268968	0	5.88978e-05	5.69962e-05	1.00184e-05	-72.3363	0.00372476	0.0011302	0.00354915	-21.6844	1.88727	1.75371	0.697336	0.493284	0.195274	0.530529	21.5969	3107.19	7849.12	8441.76	-68.4031	0.0000000E+000	0.0000000E+000	0.0000000E+000	68.4031	0.0000000E+000	0.0000000E+000	0.0000000E+000	-68.4031	0.0000000E+000	0.0000000E+000	0.0000000E+000	-21.5969	0.0000000E+000	0.0000000E+000	0.0000000E+000	21.5969	2.52611	68.4031	8.28429e-06	1.82369e-05	3.95555e-09	1.82329e-05	0.262721	3786.42	0.821268	3785.6
3163.08	2.24987	1.02283	2.47146	-24.4475	5.29367	0.262527	-0.0264179	49.1931	8.42578	1	9	0.00454449	0.00183879	0	6.532e-05	1.88416e-05	6.20963e-06	55.5973	0.00337702	0.00190804	-0.00278633	-24.3704	2.47204	2.25177	1.02005	0.368342	0.167456	0.40462	24.4475	8425.78	18533.7	20359	-65.5525	0.0000000E+000	0.0000000E+000	0.0000000E+000	65.5525	0.0000000E+000	0.0000000E+000	0.0000000E+000	-65.5525	0.0000000E+000	0.0000000E+000	0.0000000E+000	-24.4475	0.0000000E+000	0.0000000E+000	0.0000000E+000	24.4475	2.19964	65.5525	-7.14967e-07	-6.93542e-06	-4.97756e-10	-6.93492e-06	0.262508	9937.46	0.713213	9936.74
1000.32	2.94676	1.76024	3.43247	-30.8519	7.10584	0.262681	-0.0228764	90.3876	23.7706	1	10	0.00495286	0.00144294	0	9.31054e-05	-0.000210086	4.55952e-06	88.5093	0.00315987	8.22035e-05	-0.0031588	-30.8059	3.43092	2.94684	1.75708	0.25011	0.149403	0.291336	30.8519	23770.6	39793.5	46352.7	-59.1481	0.0000000E+000	0.0000000E+000	0.0000000E+000	59.1481	0.0000000E+000	0.0000000E+000	0.0000000E+000	-59.1481	0.0000000E+000	0.0000000E+000	0.0000000E+000	-30.8519	0.0000000E+000	0.0000000E+000	0.0000000E+000	30.8519	1.67406	59.1481	1.59763e-06	-6.0092e-06	4.80601e-09	-6.01401e-06	0.262892	11482.6	9.18354	11491.8
316.316	4.35226	3.46037	5.56025	-38.4873	8.45606	0.262675	-0.0218291	145.404	56.3163	1	10	0.00484651	0.000871636	0	8.49611e-05	1.88416e-05	6.26021e-06	-55.6811	0.00718214	0.00404928	0.00593182	-38.5092	5.56711	4.35631	3.4663	0.140775	0.111927	0.179848	38.4873	56316.3	70831.4	90491	-51.5127	0.0000000E+000	0.0000000E+000	0.0000000E+000	51.5127	0.0000000E+000	0.0000000E+000	0.0000000E+000	-51.5127	0.0000000E+000	0.0000000E+000	0.0000000E+000	-38.4873	0.0000000E+000	0.0000000E+000	0.0000000E+000	38.4873	1.25774	51.5127	-2.75851e-06	-5.73397e-06	-4.11296e-10	-5.73356e-06	0.262656	12033.3	0.863141	12032.4
100.032	8.08106	5.77309	9.93137	-35.5419	9.80377	0.262687	-0.0214453	275.596	93.126	1	10	0.00481559	0.000484886	0	7.66783e-05	-0.000210086	1.1591e-05	-77.3261	0.0239046	0.00524471	0.0233221	-35.6337	9.94921	8.08631	5.79641	0.0819313	0.0585315	0.100691	35.5419	93126	130356	160203	-54.4581	0.0000000E+000	0.0000000E+000	0.0000000E+000	54.4581	0.0000000E+000	0.0000000E+000	0.0000000E+000	-54.4581	0.0000000E+000	0.0000000E+000	0.0000000E+000	-35.5419	0.0000000E+000	0.0000000E+000	0.0000000E+000	35.5419	1.39978	54.4581	-2.11037e-06	-5.63339e-06	4.50535e-09	-5.6379e-06	0.262897	12249.2	9.79639	12259
31.6296	13.594	5.78099	14.7722	-23.0381	11.1326	0.262687	-0.0224292	870.412	133.303	1	10	0.00480835	0.000325501	0	6.88679e-05	0.000133305	7.6373e-06	-30.0519	0.0234632	0.0203091	0.01175	-23.0492	14.7954	13.6143	5.79274	0.0622959	0.026492	0.0676949	23.0381	133303	313463	340630	-66.9619	0.0000000E+000	0.0000000E+000	0.0000000E+000	66.9619	0.0000000E+000	0.0000000E+000	0.0000000E+000	-66.9619	0.0000000E+000	0.0000000E+000	0.0000000E+000	-23.0381	0.0000000E+000	0.0000000E+000	0.0000000E+000	23.0381	2.3515	66.9619	-3.20717e-06	-5.89185e-06	-2.98993e-09	-5.88886e-06	0.262553	11711.8	5.94339	11705.9
10.0032	17.5345	4.21726	18.0345	-13.5235	12.6958	0.262726	-0.00683193	3772.69	206.301	1	11	0.00480214	0.000266275	0	6.62727e-05	0.000114228	1.15129e-06	-7.25391	0.00432371	0.00428911	0.00054594	-13.522	18.0388	17.5388	4.2178	0.0539118	0.0129664	0.0554492	13.5235	206301	857759	882219	-76.4765	0.0000000E+000	0.0000000E+000	0.0000000E+000	76.4765	0.0000000E+000	0.0000000E+000	0.0000000E+000	-76.4765	0.0000000E+000	0.0000000E+000	0.0000000E+000	-13.5235	0.0000000E+000	0.0000000E+000	0.0000000E+000	13.5235	4.1578	76.4765	6.95236e-07	-1.79493e-06	-7.80399e-10	-1.79415e-06	0.262612	38455.7	16.7197	38438.9
3.1604	19.8964	2.83656	20.0975	-8.1138	14.2135	0.262725	-0.00540009	17753.6	353.659	1	11	0.00480694	0.00023918	0	6.24119e-05	-5.74676e-05	9.92108e-06	75.1341	0.0414795	0.0106419	-0.0400911	-7.99639	20.1025	19.907	2.79647	0.0492592	0.00702273	0.0497573	8.1138	353659	2.48065e+06	2.50574e+06	-81.8862	0.0000000E+000	0.0000000E+000	0.0000000E+000	81.8862	0.0000000E+000	0.0000000E+000	0.0000000E+000	-81.8862	0.0000000E+000	0.0000000E+000	0.0000000E+000	-8.1138	0.0000000E+000	0.0000000E+000	0.0000000E+000	8.1138	7.01426	81.8862	3.5805e-07	-1.41874e-06	3.1033e-10	-1.41905e-06	0.262783	48652.1	10.642	48662.7
1.00006	21.3303	2.00199	21.424	-5.36189	19.8519	0.262734	-0.00360553	79493.3	694.149	1	12	0.00481002	0.000224515	0	6.07107e-05	-5.74676e-05	5.66701e-06	-31.0279	0.0252411	0.0216295	0.0130106	-5.39109	21.4468	21.3519	2.015	0.0464724	0.00436174	0.0466766	5.36189	694148	7.39583e+06	7.42834e+06	-84.6381	0.0000000E+000	0.0000000E+000	0.0000000E+000	84.6381	0.0000000E+000	0.0000000E+000	0.0000000E+000	-84.6381	0.0000000E+000	0.0000000E+000	0.0000000E+000	-5.36189	0.0000000E+000	0.0000000E+000	0.0000000E+000	5.36189	10.6545	84.6381	-5.99904e-06	-9.47294e-07	2.07201e-10	-9.47501e-07	0.262791	72869.7	15.9388	72885.7
0.316193	22.3304	2.03526	22.4229	-5.20772	34.1941	0.262732	-0.00376898	247314	2037.52	1	12	0.00480838	0.00021444	0	1.88336e-05	0.000133305	1.85125e-06	-27.7424	0.00863294	0.00764058	0.00401861	-5.21617	22.4309	22.338	2.03927	0.0444131	0.00404794	0.0445972	5.20772	2.03752e+06	2.23552e+07	2.24479e+07	-84.7923	0.0000000E+000	0.0000000E+000	0.0000000E+000	84.7923	0.0000000E+000	0.0000000E+000	0.0000000E+000	-84.7923	0.0000000E+000	0.0000000E+000	0.0000000E+000	-5.20772	0.0000000E+000	0.0000000E+000	0.0000000E+000	5.20772	10.9718	84.7923	-1.37152e-05	-9.90233e-07	-5.02425e-10	-9.8973e-07	0.262599	69709.2	35.3691	69673.8
0.0999041	23.4061	3.468	23.6616	-8.42801	79.402	0.262724	-0.00235751	459365	9867.97	1	12	0.00480399	0.000203029	0	7.73305e-05	-1.9313e-05	2.92969e-06	-10.2324	0.0144299	0.0142004	0.00256334	-8.4291	23.676	23.4203	3.47056	0.0418062	0.00619428	0.0422626	8.42801	9.86797e+06	6.66005e+07	6.73276e+07	-81.572	0.0000000E+000	0.0000000E+000	0.0000000E+000	81.572	0.0000000E+000	0.0000000E+000	0.0000000E+000	-81.572	0.0000000E+000	0.0000000E+000	0.0000000E+000	-8.42801	0.0000000E+000	0.0000000E+000	0.0000000E+000	8.42801	6.74916	81.572	4.1312e-05	-6.19375e-07	4.55307e-11	-6.1942e-07	0.262743	111441	8.19211	111449
0.0315922	25.6539	7.61447	26.7601	-16.5317	222.285	0.262727	0.00105033	661607	53567.9	1	12	0.00480649	0.000179614	0	8.17245e-05	3.79189e-05	3.51608e-06	18.8294	0.0195758	0.0185282	-0.00631812	-16.5075	26.7761	25.6724	7.60816	0.0358243	0.0106332	0.0373691	16.5317	5.35679e+07	1.80475e+08	1.88258e+08	-73.4683	0.0000000E+000	0.0000000E+000	0.0000000E+000	73.4683	0.0000000E+000	0.0000000E+000	0.0000000E+000	-73.4683	0.0000000E+000	0.0000000E+000	0.0000000E+000	-16.5317	0.0000000E+000	0.0000000E+000	0.0000000E+000	16.5317	3.3691	73.4683	-6.90378e-05	2.75949e-07	3.98272e-11	2.75909e-07	0.262689	250139	36.1021	250103
0.0100092	30.2068	17.0375	34.6804	-29.4243	673.507	0.26273	-0.000494405	933288	225248	1	12	0.00480634	0.00013859	0	-0.000601659	7.60735e-05	1.93867e-06	35.2878	0.0139885	0.0114183	-0.00808094	-29.4034	34.6863	30.2182	17.0294	0.0251152	0.0141658	0.0288348	29.4243	2.25248e+08	3.99355e+08	4.58499e+08	-60.5757	0.0000000E+000	0.0000000E+000	0.0000000E+000	60.5757	0.0000000E+000	0.0000000E+000	0.0000000E+000	-60.5757	0.0000000E+000	0.0000000E+000	0.0000000E+000	-29.4243	0.0000000E+000	0.0000000E+000	0.0000000E+000	29.4243	1.77296	60.5757	-0.000189351	-1.29895e-07	-3.76111e-11	-1.29857e-07	0.262653	531406	153.869	531252