File: txt/19067_R307_UA701_4p38_SOC00_C06.mpt
EC-Lab ASCII FILE
Nb header lines : 66

Potentio Electrochemical Impedance Spectroscopy

Run on channel : 6 (SN 65795)
Grouped channel(s) : 6, 7, 8
User :
CE vs. WE compliance from -10 V to 10 V
Electrode connection : standard
Potential control : Ewe
Ewe ctrl range : min = -10.00 V, max = 10.00 V
Safety Limits :
	Do not start on E overload
Acquisition started on : 11/12/2025 10:26:23.601
Technique started on : 11/12/2025 10:26:25.339
Loaded Setting File :  C:\Users\Celltest\OneDrive - store-dot.com\Documents\EC-Lab\Data\@Biologic Test Protocols\anode half cell EIS SOC00.mps
Saved on :
	File : 19067_R307_UA701_4p38_SOC00_C06.mpr
	Directory : C:\Users\Celltest\OneDrive - store-dot.com\Documents\EC-Lab\Data\Anna\
	Host : 169.254.61.224
Device : VMP-3e (SN .003165)
Address : USB
EC-LAB for windows v11.62 (software)
Internet server v27.00 (firmware)
Command interpretor v12.03 (firmware)
Electrode material :
Initial state :
Electrolyte :
Comments :
Electrode surface area : 0.001 cm²
Characteristic mass : 0.001 g
Equivalent Weight : 0.000 g/eq.
Density : 0.000 g/cm3
Volume (V) : 0.001 cm³
Record Ece
Cycle Definition : Charge/Discharge alternance
Mode                Single sine
E (V)               0.0000
vs.                 Eoc
tE (h:m:s)          0:00:0.0000
record              0
dI                  0.000
unit dI             mA
dt (s)              0.000
fi                  100.000
unit fi             kHz
ff                  10.000
unit ff             mHz
Nd                  6
Points              per decade
spacing             Logarithmic
Va (mV)             5.0
pw                  0.10
Na                  2
corr                0
E range min (V)     -10.000
E range max (V)     10.000
I Range             Auto
Bandwidth           5
nc cycles           0
goto Ns'            0
nr cycles           0
inc. cycle          0

freq/Hz	Re(Z)/Ohm	-Im(Z)/Ohm	|Z|/Ohm	Phase(Z)/deg	time/s	<Ewe>/V	<I>/mA	Cs/µF	Cp/µF	cycle number	I Range	|Ewe|/V	|I|/A	Ns	(Q-Qo)/mA.h	<Ece>/V	|Ece|/V	Phase(Zce)/deg	|Zce|/Ohm	Re(Zce)/Ohm	-Im(Zce)/Ohm	Phase(Zwe-ce)/deg	|Zwe-ce|/Ohm	Re(Zwe-ce)/Ohm	-Im(Zwe-ce)/Ohm	Re(Y)/Ohm-1	Im(Y)/Ohm-1	|Y|/Ohm-1	Phase(Y)/deg	Re(C)/nF	Im(C)/nF	|C|/nF	Phase(C)/deg	Re(M)	Im(M)	|M|	Phase(M)/deg	Re(Permittivity)	Im(Permittivity)	|Permittivity|	Phase(Permittivity)/deg	Re(Resistivity)/Ohm.cm	Im(Resistivity)/Ohm.cm	|Resistivity|/Ohm.cm	Phase(Resistivity)/deg	Re(Conductivity)/mS/cm	Im(Conductivity)/mS/cm	|Conductivity|/mS/cm	Phase(Conductivity)/deg	Tan(Delta)	Loss Angle(Delta)/deg	dq/mA.h	Pwe/W	Pce/W	Pwe-ce/W	<Ewe-Ece>/V	Rwe/Ohm	Rce/Ohm	Rwe-ce/Ohm		Ewe-Ece/V
100004	1.33246	0.370784	1.38309	-15.5503	1.73756	0.266998	0.0594069	4.29223	0.308477	1	9	0.00474222	0.00342871	0	8.7421e-06	-8.87826e-05	3.66008e-05	47.6505	0.0106748	0.0071911	-0.0078892	-15.1569	1.38794	1.33966	0.362895	0.696553	0.193829	0.723018	15.5503	308.477	1108.56	1150.68	-74.4497	0.0000000E+000	0.0000000E+000	0.0000000E+000	74.4497	0.0000000E+000	0.0000000E+000	0.0000000E+000	-74.4497	0.0000000E+000	0.0000000E+000	0.0000000E+000	-15.5503	0.0000000E+000	0.0000000E+000	0.0000000E+000	15.5503	3.59364	74.4497	8.7421e-06	1.58615e-05	-5.2743e-09	1.58668e-05	0.267087	4494.4	1.49448	4495.9
31621.1	1.66044	0.594236	1.76357	-19.6913	3.38252	0.266888	0.0479711	8.47	0.961653	1	9	0.00511373	0.00289965	0	3.54058e-05	-5.05865e-05	2.12015e-05	25.4138	0.00731173	0.00660418	-0.00313785	-19.5235	1.76873	1.66704	0.591099	0.533874	0.191063	0.567033	19.6913	961.653	2687.08	2853.98	-70.3087	0.0000000E+000	0.0000000E+000	0.0000000E+000	70.3087	0.0000000E+000	0.0000000E+000	0.0000000E+000	-70.3087	0.0000000E+000	0.0000000E+000	0.0000000E+000	-19.6913	0.0000000E+000	0.0000000E+000	0.0000000E+000	19.6913	2.79424	70.3087	-3.35968e-06	1.28029e-05	-2.42669e-09	1.28054e-05	0.266939	5563.52	1.05452	5564.57
10002.2	2.12313	0.812171	2.27317	-20.9336	4.77853	0.266879	0.0461831	19.5919	2.50097	1	9	0.005462	0.00240281	0	5.83666e-05	6.40017e-05	8.12617e-06	-13.0037	0.00338194	0.00329521	0.000760986	-20.9219	2.27652	2.12642	0.812932	0.410878	0.157175	0.439915	20.9336	2500.97	6537.87	6999.9	-69.0664	0.0000000E+000	0.0000000E+000	0.0000000E+000	69.0664	0.0000000E+000	0.0000000E+000	0.0000000E+000	-69.0664	0.0000000E+000	0.0000000E+000	0.0000000E+000	-20.9336	0.0000000E+000	0.0000000E+000	0.0000000E+000	20.9336	2.61414	69.0664	2.3479e-06	1.23253e-05	2.9558e-09	1.23223e-05	0.266815	5778.72	1.38582	5777.33
3163.08	2.74259	1.17447	2.98348	-23.1824	6.10462	0.266836	0.0231999	42.8417	6.63906	1	9	0.00518376	0.00173749	0	7.60465e-05	-0.000241567	7.67433e-06	-41.61	0.00441691	0.00330245	0.00293308	-23.2091	2.98767	2.74589	1.17741	0.308115	0.131946	0.335179	23.1824	6639.06	15503.3	16865	-66.8176	0.0000000E+000	0.0000000E+000	0.0000000E+000	66.8176	0.0000000E+000	0.0000000E+000	0.0000000E+000	-66.8176	0.0000000E+000	0.0000000E+000	0.0000000E+000	-23.1824	0.0000000E+000	0.0000000E+000	0.0000000E+000	23.1824	2.33516	66.8176	4.57806e-06	6.19057e-06	-5.60432e-09	6.19617e-06	0.267078	11501.6	10.4124	11512
1000.32	3.63037	1.84259	4.0712	-26.9101	7.70478	0.266869	-0.00158072	86.3479	17.6874	1	10	0.00542845	0.00133338	0	8.14825e-05	-3.14885e-05	1.06973e-05	88.0167	0.00802275	0.000277652	-0.00801794	-26.8076	4.06783	3.63064	1.83457	0.219031	0.111169	0.245628	26.9101	17687.4	34848.6	39080.3	-63.0899	0.0000000E+000	0.0000000E+000	0.0000000E+000	63.0899	0.0000000E+000	0.0000000E+000	0.0000000E+000	-63.0899	0.0000000E+000	0.0000000E+000	0.0000000E+000	-26.9101	0.0000000E+000	0.0000000E+000	0.0000000E+000	26.9101	1.97025	63.0899	-8.72884e-07	-4.21844e-07	4.97744e-11	-4.21894e-07	0.2669	168828	19.9204	168848
316.316	5.01375	3.21994	5.95867	-32.7094	9.055	0.266858	-0.00120807	156.261	45.6298	1	10	0.00516426	0.000866681	0	8.2197e-05	-8.87826e-05	9.75377e-06	-112.165	0.0112542	-0.00424594	0.0104225	-32.8158	5.96074	5.00951	3.23036	0.14121	0.0906879	0.167823	32.7094	45629.8	71049.9	84440.3	-57.2906	0.0000000E+000	0.0000000E+000	0.0000000E+000	57.2906	0.0000000E+000	0.0000000E+000	0.0000000E+000	-57.2906	0.0000000E+000	0.0000000E+000	0.0000000E+000	-32.7094	0.0000000E+000	0.0000000E+000	0.0000000E+000	32.7094	1.5571	57.2906	5.86076e-07	-3.22383e-07	1.07256e-10	-3.2249e-07	0.266947	220896	73.4914	220970
100.032	8.22003	5.47375	9.87577	-33.6598	10.4018	0.26687	-0.00131615	290.667	89.2944	1	10	0.00507128	0.000513507	0	8.15926e-05	-0.000146077	6.15908e-06	17.4775	0.0119941	0.0114404	-0.00360221	-33.6057	9.8833	8.23147	5.47015	0.0842813	0.0561233	0.101258	33.6598	89294.4	134095	161105	-56.3402	0.0000000E+000	0.0000000E+000	0.0000000E+000	56.3402	0.0000000E+000	0.0000000E+000	0.0000000E+000	-56.3402	0.0000000E+000	0.0000000E+000	0.0000000E+000	-33.6598	0.0000000E+000	0.0000000E+000	0.0000000E+000	33.6598	1.50172	56.3402	3.30638e-07	-3.51242e-07	1.92259e-10	-3.51434e-07	0.267016	202765	110.988	202876
31.6296	13.6989	6.29852	15.0775	-24.6922	11.7305	0.266859	-0.00329123	798.893	139.415	1	10	0.00505578	0.000335321	0	8.1564e-05	0.000140394	4.34601e-06	45.0405	0.0129608	0.00915818	-0.00917113	-24.646	15.082	13.708	6.28935	0.0602598	0.0277065	0.0663241	24.6922	139415	303218	333733	-65.3078	0.0000000E+000	0.0000000E+000	0.0000000E+000	65.3078	0.0000000E+000	0.0000000E+000	0.0000000E+000	-65.3078	0.0000000E+000	0.0000000E+000	0.0000000E+000	-24.6922	0.0000000E+000	0.0000000E+000	0.0000000E+000	24.6922	2.17493	65.3078	1.78263e-07	-8.78295e-07	-4.62069e-10	-8.77833e-07	0.266719	81081.8	42.6569	81039.1
10.0032	18.3681	4.91375	19.014	-14.9768	13.2948	0.266856	-0.0034755	3237.93	216.246	1	11	0.00505297	0.00026575	0	8.09905e-05	-0.000337057	1.02949e-05	111.883	0.0387392	-0.0144384	-0.035948	-14.8833	18.9908	18.3536	4.8778	0.0508063	0.0135915	0.0525929	14.9768	216246	808349	836774	-75.0232	0.0000000E+000	0.0000000E+000	0.0000000E+000	75.0232	0.0000000E+000	0.0000000E+000	0.0000000E+000	-75.0232	0.0000000E+000	0.0000000E+000	0.0000000E+000	-14.9768	0.0000000E+000	0.0000000E+000	0.0000000E+000	14.9768	3.7381	75.0232	-1.9852e-06	-9.27457e-07	1.17144e-09	-9.28628e-07	0.267193	76782.1	96.981	76879.1
3.1604	21.3428	3.38888	21.6102	-9.02229	14.8114	0.26686	-0.00286424	14860.1	365.442	1	11	0.00506322	0.000234298	0	7.7484e-05	0.000159492	7.04929e-06	28.4087	0.0300868	0.0264637	-0.014314	-8.97386	21.6341	21.3693	3.37456	0.045702	0.00725671	0.0462745	9.02229	365442	2.30151e+06	2.33035e+06	-80.9777	0.0000000E+000	0.0000000E+000	0.0000000E+000	80.9777	0.0000000E+000	0.0000000E+000	0.0000000E+000	-80.9777	0.0000000E+000	0.0000000E+000	0.0000000E+000	-9.02229	0.0000000E+000	0.0000000E+000	0.0000000E+000	9.02229	6.2979	80.9777	-3.57401e-06	-7.64349e-07	-4.56822e-10	-7.63893e-07	0.2667	93169.6	55.6839	93113.9
1.00006	23.1434	2.35201	23.2626	-5.8029	20.4498	0.266873	-0.00239725	67663.4	691.694	1	12	0.00505551	0.000217323	0	8.58019e-05	0.000102198	5.19039e-06	-43.0972	0.0238833	0.0174394	0.0163179	-5.83852	23.2816	23.1608	2.36832	0.0427671	0.00434632	0.0429874	5.8029	691694	6.80617e+06	6.84122e+06	-84.1971	0.0000000E+000	0.0000000E+000	0.0000000E+000	84.1971	0.0000000E+000	0.0000000E+000	0.0000000E+000	-84.1971	0.0000000E+000	0.0000000E+000	0.0000000E+000	-5.8029	0.0000000E+000	0.0000000E+000	0.0000000E+000	5.8029	9.83986	84.1971	5.40806e-06	-6.39761e-07	-2.44994e-10	-6.39516e-07	0.266771	111325	42.6312	111282
0.316193	24.2426	2.10449	24.3338	-4.96139	34.7922	0.266869	-0.000545636	239178	1788.94	1	12	0.00505818	0.000207866	0	6.09684e-05	2.58056e-05	8.91942e-07	55.2881	0.00429094	0.00244347	-0.00352726	-4.95262	24.3359	24.2451	2.10097	0.0409411	0.00355408	0.0410951	4.96139	1.78894e+06	2.06076e+07	2.06851e+07	-85.0386	0.0000000E+000	0.0000000E+000	0.0000000E+000	85.0386	0.0000000E+000	0.0000000E+000	0.0000000E+000	-85.0386	0.0000000E+000	0.0000000E+000	0.0000000E+000	-4.96139	0.0000000E+000	0.0000000E+000	0.0000000E+000	4.96139	11.5195	85.0386	-1.86639e-05	-1.45613e-07	-1.40805e-11	-1.45599e-07	0.266843	489096	47.2945	489049
0.0999041	25.4356	3.31478	25.6506	-7.42499	80.0011	0.266864	-0.00275056	480598	8025.94	1	12	0.00505911	0.000197231	0	-5.57323e-06	0.000350472	2.14406e-06	-20.6079	0.0108708	0.0101752	0.0038262	-7.43052	25.6612	25.4457	3.31861	0.0386585	0.00503801	0.0389854	7.42499	8.02593e+06	6.1586e+07	6.21067e+07	-82.575	0.0000000E+000	0.0000000E+000	0.0000000E+000	82.575	0.0000000E+000	0.0000000E+000	0.0000000E+000	-82.575	0.0000000E+000	0.0000000E+000	0.0000000E+000	-7.42499	0.0000000E+000	0.0000000E+000	0.0000000E+000	7.42499	7.67337	82.575	-1.04735e-05	-7.34024e-07	-9.63994e-10	-7.3306e-07	0.266513	97021.7	127.419	96894.3
0.0315922	27.4693	6.62252	28.2564	-13.5547	222.884	0.26687	-4.77054e-05	760706	41786	1	12	0.00505518	0.000178904	0	0.000246242	0.000121296	9.31085e-07	-55.7671	0.00520438	0.00292777	0.00430277	-13.5617	28.2602	27.4723	6.62683	0.0344045	0.00829451	0.0353902	13.5547	4.1786e+07	1.73323e+08	1.78289e+08	-76.4454	0.0000000E+000	0.0000000E+000	0.0000000E+000	76.4454	0.0000000E+000	0.0000000E+000	0.0000000E+000	-76.4454	0.0000000E+000	0.0000000E+000	0.0000000E+000	-13.5547	0.0000000E+000	0.0000000E+000	0.0000000E+000	13.5547	4.14787	76.4454	0.000136968	-1.27311e-08	-5.78646e-12	-1.27254e-08	0.266749	5.59414e+06	2542.6	5.59159e+06
0.0100092	31.2072	15.199	34.7117	-25.9676	674.106	0.266867	0.000509857	1.04618e+06	200579	1	12	0.00505784	0.00014571	0	-7.84873e-05	0.000159492	3.70872e-06	-47.1658	0.0254527	0.0173048	0.0186651	-25.9828	34.7354	31.2245	15.2176	0.0259003	0.0126143	0.0288088	25.9676	2.00579e+08	4.11838e+08	4.58086e+08	-64.0324	0.0000000E+000	0.0000000E+000	0.0000000E+000	64.0324	0.0000000E+000	0.0000000E+000	0.0000000E+000	-64.0324	0.0000000E+000	0.0000000E+000	0.0000000E+000	-25.9676	0.0000000E+000	0.0000000E+000	0.0000000E+000	25.9676	2.05325	64.0324	-0.000349103	1.36064e-07	8.13181e-11	1.35983e-07	0.266707	523415	312.817	523102