File: txt/19069_R307_UA701_4p38_SOC00_C07.mpt
EC-Lab ASCII FILE
Nb header lines : 65

Potentio Electrochemical Impedance Spectroscopy

Run on channel : 7 (SN 66126)
Grouped channel(s) : 6, 7, 8
User :
CE vs. WE compliance from -10 V to 10 V
Electrode connection : standard
Potential control : Ewe
Ewe ctrl range : min = -10.00 V, max = 10.00 V
Safety Limits :
	Do not start on E overload
Acquisition started on : 11/12/2025 10:26:23.601
Loaded Setting File :  C:\Users\Celltest\OneDrive - store-dot.com\Documents\EC-Lab\Data\@Biologic Test Protocols\anode half cell EIS SOC00.mps
Saved on :
	File : 19067_R307_UA701_4p38_SOC00_C07.mpr
	Directory : C:\Users\Celltest\OneDrive - store-dot.com\Documents\EC-Lab\Data\Anna\
	Host : 169.254.61.224
Device : VMP-3e (SN .003165)
Address : USB
EC-LAB for windows v11.62 (software)
Internet server v27.00 (firmware)
Command interpretor v12.03 (firmware)
Electrode material :
Initial state :
Electrolyte :
Comments :
Electrode surface area : 0.001 cm²
Characteristic mass : 0.001 g
Equivalent Weight : 0.000 g/eq.
Density : 0.000 g/cm3
Volume (V) : 0.001 cm³
Record Ece
Cycle Definition : Charge/Discharge alternance
Mode                Single sine
E (V)               0.0000
vs.                 Eoc
tE (h:m:s)          0:00:0.0000
record              0
dI                  0.000
unit dI             mA
dt (s)              0.000
fi                  100.000
unit fi             kHz
ff                  10.000
unit ff             mHz
Nd                  6
Points              per decade
spacing             Logarithmic
Va (mV)             5.0
pw                  0.10
Na                  2
corr                0
E range min (V)     -10.000
E range max (V)     10.000
I Range             Auto
Bandwidth           5
nc cycles           0
goto Ns'            0
nr cycles           0
inc. cycle          0

freq/Hz	Re(Z)/Ohm	-Im(Z)/Ohm	|Z|/Ohm	Phase(Z)/deg	time/s	<Ewe>/V	<I>/mA	Cs/µF	Cp/µF	cycle number	I Range	|Ewe|/V	|I|/A	Ns	(Q-Qo)/mA.h	<Ece>/V	|Ece|/V	Phase(Zce)/deg	|Zce|/Ohm	Re(Zce)/Ohm	-Im(Zce)/Ohm	Phase(Zwe-ce)/deg	|Zwe-ce|/Ohm	Re(Zwe-ce)/Ohm	-Im(Zwe-ce)/Ohm	Re(Y)/Ohm-1	Im(Y)/Ohm-1	|Y|/Ohm-1	Phase(Y)/deg	Re(C)/nF	Im(C)/nF	|C|/nF	Phase(C)/deg	Re(M)	Im(M)	|M|	Phase(M)/deg	Re(Permittivity)	Im(Permittivity)	|Permittivity|	Phase(Permittivity)/deg	Re(Resistivity)/Ohm.cm	Im(Resistivity)/Ohm.cm	|Resistivity|/Ohm.cm	Phase(Resistivity)/deg	Re(Conductivity)/mS/cm	Im(Conductivity)/mS/cm	|Conductivity|/mS/cm	Phase(Conductivity)/deg	Tan(Delta)	Loss Angle(Delta)/deg	dq/mA.h	Pwe/W	Pce/W	Pwe-ce/W	<Ewe-Ece>/V	Rwe/Ohm	Rce/Ohm	Rwe-ce/Ohm		Ewe-Ece/V
100004	0.984539	0.381929	1.05602	-21.2026	1.72556	0.261687	0.0575371	4.16699	0.545053	1	9	0.00488297	0.00462392	0	4.53512e-07	-0.000120486	4.90415e-05	92.8705	0.010606	-0.000531129	-0.0105927	-20.675	1.05174	0.984008	0.371336	0.882847	0.342479	0.946948	21.2026	545.053	1405.04	1507.06	-68.7974	0.0000000E+000	0.0000000E+000	0.0000000E+000	68.7974	0.0000000E+000	0.0000000E+000	0.0000000E+000	-68.7974	0.0000000E+000	0.0000000E+000	0.0000000E+000	-21.2026	0.0000000E+000	0.0000000E+000	0.0000000E+000	21.2026	2.57781	68.7974	4.53512e-07	1.50567e-05	-6.93243e-09	1.50637e-05	0.261808	4548.15	2.09406	4550.24
31621.1	1.33155	0.541471	1.43743	-22.129	3.24655	0.261704	0.0545209	9.29538	1.31899	1	9	0.0050755	0.00353095	0	5.37181e-05	-0.000368467	2.31757e-05	38.3036	0.00656359	0.00515069	-0.00406829	-21.902	1.44068	1.3367	0.537403	0.644439	0.26206	0.695684	22.129	1318.99	3243.58	3501.51	-67.871	0.0000000E+000	0.0000000E+000	0.0000000E+000	67.871	0.0000000E+000	0.0000000E+000	0.0000000E+000	-67.871	0.0000000E+000	0.0000000E+000	0.0000000E+000	-22.129	0.0000000E+000	0.0000000E+000	0.0000000E+000	22.129	2.45913	67.871	2.50735e-05	1.42684e-05	-2.00892e-08	1.42885e-05	0.262073	4800.07	6.75826	4806.83
10002.2	1.73822	0.719143	1.88111	-22.4761	4.39552	0.261696	0.0498292	22.1263	3.23379	1	9	0.00488998	0.00259952	0	6.31757e-05	-0.000444768	3.99683e-06	-124.722	0.00153753	-0.000875757	0.00126374	-22.5219	1.88078	1.73734	0.720407	0.491221	0.20323	0.531602	22.4761	3233.79	7816.28	8458.82	-67.5239	0.0000000E+000	0.0000000E+000	0.0000000E+000	67.5239	0.0000000E+000	0.0000000E+000	0.0000000E+000	-67.5239	0.0000000E+000	0.0000000E+000	0.0000000E+000	-22.4761	0.0000000E+000	0.0000000E+000	0.0000000E+000	22.4761	2.41707	67.5239	9.38075e-06	1.30401e-05	-2.21624e-08	1.30623e-05	0.262141	5251.87	8.92586	5260.8
3163.08	2.28075	1.04769	2.50987	-24.6724	5.42267	0.261454	-0.0483251	48.0259	8.36836	1	9	0.00483661	0.00192703	0	6.83493e-05	7.0268e-05	1.01487e-05	-8.96252	0.00526649	0.00520219	0.000820458	-24.6399	2.51494	2.28595	1.04851	0.362054	0.166315	0.398426	24.6724	8368.36	18217.3	20047.4	-65.3276	0.0000000E+000	0.0000000E+000	0.0000000E+000	65.3276	0.0000000E+000	0.0000000E+000	0.0000000E+000	-65.3276	0.0000000E+000	0.0000000E+000	0.0000000E+000	-24.6724	0.0000000E+000	0.0000000E+000	0.0000000E+000	24.6724	2.17692	65.3276	-3.84061e-06	-1.26348e-05	-3.39571e-09	-1.26314e-05	0.261383	5410.3	1.45407	5408.85
1000.32	3.04776	1.66241	3.47167	-28.6104	7.0218	0.261613	-0.0170458	95.7068	21.9454	1	10	0.00484478	0.00139552	0	8.85728e-05	-0.000177712	9.4564e-06	-78.9049	0.00677626	0.00130401	0.0066496	-28.6963	3.476	3.04907	1.66906	0.252875	0.137931	0.288046	28.6104	21945.4	40233.4	45829.3	-61.3896	0.0000000E+000	0.0000000E+000	0.0000000E+000	61.3896	0.0000000E+000	0.0000000E+000	0.0000000E+000	-61.3896	0.0000000E+000	0.0000000E+000	0.0000000E+000	-28.6104	0.0000000E+000	0.0000000E+000	0.0000000E+000	28.6104	1.83334	61.3896	2.92682e-06	-4.4594e-06	3.02924e-09	-4.46243e-06	0.261791	15347.7	10.4256	15358.1
316.316	4.33473	3.00827	5.27632	-34.7603	8.371	0.261608	-0.0171984	167.256	54.3693	1	10	0.00474731	0.000899738	0	8.29181e-05	-0.000158637	5.5739e-06	-28.1889	0.00619503	0.00546026	0.00292641	-34.7527	5.28247	4.34019	3.01119	0.155704	0.108057	0.189526	34.7603	54369.2	78342.7	95360.4	-55.2397	0.0000000E+000	0.0000000E+000	0.0000000E+000	55.2397	0.0000000E+000	0.0000000E+000	0.0000000E+000	-55.2397	0.0000000E+000	0.0000000E+000	0.0000000E+000	-34.7603	0.0000000E+000	0.0000000E+000	0.0000000E+000	34.7603	1.44094	55.2397	-2.31828e-06	-4.49923e-06	2.7283e-09	-4.50196e-06	0.261766	15211.2	9.22395	15220.4
100.032	7.48073	4.97994	8.98672	-33.6518	9.7178	0.261611	-0.017191	319.49	98.1077	1	10	0.00472877	0.000526196	0	7.57943e-05	-0.000292165	4.44972e-06	15.8606	0.0084564	0.00813445	-0.00231112	-33.6109	8.99221	7.48886	4.97763	0.0926278	0.0616626	0.111275	33.6518	98107.7	147375	177043	-56.3482	0.0000000E+000	0.0000000E+000	0.0000000E+000	56.3482	0.0000000E+000	0.0000000E+000	0.0000000E+000	-56.3482	0.0000000E+000	0.0000000E+000	0.0000000E+000	-33.6518	0.0000000E+000	0.0000000E+000	0.0000000E+000	33.6518	1.50217	56.3482	-1.36792e-06	-4.49735e-06	5.0226e-09	-4.50237e-06	0.261904	15218	16.9953	15235
31.6296	12.3115	5.17642	13.3555	-22.8045	11.0465	0.261609	-0.0206531	972.07	146.028	1	10	0.00472301	0.000353638	0	7.01264e-05	-0.000234939	2.73899e-06	13.2632	0.00774517	0.00753858	-0.00177693	-22.7849	13.3618	12.3191	5.17464	0.0690228	0.0290208	0.0748755	22.8045	146028	347312	376762	-67.1955	0.0000000E+000	0.0000000E+000	0.0000000E+000	67.1955	0.0000000E+000	0.0000000E+000	0.0000000E+000	-67.1955	0.0000000E+000	0.0000000E+000	0.0000000E+000	-22.8045	0.0000000E+000	0.0000000E+000	0.0000000E+000	22.8045	2.37839	67.1955	-1.84184e-06	-5.40305e-06	4.85222e-09	-5.4079e-06	0.261844	12666.8	11.3755	12678.2
10.0032	15.8366	3.76042	16.2769	-13.3576	12.6278	0.261646	-0.0045365	4231.02	225.825	1	11	0.00470865	0.000289284	0	6.72154e-05	-4.41845e-05	8.13401e-06	-59.0668	0.0281178	0.0144536	0.0241185	-13.4283	16.2966	15.8511	3.78454	0.0597746	0.0141936	0.0614366	13.3576	225825	951038	977481	-76.6424	0.0000000E+000	0.0000000E+000	0.0000000E+000	76.6424	0.0000000E+000	0.0000000E+000	0.0000000E+000	-76.6424	0.0000000E+000	0.0000000E+000	0.0000000E+000	-13.3576	0.0000000E+000	0.0000000E+000	0.0000000E+000	13.3576	4.21139	76.6424	-1.40193e-06	-1.18696e-06	2.00443e-10	-1.18716e-06	0.26169	57675.8	9.73978	57685.5
3.1604	17.9931	2.53655	18.171	-8.02432	14.1445	0.261654	-0.00314563	19853.4	386.87	1	11	0.00471418	0.000259434	0	6.83388e-05	-0.000368467	4.46585e-06	-55.5124	0.0172138	0.00974694	0.0141885	-8.0643	18.1826	18.0028	2.55074	0.0544939	0.00768221	0.0550327	8.02432	386869	2.74427e+06	2.7714e+06	-81.9757	0.0000000E+000	0.0000000E+000	0.0000000E+000	81.9757	0.0000000E+000	0.0000000E+000	0.0000000E+000	-81.9757	0.0000000E+000	0.0000000E+000	0.0000000E+000	-8.02432	0.0000000E+000	0.0000000E+000	0.0000000E+000	8.02432	7.09352	81.9757	-6.20835e-07	-8.23068e-07	1.15906e-09	-8.24227e-07	0.262023	83180.1	117.136	83297.3
1.00006	19.3143	1.79957	19.398	-5.32305	19.782	0.26166	-0.00304557	88434.7	761.112	1	12	0.00471725	0.000243182	0	5.43577e-05	-0.000158637	4.56848e-06	-33.7643	0.0187862	0.0156176	0.010441	-5.34945	19.4145	19.33	1.81002	0.0513294	0.00478251	0.0515517	5.32305	761112	8.16881e+06	8.20419e+06	-84.6769	0.0000000E+000	0.0000000E+000	0.0000000E+000	84.6769	0.0000000E+000	0.0000000E+000	0.0000000E+000	-84.6769	0.0000000E+000	0.0000000E+000	0.0000000E+000	-5.32305	0.0000000E+000	0.0000000E+000	0.0000000E+000	5.32305	10.7327	84.6769	-3.06045e-06	-7.96903e-07	4.8314e-10	-7.97386e-07	0.261818	85914.9	52.0878	85967
0.316193	20.153	1.74686	20.2286	-4.954	34.1269	0.261663	-0.0016976	288144	2148.79	1	12	0.00471994	0.00023333	0	8.15461e-05	-0.000292165	9.28976e-07	20.6221	0.00398138	0.00372627	-0.00140225	-4.94914	20.2322	20.1568	1.74546	0.0492503	0.00426901	0.049435	4.954	2.14879e+06	2.479e+07	2.4883e+07	-85.046	0.0000000E+000	0.0000000E+000	0.0000000E+000	85.046	0.0000000E+000	0.0000000E+000	0.0000000E+000	-85.046	0.0000000E+000	0.0000000E+000	0.0000000E+000	-4.954	0.0000000E+000	0.0000000E+000	0.0000000E+000	4.954	11.5367	85.046	1.13633e-05	-4.442e-07	4.9598e-10	-4.44696e-07	0.261955	154137	172.105	154309
0.0999041	21.0711	2.9921	21.2825	-8.08197	79.3362	0.261668	0.000539055	532428	10523.7	1	12	0.00472098	0.000221824	0	3.32025e-06	-0.000406618	2.33504e-06	-37.1147	0.0105265	0.00839415	0.00635184	-8.09571	21.2917	21.0795	2.99845	0.0465202	0.00660587	0.0469869	8.08197	1.05237e+07	7.41103e+07	7.48538e+07	-81.918	0.0000000E+000	0.0000000E+000	0.0000000E+000	81.918	0.0000000E+000	0.0000000E+000	0.0000000E+000	-81.918	0.0000000E+000	0.0000000E+000	0.0000000E+000	-8.08197	0.0000000E+000	0.0000000E+000	0.0000000E+000	8.08197	7.04226	81.918	-5.64294e-05	1.41053e-07	-2.19189e-10	1.41272e-07	0.262074	485420	754.316	486174
0.0315922	23.0128	6.41442	23.89	-15.5749	222.22	0.261675	-0.00184871	785385	56619.4	1	12	0.00472192	0.000197652	0	-0.000173397	-0.000120486	1.34879e-06	8.80792	0.00682408	0.0067436	-0.00104492	-15.5682	23.8962	23.0195	6.41338	0.0403215	0.0112389	0.0418585	15.5749	5.66194e+07	2.03131e+08	2.10874e+08	-74.4251	0.0000000E+000	0.0000000E+000	0.0000000E+000	74.4251	0.0000000E+000	0.0000000E+000	0.0000000E+000	-74.4251	0.0000000E+000	0.0000000E+000	0.0000000E+000	-15.5749	0.0000000E+000	0.0000000E+000	0.0000000E+000	15.5749	3.58766	74.4251	-1.0125e-05	-4.83762e-07	2.22745e-10	-4.83985e-07	0.261796	141544	65.173	141610
0.0100092	26.7424	14.4718	30.407	-28.4203	673.443	0.261667	0.000187268	1.09875e+06	248884	1	12	0.00472077	0.000155252	0	0.000658085	-0.000406618	2.66914e-06	49.8345	0.0171923	0.011089	-0.0131381	-28.3886	30.4106	26.7535	14.4587	0.0289236	0.0156522	0.0328871	28.4203	2.48884e+08	4.59911e+08	5.22935e+08	-61.5797	0.0000000E+000	0.0000000E+000	0.0000000E+000	61.5797	0.0000000E+000	0.0000000E+000	0.0000000E+000	-61.5797	0.0000000E+000	0.0000000E+000	0.0000000E+000	-28.4203	0.0000000E+000	0.0000000E+000	0.0000000E+000	28.4203	1.84789	61.5797	0.000352157	4.90018e-08	-7.61464e-11	4.90779e-08	0.262073	1.39728e+06	2171.31	1.39946e+06