File: txt/19064_R307_UA701_3p24_SOC00_C03.mpt
EC-Lab ASCII FILE
Nb header lines : 65

Potentio Electrochemical Impedance Spectroscopy

Run on channel : 3 (SN 65921)
Grouped channel(s) : 1, 2, 3, 4, 5
User :
CE vs. WE compliance from -10 V to 10 V
Electrode connection : standard
Potential control : Ewe
Ewe ctrl range : min = -10.00 V, max = 10.00 V
Safety Limits :
	Do not start on E overload
Acquisition started on : 11/12/2025 10:25:43.761
Loaded Setting File :  C:\Users\Celltest\OneDrive - store-dot.com\Documents\EC-Lab\Data\@Biologic Test Protocols\anode half cell EIS SOC00.mps
Saved on :
	File : 19062_R307_UA701_3p24_SOC00_C03.mpr
	Directory : C:\Users\Celltest\OneDrive - store-dot.com\Documents\EC-Lab\Data\Anna\
	Host : 169.254.61.224
Device : VMP-3e (SN .003165)
Address : USB
EC-LAB for windows v11.62 (software)
Internet server v27.00 (firmware)
Command interpretor v12.03 (firmware)
Electrode material :
Initial state :
Electrolyte :
Comments :
Electrode surface area : 0.001 cm²
Characteristic mass : 0.001 g
Equivalent Weight : 0.000 g/eq.
Density : 0.000 g/cm3
Volume (V) : 0.001 cm³
Record Ece
Cycle Definition : Charge/Discharge alternance
Mode                Single sine
E (V)               0.0000
vs.                 Eoc
tE (h:m:s)          0:00:0.0000
record              0
dI                  0.000
unit dI             mA
dt (s)              0.000
fi                  100.000
unit fi             kHz
ff                  10.000
unit ff             mHz
Nd                  6
Points              per decade
spacing             Logarithmic
Va (mV)             5.0
pw                  0.10
Na                  2
corr                0
E range min (V)     -10.000
E range max (V)     10.000
I Range             Auto
Bandwidth           5
nc cycles           0
goto Ns'            0
nr cycles           0
inc. cycle          0

freq/Hz	Re(Z)/Ohm	-Im(Z)/Ohm	|Z|/Ohm	Phase(Z)/deg	time/s	<Ewe>/V	<I>/mA	Cs/µF	Cp/µF	cycle number	I Range	|Ewe|/V	|I|/A	Ns	(Q-Qo)/mA.h	<Ece>/V	|Ece|/V	Phase(Zce)/deg	|Zce|/Ohm	Re(Zce)/Ohm	-Im(Zce)/Ohm	Phase(Zwe-ce)/deg	|Zwe-ce|/Ohm	Re(Zwe-ce)/Ohm	-Im(Zwe-ce)/Ohm	Re(Y)/Ohm-1	Im(Y)/Ohm-1	|Y|/Ohm-1	Phase(Y)/deg	Re(C)/nF	Im(C)/nF	|C|/nF	Phase(C)/deg	Re(M)	Im(M)	|M|	Phase(M)/deg	Re(Permittivity)	Im(Permittivity)	|Permittivity|	Phase(Permittivity)/deg	Re(Resistivity)/Ohm.cm	Im(Resistivity)/Ohm.cm	|Resistivity|/Ohm.cm	Phase(Resistivity)/deg	Re(Conductivity)/mS/cm	Im(Conductivity)/mS/cm	|Conductivity|/mS/cm	Phase(Conductivity)/deg	Tan(Delta)	Loss Angle(Delta)/deg	dq/mA.h	Pwe/W	Pce/W	Pwe-ce/W	<Ewe-Ece>/V	Rwe/Ohm	Rce/Ohm	Rwe-ce/Ohm		Ewe-Ece/V
100004	0.989185	0.413695	1.07221	-22.6956	1.72554	0.262687	0.0115174	3.84701	0.572699	1	9	0.00501717	0.00467929	0	2.61514e-06	-0.000244628	4.31708e-05	94.7495	0.00922594	-0.000763901	-0.00919426	-22.2563	1.06799	0.988421	0.404501	0.860437	0.359851	0.932655	22.6956	572.699	1369.38	1484.31	-67.3044	0.0000000E+000	0.0000000E+000	0.0000000E+000	67.3044	0.0000000E+000	0.0000000E+000	0.0000000E+000	-67.3044	0.0000000E+000	0.0000000E+000	0.0000000E+000	-22.6956	0.0000000E+000	0.0000000E+000	0.0000000E+000	22.6956	2.3911	67.3044	2.61514e-06	3.02546e-06	-2.81747e-09	3.02828e-06	0.262932	22807.9	21.24	22829.2
31621.1	1.33565	0.542858	1.44175	-22.1187	3.24652	0.262683	0.0290826	9.27163	1.31446	1	9	0.0051235	0.00355366	0	9.30533e-06	9.90647e-05	1.4642e-05	52.6793	0.00412026	0.00249801	-0.00327666	-21.9608	1.44284	1.33815	0.539581	0.642555	0.261158	0.693599	22.1187	1314.46	3234.09	3491.01	-67.8813	0.0000000E+000	0.0000000E+000	0.0000000E+000	67.8813	0.0000000E+000	0.0000000E+000	0.0000000E+000	-67.8813	0.0000000E+000	0.0000000E+000	0.0000000E+000	-22.1187	0.0000000E+000	0.0000000E+000	0.0000000E+000	22.1187	2.4604	67.8813	-7.84989e-06	7.6395e-06	2.88106e-09	7.63662e-06	0.262584	9032.31	3.40632	9028.9
10002.2	1.74859	0.723263	1.89226	-22.4713	4.27154	0.262691	0.0235631	22.0002	3.21408	1	9	0.00486167	0.00256923	0	3.11655e-05	-3.45937e-05	9.28327e-06	-133.924	0.00361325	-0.00250652	0.00260248	-22.5732	1.89095	1.74608	0.725866	0.488341	0.201992	0.528468	22.4713	3214.08	7770.47	8408.95	-67.5287	0.0000000E+000	0.0000000E+000	0.0000000E+000	67.5287	0.0000000E+000	0.0000000E+000	0.0000000E+000	-67.5287	0.0000000E+000	0.0000000E+000	0.0000000E+000	-22.4713	0.0000000E+000	0.0000000E+000	0.0000000E+000	22.4713	2.41763	67.5287	3.09692e-06	6.18982e-06	-8.15136e-10	6.19063e-06	0.262725	11148.4	1.46813	11149.8
3163.08	2.26231	1.07044	2.50278	-25.3217	5.29467	0.26244	-0.0679926	47.0054	8.59858	1	9	0.00486064	0.0019421	0	2.56105e-05	-0.000263722	1.01127e-05	-65.2998	0.00520708	0.00217589	0.00473067	-25.3982	2.50677	2.26449	1.07517	0.361167	0.17089	0.399556	25.3217	8598.58	18172.6	20104.2	-64.6783	0.0000000E+000	0.0000000E+000	0.0000000E+000	64.6783	0.0000000E+000	0.0000000E+000	0.0000000E+000	-64.6783	0.0000000E+000	0.0000000E+000	0.0000000E+000	-25.3217	0.0000000E+000	0.0000000E+000	0.0000000E+000	25.3217	2.11344	64.6783	-6.76356e-06	-1.7844e-05	1.79312e-08	-1.78619e-05	0.262704	3859.83	3.87869	3863.71
1000.32	2.98029	1.83564	3.50024	-31.6301	6.8928	0.262605	-0.0199986	86.6748	23.8382	1	10	0.00487896	0.00139389	0	4.09025e-05	4.17825e-05	6.80975e-06	-2.83546	0.00488542	0.00487944	0.000241672	-31.5916	3.50452	2.98517	1.83589	0.243255	0.149828	0.285695	31.6301	23838.2	38702.9	45455.1	-58.3699	0.0000000E+000	0.0000000E+000	0.0000000E+000	58.3699	0.0000000E+000	0.0000000E+000	0.0000000E+000	-58.3699	0.0000000E+000	0.0000000E+000	0.0000000E+000	-31.6301	0.0000000E+000	0.0000000E+000	0.0000000E+000	31.6301	1.62356	58.3699	2.40648e-06	-5.25174e-06	-8.35593e-10	-5.25091e-06	0.262564	13131.2	2.08927	13129.1
316.316	4.40785	3.614	5.70002	-39.3484	8.24203	0.262609	-0.0150877	139.223	55.9674	1	10	0.0047581	0.000834753	0	3.34801e-05	2.26885e-05	1.03797e-05	-8.39069	0.0124345	0.0123014	0.00181446	-39.2842	5.71068	4.42016	3.61582	0.135667	0.111234	0.175438	39.3484	55967.4	68261.2	88272	-50.6516	0.0000000E+000	0.0000000E+000	0.0000000E+000	50.6516	0.0000000E+000	0.0000000E+000	0.0000000E+000	-50.6516	0.0000000E+000	0.0000000E+000	0.0000000E+000	-39.3484	0.0000000E+000	0.0000000E+000	0.0000000E+000	39.3484	1.21966	50.6516	-1.74799e-06	-3.96215e-06	-3.42317e-10	-3.96181e-06	0.262586	17405.5	1.50378	17404
100.032	8.25166	6.23027	10.3395	-37.054	9.5888	0.262614	-0.0192268	255.372	92.7225	1	10	0.00472019	0.000456518	0	2.7919e-05	0.000137253	7.2649e-06	-27.1595	0.0159137	0.0141591	0.00726411	-37.0389	10.3552	8.26582	6.23754	0.077186	0.0582779	0.096716	37.054	92722.5	122806	153879	-52.946	0.0000000E+000	0.0000000E+000	0.0000000E+000	52.946	0.0000000E+000	0.0000000E+000	0.0000000E+000	-52.946	0.0000000E+000	0.0000000E+000	0.0000000E+000	-37.054	0.0000000E+000	0.0000000E+000	0.0000000E+000	37.054	1.32445	52.946	-2.70613e-06	-5.04922e-06	-2.63893e-09	-5.04658e-06	0.262477	13658.8	7.13864	13651.7
31.6296	14.4083	6.68465	15.8835	-24.8886	10.9176	0.262603	-0.0222509	752.746	133.326	1	10	0.00472203	0.000297292	0	2.08335e-05	-0.000149158	1.1814e-05	-49.5008	0.0397386	0.0258078	0.0302178	-24.9482	15.9196	14.4342	6.71486	0.0571114	0.0264964	0.0629585	24.8886	133326	287376	316797	-65.1114	0.0000000E+000	0.0000000E+000	0.0000000E+000	65.1114	0.0000000E+000	0.0000000E+000	0.0000000E+000	-65.1114	0.0000000E+000	0.0000000E+000	0.0000000E+000	-24.8886	0.0000000E+000	0.0000000E+000	0.0000000E+000	24.8886	2.15544	65.1114	-2.86498e-06	-5.84314e-06	3.3189e-09	-5.84646e-06	0.262752	11801.9	6.70347	11808.6
10.0032	19.0865	4.91602	19.7094	-14.4435	12.4818	0.262639	-0.00808457	3236.44	201.348	1	11	0.00472278	0.000239621	0	1.54574e-05	6.08766e-05	6.57539e-06	47.3611	0.0274408	0.0185878	-0.0201865	-14.3732	19.7224	19.105	4.89583	0.0491336	0.0126551	0.0507372	14.4435	201348	781736	807249	-75.5565	0.0000000E+000	0.0000000E+000	0.0000000E+000	75.5565	0.0000000E+000	0.0000000E+000	0.0000000E+000	-75.5565	0.0000000E+000	0.0000000E+000	0.0000000E+000	-14.4435	0.0000000E+000	0.0000000E+000	0.0000000E+000	14.4435	3.8825	75.5565	1.72288e-07	-2.12333e-06	-4.92162e-10	-2.12283e-06	0.262578	32486.5	7.52997	32478.9
3.1604	21.9642	3.35864	22.2195	-8.69399	13.9985	0.262636	-0.00764865	14993.9	342.588	1	11	0.00473327	0.000213023	0	1.44187e-05	0.000118159	9.22492e-06	85.6292	0.0433048	0.00330027	-0.0431789	-8.58262	22.2163	21.9675	3.31546	0.0444883	0.00680289	0.0450054	8.69399	342588	2.24039e+06	2.26644e+06	-81.306	0.0000000E+000	0.0000000E+000	0.0000000E+000	81.306	0.0000000E+000	0.0000000E+000	0.0000000E+000	-81.306	0.0000000E+000	0.0000000E+000	0.0000000E+000	-8.69399	0.0000000E+000	0.0000000E+000	0.0000000E+000	8.69399	6.53962	81.306	1.01145e-06	-2.00881e-06	-9.03756e-10	-2.00791e-06	0.262518	34337.6	15.4483	34322.1
1.00006	23.6646	2.38542	23.7845	-5.75603	19.637	0.262642	-0.00579594	66715.7	671.069	1	12	0.00472309	0.000198578	0	-5.94904e-06	-7.27818e-05	3.85688e-06	-21.9277	0.0194225	0.0180174	0.00725306	-5.76905	23.8032	23.6826	2.39267	0.0418321	0.00421672	0.0420441	5.75603	671069	6.65737e+06	6.6911e+06	-84.244	0.0000000E+000	0.0000000E+000	0.0000000E+000	84.244	0.0000000E+000	0.0000000E+000	0.0000000E+000	-84.244	0.0000000E+000	0.0000000E+000	0.0000000E+000	-5.75603	0.0000000E+000	0.0000000E+000	0.0000000E+000	5.75603	9.92054	84.244	-1.1069e-05	-1.52226e-06	4.21839e-10	-1.52268e-06	0.262715	45314.9	12.5574	45327.4
0.316193	24.7859	2.29803	24.8922	-5.29706	33.979	0.262651	-0.00519037	219034	1866.8	1	12	0.00472397	0.000189777	0	-5.50659e-06	3.59442e-06	3.76241e-06	25.3103	0.0198254	0.0179223	-0.00847576	-5.27384	24.9093	24.8038	2.28956	0.0400017	0.00370877	0.0401732	5.29706	1.8668e+06	2.01347e+07	2.02211e+07	-84.7029	0.0000000E+000	0.0000000E+000	0.0000000E+000	84.7029	0.0000000E+000	0.0000000E+000	0.0000000E+000	-84.7029	0.0000000E+000	0.0000000E+000	0.0000000E+000	-5.29706	0.0000000E+000	0.0000000E+000	0.0000000E+000	5.29706	10.7857	84.7029	7.04539e-06	-1.36326e-06	-1.86564e-11	-1.36324e-06	0.262648	50603.6	0.692517	50602.9
0.0999041	26.0879	3.79595	26.3626	-8.27881	79.1869	0.262636	-0.000767345	419678	8701.25	1	12	0.00472255	0.000179138	0	-1.28909e-05	-0.00011097	2.67847e-06	-3.47522	0.014952	0.0149245	0.000906342	-8.27609	26.3775	26.1028	3.79686	0.0375372	0.00546191	0.0379325	8.27881	8.70125e+06	5.97997e+07	6.04295e+07	-81.7212	0.0000000E+000	0.0000000E+000	0.0000000E+000	81.7212	0.0000000E+000	0.0000000E+000	0.0000000E+000	-81.7212	0.0000000E+000	0.0000000E+000	0.0000000E+000	-8.27881	0.0000000E+000	0.0000000E+000	0.0000000E+000	8.27881	6.87255	81.7212	-2.06041e-05	-2.01532e-07	8.51523e-11	-2.01617e-07	0.262747	342265	144.615	342410
0.0315922	28.5894	7.83681	29.644	-15.3292	222.071	0.262636	-0.00132776	642837	44926.8	1	12	0.00472359	0.000159344	0	-0.00031215	-7.27818e-05	1.08481e-06	18.5756	0.00680796	0.0064533	-0.00216871	-15.3218	29.6497	28.5958	7.83464	0.0325335	0.00891796	0.0337336	15.3292	4.49268e+07	1.63897e+08	1.69943e+08	-74.6708	0.0000000E+000	0.0000000E+000	0.0000000E+000	74.6708	0.0000000E+000	0.0000000E+000	0.0000000E+000	-74.6708	0.0000000E+000	0.0000000E+000	0.0000000E+000	-15.3292	0.0000000E+000	0.0000000E+000	0.0000000E+000	15.3292	3.64809	74.6708	-0.000134737	-3.48718e-07	9.66368e-11	-3.48815e-07	0.262709	197804	54.8155	197859
0.0100092	32.9389	17.6386	37.3643	-28.1688	673.29	0.262636	-0.000621328	901483	200896	1	12	0.00472606	0.000126486	0	2.97742e-05	-0.00011097	1.73017e-06	-12.4306	0.0136788	0.0133581	0.00294445	-28.1631	37.3775	32.9523	17.6416	0.0235936	0.0126343	0.0267635	28.1688	2.00896e+08	3.7516e+08	4.25564e+08	-61.8312	0.0000000E+000	0.0000000E+000	0.0000000E+000	61.8312	0.0000000E+000	0.0000000E+000	0.0000000E+000	-61.8312	0.0000000E+000	0.0000000E+000	0.0000000E+000	-28.1688	0.0000000E+000	0.0000000E+000	0.0000000E+000	28.1688	1.86743	61.8312	0.000319923	-1.63183e-07	6.89487e-11	-1.63252e-07	0.262747	422701	178.601	422880