File: txt/19066_R307_UA701_3p24_SOC00_C05.mpt
EC-Lab ASCII FILE
Nb header lines : 65

Potentio Electrochemical Impedance Spectroscopy

Run on channel : 5 (SN 65912)
Grouped channel(s) : 1, 2, 3, 4, 5
User :
CE vs. WE compliance from -10 V to 10 V
Electrode connection : standard
Potential control : Ewe
Ewe ctrl range : min = -10.00 V, max = 10.00 V
Safety Limits :
	Do not start on E overload
Acquisition started on : 11/12/2025 10:25:43.761
Loaded Setting File :  C:\Users\Celltest\OneDrive - store-dot.com\Documents\EC-Lab\Data\@Biologic Test Protocols\anode half cell EIS SOC00.mps
Saved on :
	File : 19062_R307_UA701_3p24_SOC00_C05.mpr
	Directory : C:\Users\Celltest\OneDrive - store-dot.com\Documents\EC-Lab\Data\Anna\
	Host : 169.254.61.224
Device : VMP-3e (SN .003165)
Address : USB
EC-LAB for windows v11.62 (software)
Internet server v27.00 (firmware)
Command interpretor v12.03 (firmware)
Electrode material :
Initial state :
Electrolyte :
Comments :
Electrode surface area : 0.001 cm²
Characteristic mass : 0.001 g
Equivalent Weight : 0.000 g/eq.
Density : 0.000 g/cm3
Volume (V) : 0.001 cm³
Record Ece
Cycle Definition : Charge/Discharge alternance
Mode                Single sine
E (V)               0.0000
vs.                 Eoc
tE (h:m:s)          0:00:0.0000
record              0
dI                  0.000
unit dI             mA
dt (s)              0.000
fi                  100.000
unit fi             kHz
ff                  10.000
unit ff             mHz
Nd                  6
Points              per decade
spacing             Logarithmic
Va (mV)             5.0
pw                  0.10
Na                  2
corr                0
E range min (V)     -10.000
E range max (V)     10.000
I Range             Auto
Bandwidth           5
nc cycles           0
goto Ns'            0
nr cycles           0
inc. cycle          0

freq/Hz	Re(Z)/Ohm	-Im(Z)/Ohm	|Z|/Ohm	Phase(Z)/deg	time/s	<Ewe>/V	<I>/mA	Cs/µF	Cp/µF	cycle number	I Range	|Ewe|/V	|I|/A	Ns	(Q-Qo)/mA.h	<Ece>/V	|Ece|/V	Phase(Zce)/deg	|Zce|/Ohm	Re(Zce)/Ohm	-Im(Zce)/Ohm	Phase(Zwe-ce)/deg	|Zwe-ce|/Ohm	Re(Zwe-ce)/Ohm	-Im(Zwe-ce)/Ohm	Re(Y)/Ohm-1	Im(Y)/Ohm-1	|Y|/Ohm-1	Phase(Y)/deg	Re(C)/nF	Im(C)/nF	|C|/nF	Phase(C)/deg	Re(M)	Im(M)	|M|	Phase(M)/deg	Re(Permittivity)	Im(Permittivity)	|Permittivity|	Phase(Permittivity)/deg	Re(Resistivity)/Ohm.cm	Im(Resistivity)/Ohm.cm	|Resistivity|/Ohm.cm	Phase(Resistivity)/deg	Re(Conductivity)/mS/cm	Im(Conductivity)/mS/cm	|Conductivity|/mS/cm	Phase(Conductivity)/deg	Tan(Delta)	Loss Angle(Delta)/deg	dq/mA.h	Pwe/W	Pce/W	Pwe-ce/W	<Ewe-Ece>/V	Rwe/Ohm	Rce/Ohm	Rwe-ce/Ohm		Ewe-Ece/V
100004	1.02303	0.402927	1.09952	-21.4973	1.72554	0.258737	-0.000431129	3.94982	0.530427	1	9	0.00465668	0.0042352	0	-5.5206e-06	-6.21241e-05	3.84923e-05	85.0089	0.00908865	0.000790725	-0.00905419	-21.0422	1.09697	1.02382	0.393873	0.84622	0.33329	0.909489	21.4973	530.427	1346.75	1447.44	-68.5027	0.0000000E+000	0.0000000E+000	0.0000000E+000	68.5027	0.0000000E+000	0.0000000E+000	0.0000000E+000	-68.5027	0.0000000E+000	0.0000000E+000	0.0000000E+000	-21.4973	0.0000000E+000	0.0000000E+000	0.0000000E+000	21.4973	2.53899	68.5027	-5.5206e-06	-1.11549e-07	2.67835e-11	-1.11576e-07	0.258799	600137	144.096	600281
31621.1	1.364	0.533418	1.46459	-21.3589	2.87655	0.258722	0.00809678	9.43572	1.25163	1	9	0.00543477	0.00371077	0	2.37334e-06	0.000128788	8.10111e-06	54.7061	0.00218313	0.00126135	-0.00178187	-21.2761	1.46512	1.36526	0.531636	0.635889	0.248676	0.682784	21.3589	1251.63	3200.54	3436.58	-68.6411	0.0000000E+000	0.0000000E+000	0.0000000E+000	68.6411	0.0000000E+000	0.0000000E+000	0.0000000E+000	-68.6411	0.0000000E+000	0.0000000E+000	0.0000000E+000	-21.3589	0.0000000E+000	0.0000000E+000	0.0000000E+000	21.3589	2.55709	68.6411	-1.12735e-05	2.09482e-06	1.04277e-09	2.09378e-06	0.258594	31953.8	15.9061	31937.9
10002.2	1.77165	0.722245	1.91321	-22.1791	4.02954	0.258722	-0.000580117	22.0312	3.13965	1	9	0.00518793	0.00271163	0	4.5652e-06	-4.85048e-06	8.46366e-06	-24.2397	0.00312124	0.00284606	0.00128144	-22.1825	1.91633	1.7745	0.723526	0.484007	0.197314	0.522681	22.1791	3139.65	7701.49	8316.87	-67.8209	0.0000000E+000	0.0000000E+000	0.0000000E+000	67.8209	0.0000000E+000	0.0000000E+000	0.0000000E+000	-67.8209	0.0000000E+000	0.0000000E+000	0.0000000E+000	-22.1791	0.0000000E+000	0.0000000E+000	0.0000000E+000	22.1791	2.45298	67.8209	1.32872e-06	-1.50089e-07	2.81385e-12	-1.50092e-07	0.258727	445983	8.3612	445991
3163.08	2.30116	1.07244	2.53879	-24.9876	5.05364	0.258636	-0.0440762	46.9177	8.37201	1	9	0.00522235	0.00205702	0	-3.09633e-06	-0.000119398	6.86865e-06	-94.2165	0.00333912	-0.000245508	0.00333008	-25.058	2.53997	2.30091	1.07577	0.35702	0.166387	0.393889	24.9876	8372.01	17964	19819.1	-65.0124	0.0000000E+000	0.0000000E+000	0.0000000E+000	65.0124	0.0000000E+000	0.0000000E+000	0.0000000E+000	-65.0124	0.0000000E+000	0.0000000E+000	0.0000000E+000	-24.9876	0.0000000E+000	0.0000000E+000	0.0000000E+000	24.9876	2.14572	65.0124	-4.57436e-06	-1.13997e-05	5.26261e-09	-1.1405e-05	0.258755	5867.92	2.70889	5870.63
1000.32	3.0127	1.8333	3.52666	-31.3215	6.65181	0.258674	-0.0190846	86.7857	23.4524	1	10	0.00511572	0.00145059	0	-8.31379e-06	-6.21241e-05	3.50618e-06	-71.4766	0.00241708	0.000767887	0.00229186	-31.3468	3.52851	3.01347	1.83559	0.24223	0.147403	0.283554	31.3215	23452.4	38539.8	45114.6	-58.6785	0.0000000E+000	0.0000000E+000	0.0000000E+000	58.6785	0.0000000E+000	0.0000000E+000	0.0000000E+000	-58.6785	0.0000000E+000	0.0000000E+000	0.0000000E+000	-31.3215	0.0000000E+000	0.0000000E+000	0.0000000E+000	31.3215	1.64332	58.6785	-8.58078e-07	-4.93669e-06	1.18561e-09	-4.93787e-06	0.258736	13554	3.25519	13557.3
316.316	4.4279	3.60479	5.70972	-39.1493	8.00001	0.258659	-0.0181314	139.579	55.6353	1	10	0.00493351	0.000864055	0	-1.4973e-05	-0.000233945	9.41336e-06	-30.8556	0.0108944	0.00935243	0.00558748	-39.1336	5.7205	4.43726	3.61038	0.135822	0.110574	0.17514	39.1493	55635.3	68339	88122.1	-50.8507	0.0000000E+000	0.0000000E+000	0.0000000E+000	50.8507	0.0000000E+000	0.0000000E+000	0.0000000E+000	-50.8507	0.0000000E+000	0.0000000E+000	0.0000000E+000	-39.1493	0.0000000E+000	0.0000000E+000	0.0000000E+000	39.1493	1.22834	50.8507	-1.72608e-06	-4.68986e-06	4.24176e-09	-4.69411e-06	0.258893	14265.8	12.9027	14278.7
100.032	8.32948	6.17446	10.3684	-36.5487	9.34785	0.258664	-0.0183772	257.681	91.3808	1	10	0.00488709	0.000471344	0	-2.22915e-05	7.15144e-05	1.16685e-05	18.2064	0.0247559	0.0235166	-0.00773476	-36.4372	10.3827	8.35299	6.16672	0.0774805	0.0574346	0.0964467	36.5487	91380.8	123275	153451	-53.4513	0.0000000E+000	0.0000000E+000	0.0000000E+000	53.4513	0.0000000E+000	0.0000000E+000	0.0000000E+000	-53.4513	0.0000000E+000	0.0000000E+000	0.0000000E+000	-36.5487	0.0000000E+000	0.0000000E+000	0.0000000E+000	36.5487	1.34902	53.4513	-1.65039e-06	-4.75351e-06	-1.31423e-09	-4.7522e-06	0.258592	14075.3	3.89148	14071.4
31.6296	14.365	6.44875	15.7461	-24.1763	10.6776	0.258659	-0.0202166	780.282	130.875	1	10	0.00487725	0.000309744	0	-2.87372e-05	-0.000176671	5.51691e-06	-60.7126	0.0178112	0.00871308	0.0155345	-24.2149	15.7604	14.3737	6.46428	0.0579375	0.0260094	0.0635079	24.1763	130875	291533	319562	-65.8237	0.0000000E+000	0.0000000E+000	0.0000000E+000	65.8237	0.0000000E+000	0.0000000E+000	0.0000000E+000	-65.8237	0.0000000E+000	0.0000000E+000	0.0000000E+000	-24.1763	0.0000000E+000	0.0000000E+000	0.0000000E+000	24.1763	2.22756	65.8237	-2.33449e-06	-5.2292e-06	3.57169e-09	-5.23277e-06	0.258836	12794.4	8.73895	12803.2
10.0032	18.7558	4.67889	19.3306	-14.0073	12.2408	0.25868	-0.00973713	3400.46	199.221	1	11	0.00487567	0.000252226	0	-3.22129e-05	-4.85048e-06	4.7703e-06	-69.8184	0.0189128	0.00652487	0.0177516	-14.0537	19.3412	18.7623	4.69664	0.0501932	0.0125214	0.0517315	14.0073	199221	798595	823069	-75.9927	0.0000000E+000	0.0000000E+000	0.0000000E+000	75.9927	0.0000000E+000	0.0000000E+000	0.0000000E+000	-75.9927	0.0000000E+000	0.0000000E+000	0.0000000E+000	-14.0073	0.0000000E+000	0.0000000E+000	0.0000000E+000	14.0073	4.0086	75.9927	-1.45577e-06	-2.5188e-06	4.72297e-11	-2.51885e-06	0.258685	26566.4	0.498143	26566.9
3.1604	21.426	3.26885	21.6739	-8.67444	13.7574	0.258669	-0.00920527	15405.8	350.429	1	11	0.00487837	0.000225081	0	-3.87195e-05	9.06056e-05	5.65666e-06	-57.0901	0.0251317	0.0136545	0.0210987	-8.7241	21.6906	21.4396	3.28995	0.0456107	0.0069586	0.0461385	8.67444	350429	2.29692e+06	2.3235e+06	-81.3256	0.0000000E+000	0.0000000E+000	0.0000000E+000	81.3256	0.0000000E+000	0.0000000E+000	0.0000000E+000	-81.3256	0.0000000E+000	0.0000000E+000	0.0000000E+000	-8.67444	0.0000000E+000	0.0000000E+000	0.0000000E+000	8.67444	6.55458	81.3256	-3.17085e-06	-2.38112e-06	-8.34049e-10	-2.38028e-06	0.258578	28100.1	9.8428	28090.3
1.00006	23.2176	2.46085	23.3477	-6.05023	19.397	0.258679	-0.00705844	64670.7	718.44	1	12	0.00487899	0.000208971	0	-3.95169e-05	0.000243335	2.43856e-06	-42.624	0.0116694	0.00858647	0.0079023	-6.06728	23.357	23.2262	2.46875	0.0425923	0.00451438	0.0428308	6.05023	718440	6.77834e+06	6.8163e+06	-83.9498	0.0000000E+000	0.0000000E+000	0.0000000E+000	83.9498	0.0000000E+000	0.0000000E+000	0.0000000E+000	-83.9498	0.0000000E+000	0.0000000E+000	0.0000000E+000	-6.05023	0.0000000E+000	0.0000000E+000	0.0000000E+000	6.05023	9.4348	83.9498	-2.66133e-06	-1.82587e-06	-1.71757e-09	-1.82415e-06	0.258436	36648.1	34.4744	36613.7
0.316193	24.4983	2.25305	24.6017	-5.25457	33.7418	0.258677	-0.00477127	223407	1873.74	1	12	0.00487933	0.000198333	0	-9.28512e-05	-2.39417e-05	1.93948e-06	12.4387	0.0097789	0.00954936	-0.00210633	-5.24765	24.611	24.5079	2.25094	0.0404768	0.00372255	0.0406476	5.25457	1.87374e+06	2.03739e+07	2.04599e+07	-84.7454	0.0000000E+000	0.0000000E+000	0.0000000E+000	84.7454	0.0000000E+000	0.0000000E+000	0.0000000E+000	-84.7454	0.0000000E+000	0.0000000E+000	0.0000000E+000	-5.25457	0.0000000E+000	0.0000000E+000	0.0000000E+000	5.25457	10.8734	84.7454	-2.61533e-05	-1.23422e-06	1.14232e-10	-1.23433e-06	0.258701	54215.6	5.01789	54220.6
0.0999041	25.6456	3.61709	25.8994	-8.02814	78.9496	0.258684	-0.00401109	440430	8590.48	1	12	0.00488102	0.000188461	0	-0.000119921	3.3332e-05	1.54674e-06	-18.2855	0.0082072	0.00779278	0.00257502	-8.03137	25.9075	25.6534	3.61967	0.0382325	0.00539238	0.0386109	8.02814	8.59048e+06	6.09074e+07	6.15102e+07	-81.9719	0.0000000E+000	0.0000000E+000	0.0000000E+000	81.9719	0.0000000E+000	0.0000000E+000	0.0000000E+000	-81.9719	0.0000000E+000	0.0000000E+000	0.0000000E+000	-8.02814	0.0000000E+000	0.0000000E+000	0.0000000E+000	8.02814	7.0901	81.9719	1.33613e-05	-1.03761e-06	-1.33697e-10	-1.03747e-06	0.258651	64492.2	8.30995	64483.9
0.0315922	27.9572	7.66564	28.9891	-15.3332	221.834	0.258679	0.000411351	657191	45953.7	1	12	0.00487721	0.000168243	0	5.47991e-05	0.000186062	8.49177e-07	32.0412	0.00504732	0.00427845	-0.00267775	-15.3259	28.9925	27.9615	7.66297	0.0332679	0.0091218	0.0344958	15.3332	4.59537e+07	1.67597e+08	1.73782e+08	-74.6668	0.0000000E+000	0.0000000E+000	0.0000000E+000	74.6668	0.0000000E+000	0.0000000E+000	0.0000000E+000	-74.6668	0.0000000E+000	0.0000000E+000	0.0000000E+000	-15.3332	0.0000000E+000	0.0000000E+000	0.0000000E+000	15.3332	3.64707	74.6668	5.43342e-05	1.06408e-07	7.65367e-11	1.06331e-07	0.258493	628851	452.319	628399
0.0100092	32.4655	17.1114	36.6989	-27.7921	673.056	0.258677	-0.000343578	929256	202023	1	12	0.00487959	0.000132963	0	-0.000649149	0.000109697	2.13202e-06	-38.4234	0.0160347	0.0125622	0.00996505	-27.7968	36.7147	32.4781	17.1214	0.0241055	0.0127051	0.0272487	27.7921	2.02023e+08	3.83299e+08	4.3328e+08	-62.2079	0.0000000E+000	0.0000000E+000	0.0000000E+000	62.2079	0.0000000E+000	0.0000000E+000	0.0000000E+000	-62.2079	0.0000000E+000	0.0000000E+000	0.0000000E+000	-27.7921	0.0000000E+000	0.0000000E+000	0.0000000E+000	27.7921	1.8973	62.2079	-0.000391559	-8.88758e-08	-3.76894e-11	-8.88381e-08	0.258568	752894	319.278	752575