File: txt/19079_R307_UC93_28_SOC50_C03.mpt
EC-Lab ASCII FILE
Nb header lines : 65

Potentio Electrochemical Impedance Spectroscopy

Run on channel : 3 (SN 65921)
Grouped channel(s) : 1, 2, 3, 4, 5
User :
CE vs. WE compliance from -10 V to 10 V
Electrode connection : standard
Potential control : Ewe
Ewe ctrl range : min = -10.00 V, max = 10.00 V
Safety Limits :
	Do not start on E overload
Acquisition started on : 11/10/2025 15:44:01.793
Loaded Setting File :  C:\Users\Celltest\OneDrive - store-dot.com\Documents\EC-Lab\Data\@Biologic Test Protocols\cathode half cell EIS SOC50.mps
Saved on :
	File : 19077_R307_UC93_28_SOC50_C03.mpr
	Directory : C:\Users\Celltest\OneDrive - store-dot.com\Documents\EC-Lab\Data\Anna\
	Host : 169.254.61.224
Device : VMP-3e (SN .003165)
Address : USB
EC-LAB for windows v11.62 (software)
Internet server v27.00 (firmware)
Command interpretor v12.03 (firmware)
Electrode material :
Initial state :
Electrolyte :
Comments :
Electrode surface area : 0.001 cm²
Characteristic mass : 0.001 g
Equivalent Weight : 0.000 g/eq.
Density : 0.000 g/cm3
Volume (V) : 0.001 cm³
Record Ece
Cycle Definition : Charge/Discharge alternance
Mode                Multi sine
E (V)               0.0000
vs.                 Eoc
tE (h:m:s)          0:00:0.0000
record              0
dI                  0.000
unit dI             mA
dt (s)              0.000
fi                  1.000
unit fi             MHz
ff                  0.100
unit ff             mHz
Nd                  10
Points              per decade
spacing             Logarithmic
Va (mV)             5.0
pw                  0.10
Na                  2
corr                0
E range min (V)     -10.000
E range max (V)     10.000
I Range             Auto
Bandwidth           5
nc cycles           0
goto Ns'            0
nr cycles           0
inc. cycle          0

freq/Hz	Re(Z)/Ohm	-Im(Z)/Ohm	|Z|/Ohm	Phase(Z)/deg	time/s	<Ewe>/V	<I>/mA	Cs/µF	Cp/µF	cycle number	I Range	|Ewe|/V	|I|/A	Ns	(Q-Qo)/mA.h	<Ece>/V	|Ece|/V	Phase(Zce)/deg	|Zce|/Ohm	Re(Zce)/Ohm	-Im(Zce)/Ohm	Phase(Zwe-ce)/deg	|Zwe-ce|/Ohm	Re(Zwe-ce)/Ohm	-Im(Zwe-ce)/Ohm	Re(Y)/Ohm-1	Im(Y)/Ohm-1	|Y|/Ohm-1	Phase(Y)/deg	Re(C)/nF	Im(C)/nF	|C|/nF	Phase(C)/deg	Re(M)	Im(M)	|M|	Phase(M)/deg	Re(Permittivity)	Im(Permittivity)	|Permittivity|	Phase(Permittivity)/deg	Re(Resistivity)/Ohm.cm	Im(Resistivity)/Ohm.cm	|Resistivity|/Ohm.cm	Phase(Resistivity)/deg	Re(Conductivity)/mS/cm	Im(Conductivity)/mS/cm	|Conductivity|/mS/cm	Phase(Conductivity)/deg	Tan(Delta)	Loss Angle(Delta)/deg	dq/mA.h	Pwe/W	Pce/W	Pwe-ce/W	<Ewe-Ece>/V	Rwe/Ohm	Rce/Ohm	Rwe-ce/Ohm		Ewe-Ece/V
1.00002e+06	2.90936	2.24138	3.67262	-37.6108	2.23356	3.96896	-0.00773435	0.0710062	0.0264469	1	10	0.000232226	6.32317e-05	0	-7.72435e-06	-0.000264439	0.000192874	-66.0237	3.05028	1.23951	2.78708	-50.4747	6.51909	4.14887	5.02846	0.215697	0.166174	0.272285	37.6108	26.4469	34.3286	43.3347	-52.3892	0.0000000E+000	0.0000000E+000	0.0000000E+000	52.3892	0.0000000E+000	0.0000000E+000	0.0000000E+000	-52.3892	0.0000000E+000	0.0000000E+000	0.0000000E+000	-37.6108	0.0000000E+000	0.0000000E+000	0.0000000E+000	37.6108	1.29802	52.3892	-7.72435e-06	-3.06973e-05	2.04526e-09	-3.06993e-05	3.96922	513160	34.1902	513194
251206	1.48327	0.353193	1.52474	-13.3937	4.93653	3.96856	0.00659455	1.79381	0.0962516	1	9	0.00355706	0.00233289	0	-6.41305e-06	6.01604e-05	5.783e-05	93.405	0.024789	-0.00147231	-0.0247452	-12.4978	1.51777	1.4818	0.328448	0.638009	0.151921	0.655848	13.3937	96.2516	404.219	415.521	-76.6063	0.0000000E+000	0.0000000E+000	0.0000000E+000	76.6063	0.0000000E+000	0.0000000E+000	0.0000000E+000	-76.6063	0.0000000E+000	0.0000000E+000	0.0000000E+000	-13.3937	0.0000000E+000	0.0000000E+000	0.0000000E+000	13.3937	4.19961	76.6063	-2.1845e-06	2.61709e-05	3.96731e-10	2.61705e-05	3.9685	601794	9.12275	601785
63093.8	2.01434	0.938696	2.22232	-24.9859	7.24056	3.96847	0.0144635	2.68725	0.479452	1	9	0.0052832	0.00237734	0	4.35476e-06	4.10664e-05	1.83455e-05	46.9348	0.00771685	0.0052693	-0.00563775	-24.7969	2.22473	2.01961	0.933058	0.407868	0.190069	0.44998	24.9859	479.452	1028.85	1135.08	-65.0141	0.0000000E+000	0.0000000E+000	0.0000000E+000	65.0141	0.0000000E+000	0.0000000E+000	0.0000000E+000	-65.0141	0.0000000E+000	0.0000000E+000	0.0000000E+000	-24.9859	0.0000000E+000	0.0000000E+000	0.0000000E+000	24.9859	2.14589	65.0141	-4.15438e-06	5.7398e-05	5.93963e-10	5.73974e-05	3.96843	274378	2.83931	274376
15847.7	3.06889	1.66118	3.48964	-28.4265	9.53855	3.96847	0.0117783	6.04558	1.36996	1	9	0.0051597	0.00147858	0	4.15274e-06	-0.000149874	6.2418e-06	-32.3649	0.0042215	0.00356571	0.00225981	-28.4313	3.49386	3.07246	1.66344	0.252011	0.136412	0.286562	28.4265	1369.96	2530.89	2877.88	-61.5735	0.0000000E+000	0.0000000E+000	0.0000000E+000	61.5735	0.0000000E+000	0.0000000E+000	0.0000000E+000	-61.5735	0.0000000E+000	0.0000000E+000	0.0000000E+000	-28.4265	0.0000000E+000	0.0000000E+000	0.0000000E+000	28.4265	1.84742	61.5735	-1.98048e-07	4.67419e-05	-1.76527e-09	4.67436e-05	3.96862	336930	12.7246	336942
3983.6	4.68797	2.69797	5.40889	-29.9208	11.5451	3.96845	-0.0207854	14.8084	3.68438	1	10	0.00537811	0.000994308	0	1.19685e-06	-7.3498e-05	4.44785e-06	109.465	0.00447331	-0.00149067	-0.00421763	-29.8899	5.4055	4.68648	2.69375	0.160239	0.0922189	0.184881	29.9208	3684.38	6401.95	7386.45	-60.0792	0.0000000E+000	0.0000000E+000	0.0000000E+000	60.0792	0.0000000E+000	0.0000000E+000	0.0000000E+000	-60.0792	0.0000000E+000	0.0000000E+000	0.0000000E+000	-29.9208	0.0000000E+000	0.0000000E+000	0.0000000E+000	29.9208	1.73759	60.0792	-1.33972e-06	-8.24859e-05	1.52769e-09	-8.24874e-05	3.96852	190925	3.53604	190928
1000.32	7.66502	4.54915	8.91332	-30.6889	14.1738	3.96842	-0.0188874	34.9744	9.11029	1	10	0.00496414	0.000556935	0	-1.32813e-05	-7.3498e-05	4.49738e-06	150.094	0.00807523	-0.00699993	-0.00402619	-30.6896	8.90525	7.65802	4.54513	0.0964793	0.05726	0.112192	30.6889	9110.29	15350.2	17850.1	-59.3111	0.0000000E+000	0.0000000E+000	0.0000000E+000	59.3111	0.0000000E+000	0.0000000E+000	0.0000000E+000	-59.3111	0.0000000E+000	0.0000000E+000	0.0000000E+000	-30.6889	0.0000000E+000	0.0000000E+000	0.0000000E+000	30.6889	1.68493	59.3111	-1.89636e-06	-7.49533e-05	1.38819e-09	-7.49546e-05	3.96849	210109	3.89137	210113
251.044	13.3109	5.88632	14.5543	-23.8559	16.8741	3.96842	-0.0180671	107.703	17.6169	1	10	0.00485979	0.000333907	0	-2.64873e-05	0.000193819	6.28536e-06	-14.6146	0.0188237	0.0182146	0.00474951	-23.844	14.5729	13.3291	5.89107	0.0628381	0.0277882	0.0687081	23.8559	17616.9	39837.5	43559	-66.1441	0.0000000E+000	0.0000000E+000	0.0000000E+000	66.1441	0.0000000E+000	0.0000000E+000	0.0000000E+000	-66.1441	0.0000000E+000	0.0000000E+000	0.0000000E+000	-23.8559	0.0000000E+000	0.0000000E+000	0.0000000E+000	23.8559	2.26132	66.1441	-2.15353e-06	-7.16977e-05	-3.50174e-09	-7.16942e-05	3.96823	219649	10.7277	219639
63.0823	18.5846	3.67759	18.945	-11.1933	19.5939	3.96841	-0.0155911	686.039	25.8516	1	10	0.00485296	0.000256161	0	-3.84759e-05	-0.000188062	1.21166e-05	50.1111	0.0473006	0.0303339	-0.0362933	-11.068	18.9677	18.6149	3.6413	0.0517803	0.0102465	0.0527844	11.1933	25851.6	130640	133174	-78.8067	0.0000000E+000	0.0000000E+000	0.0000000E+000	78.8067	0.0000000E+000	0.0000000E+000	0.0000000E+000	-78.8067	0.0000000E+000	0.0000000E+000	0.0000000E+000	-11.1933	0.0000000E+000	0.0000000E+000	0.0000000E+000	11.1933	5.05347	78.8067	-2.09281e-06	-6.18719e-05	2.9321e-09	-6.18749e-05	3.9686	254531	12.0622	254543
15.8576	20.3726	1.68201	20.4419	-4.71978	22.498	3.96845	-0.0165353	5966.97	40.3988	1	11	0.00484814	0.000237166	0	-5.336e-05	-0.000245345	9.85621e-06	-14.1216	0.0415582	0.0403023	0.0101394	-4.73877	20.4829	20.4129	1.69215	0.0487532	0.00402518	0.048919	4.71978	40398.9	489312	490977	-85.2802	0.0000000E+000	0.0000000E+000	0.0000000E+000	85.2802	0.0000000E+000	0.0000000E+000	0.0000000E+000	-85.2802	0.0000000E+000	0.0000000E+000	0.0000000E+000	-4.71978	0.0000000E+000	0.0000000E+000	0.0000000E+000	4.71978	12.112	85.2802	-2.84596e-06	-6.56195e-05	4.05684e-09	-6.56235e-05	3.9687	239999	14.8376	240014
3.97785	21.0641	0.988025	21.0872	-2.68553	25.4083	3.96847	-0.0143422	40495.2	88.8999	1	11	0.00484148	0.000229593	0	-6.55685e-05	-9.25921e-05	3.86792e-06	15.5481	0.0168469	0.0162304	-0.00451575	-2.67122	21.1032	21.0803	0.98351	0.04737	0.00222193	0.0474221	2.68553	88899.8	1.89529e+06	1.89737e+06	-87.3145	0.0000000E+000	0.0000000E+000	0.0000000E+000	87.3145	0.0000000E+000	0.0000000E+000	0.0000000E+000	-87.3145	0.0000000E+000	0.0000000E+000	0.0000000E+000	-2.68553	0.0000000E+000	0.0000000E+000	0.0000000E+000	2.68553	21.3193	87.3145	-3.99399e-06	-5.69168e-05	1.32798e-09	-5.69181e-05	3.96856	276698	6.4559	276704
1.00469	22.1063	1.10328	22.1339	-2.85714	240.221	3.96844	-0.012639	143582	356.745	1	11	0.00503864	0.000227644	0	-0.00173759	-0.000111686	4.66825e-07	-24.5679	0.00205068	0.00186503	0.000852615	-2.8591	22.1358	22.1082	1.10413	0.0451235	0.00225201	0.0451797	2.85714	356745	7.14808e+06	7.15697e+06	-87.1429	0.0000000E+000	0.0000000E+000	0.0000000E+000	87.1429	0.0000000E+000	0.0000000E+000	0.0000000E+000	-87.1429	0.0000000E+000	0.0000000E+000	0.0000000E+000	-2.85714	0.0000000E+000	0.0000000E+000	0.0000000E+000	2.85714	20.0369	87.1429	-0.00165577	-5.01569e-05	1.4116e-09	-5.01583e-05	3.96855	313985	8.83666	313994
0.251173	23.0502	1.8645	23.1255	-4.62452	240.224	3.96844	-0.012639	339847	2209.16	1	11	0.0050655	0.000219044	0	-0.00173759	-0.000111686	5.00271e-07	7.67886	0.00228388	0.0022634	-0.000305173	-4.62331	23.1277	23.0525	1.8642	0.0431016	0.00348643	0.0432423	4.62452	2.20916e+06	2.73111e+07	2.74003e+07	-85.3755	0.0000000E+000	0.0000000E+000	0.0000000E+000	85.3755	0.0000000E+000	0.0000000E+000	0.0000000E+000	-85.3755	0.0000000E+000	0.0000000E+000	0.0000000E+000	-4.62452	0.0000000E+000	0.0000000E+000	0.0000000E+000	4.62452	12.3627	85.3755	0.000000000000000E+000	-5.01569e-05	1.4116e-09	-5.01583e-05	3.96855	313985	8.83666	313994
0.0602816	24.8	3.66497	25.0694	-8.40639	240.227	3.96844	-0.012639	720385	15396.4	1	11	0.0050569	0.000201717	0	-0.00173759	-0.000111686	3.21741e-07	6.37899	0.00159501	0.00158514	-0.000177213	-8.40546	25.0709	24.8016	3.66479	0.0394608	0.00583156	0.0398893	8.40639	1.53964e+07	1.04184e+08	1.05315e+08	-81.5936	0.0000000E+000	0.0000000E+000	0.0000000E+000	81.5936	0.0000000E+000	0.0000000E+000	0.0000000E+000	-81.5936	0.0000000E+000	0.0000000E+000	0.0000000E+000	-8.40639	0.0000000E+000	0.0000000E+000	0.0000000E+000	8.40639	6.76677	81.5936	0.000000000000000E+000	-5.01569e-05	1.4116e-09	-5.01583e-05	3.96855	313985	8.83666	313994
0.00796479	34.0699	8.44214	35.1003	-13.9169	20329.1	3.96845	-9.947e-06	2.36697e+06	136923	1	11	0.00505151	0.000143917	0	-0.0107628	-1.62158e-05	8.86047e-07	-1.74552	0.00615667	0.00615381	0.000187534	-13.9148	35.1063	34.0761	8.44233	0.0276535	0.00685222	0.0284898	13.9169	1.36923e+08	5.52581e+08	5.69292e+08	-76.0831	0.0000000E+000	0.0000000E+000	0.0000000E+000	76.0831	0.0000000E+000	0.0000000E+000	0.0000000E+000	-76.0831	0.0000000E+000	0.0000000E+000	0.0000000E+000	-13.9169	0.0000000E+000	0.0000000E+000	0.0000000E+000	13.9169	4.0357	76.0831	-0.00902518	-3.94742e-08	1.61299e-13	-3.94744e-08	3.96847	3.9896e+08	1630.22	3.98961e+08
0.0019912	42.6936	12.4011	44.4582	-16.1969	20329.1	3.96845	-9.947e-06	6.44533e+06	501490	1	11	0.00506574	0.000113944	0	-0.0107628	-1.62158e-05	7.07952e-07	11.1225	0.00621318	0.00609647	-0.00119857	-16.1932	44.4637	42.6997	12.3999	0.0216003	0.00627417	0.022493	16.1969	5.0149e+08	1.72649e+09	1.79785e+09	-73.8031	0.0000000E+000	0.0000000E+000	0.0000000E+000	73.8031	0.0000000E+000	0.0000000E+000	0.0000000E+000	-73.8031	0.0000000E+000	0.0000000E+000	0.0000000E+000	-16.1969	0.0000000E+000	0.0000000E+000	0.0000000E+000	16.1969	3.44273	73.8031	0.000000000000000E+000	-3.94742e-08	1.61299e-13	-3.94744e-08	3.96847	3.9896e+08	1630.22	3.98961e+08
0.000497799	49.2403	17.9015	52.3934	-19.979	20329.1	3.96845	-9.947e-06	1.78598e+07	2.08498e+06	1	11	0.00506328	9.66396e-05	0	-0.0107628	-1.62158e-05	3.70206e-07	-73.8251	0.00383079	0.00106714	0.00367915	-19.9823	52.3957	49.2414	17.9052	0.0179377	0.00652133	0.0190864	19.979	2.08498e+09	5.735e+09	6.10224e+09	-70.021	0.0000000E+000	0.0000000E+000	0.0000000E+000	70.021	0.0000000E+000	0.0000000E+000	0.0000000E+000	-70.021	0.0000000E+000	0.0000000E+000	0.0000000E+000	-19.979	0.0000000E+000	0.0000000E+000	0.0000000E+000	19.979	2.75062	70.021	0.000000000000000E+000	-3.94742e-08	1.61299e-13	-3.94744e-08	3.96847	3.9896e+08	1630.22	3.98961e+08
9.95598e-05	58.7782	80.2443	99.4687	-53.7776	20329.1	3.96845	-9.947e-06	1.99215e+07	1.29651e+07	1	11	0.00506371	5.09076e-05	0	-0.0107628	-1.62158e-05	2.12299e-06	56.8291	0.0417028	0.0228172	-0.034907	-53.7551	99.4541	58.801	80.2094	0.00594078	0.00811038	0.0100534	53.7776	1.29651e+10	9.49684e+09	1.60712e+10	-36.2224	0.0000000E+000	0.0000000E+000	0.0000000E+000	36.2224	0.0000000E+000	0.0000000E+000	0.0000000E+000	-36.2224	0.0000000E+000	0.0000000E+000	0.0000000E+000	-53.7776	0.0000000E+000	0.0000000E+000	0.0000000E+000	53.7776	0.732491	36.2224	0.000000000000000E+000	-3.94742e-08	1.61299e-13	-3.94744e-08	3.96847	3.9896e+08	1630.22	3.98961e+08