File: txt/19078_R307_UC93_28_SOC50_C02.mpt
EC-Lab ASCII FILE
Nb header lines : 65

Potentio Electrochemical Impedance Spectroscopy

Run on channel : 2 (SN 66139)
Grouped channel(s) : 1, 2, 3, 4, 5
User :
CE vs. WE compliance from -10 V to 10 V
Electrode connection : standard
Potential control : Ewe
Ewe ctrl range : min = -10.00 V, max = 10.00 V
Safety Limits :
	Do not start on E overload
Acquisition started on : 11/10/2025 15:44:01.793
Loaded Setting File :  C:\Users\Celltest\OneDrive - store-dot.com\Documents\EC-Lab\Data\@Biologic Test Protocols\cathode half cell EIS SOC50.mps
Saved on :
	File : 19077_R307_UC93_28_SOC50_C02.mpr
	Directory : C:\Users\Celltest\OneDrive - store-dot.com\Documents\EC-Lab\Data\Anna\
	Host : 169.254.61.224
Device : VMP-3e (SN .003165)
Address : USB
EC-LAB for windows v11.62 (software)
Internet server v27.00 (firmware)
Command interpretor v12.03 (firmware)
Electrode material :
Initial state :
Electrolyte :
Comments :
Electrode surface area : 0.001 cm²
Characteristic mass : 0.001 g
Equivalent Weight : 0.000 g/eq.
Density : 0.000 g/cm3
Volume (V) : 0.001 cm³
Record Ece
Cycle Definition : Charge/Discharge alternance
Mode                Multi sine
E (V)               0.0000
vs.                 Eoc
tE (h:m:s)          0:00:0.0000
record              0
dI                  0.000
unit dI             mA
dt (s)              0.000
fi                  1.000
unit fi             MHz
ff                  0.100
unit ff             mHz
Nd                  10
Points              per decade
spacing             Logarithmic
Va (mV)             5.0
pw                  0.10
Na                  2
corr                0
E range min (V)     -10.000
E range max (V)     10.000
I Range             Auto
Bandwidth           5
nc cycles           0
goto Ns'            0
nr cycles           0
inc. cycle          0

freq/Hz	Re(Z)/Ohm	-Im(Z)/Ohm	|Z|/Ohm	Phase(Z)/deg	time/s	<Ewe>/V	<I>/mA	Cs/µF	Cp/µF	cycle number	I Range	|Ewe|/V	|I|/A	Ns	(Q-Qo)/mA.h	<Ece>/V	|Ece|/V	Phase(Zce)/deg	|Zce|/Ohm	Re(Zce)/Ohm	-Im(Zce)/Ohm	Phase(Zwe-ce)/deg	|Zwe-ce|/Ohm	Re(Zwe-ce)/Ohm	-Im(Zwe-ce)/Ohm	Re(Y)/Ohm-1	Im(Y)/Ohm-1	|Y|/Ohm-1	Phase(Y)/deg	Re(C)/nF	Im(C)/nF	|C|/nF	Phase(C)/deg	Re(M)	Im(M)	|M|	Phase(M)/deg	Re(Permittivity)	Im(Permittivity)	|Permittivity|	Phase(Permittivity)/deg	Re(Resistivity)/Ohm.cm	Im(Resistivity)/Ohm.cm	|Resistivity|/Ohm.cm	Phase(Resistivity)/deg	Re(Conductivity)/mS/cm	Im(Conductivity)/mS/cm	|Conductivity|/mS/cm	Phase(Conductivity)/deg	Tan(Delta)	Loss Angle(Delta)/deg	dq/mA.h	Pwe/W	Pce/W	Pwe-ce/W	<Ewe-Ece>/V	Rwe/Ohm	Rce/Ohm	Rwe-ce/Ohm		Ewe-Ece/V
1.00002e+06	2.46627	2.39826	3.44008	-44.1989	2.23353	3.96799	-0.0544625	0.0663615	0.0322531	1	10	0.00023161	6.7327e-05	0	-1.93125e-05	0.000102288	0.000174686	-65.138	2.59459	1.09086	2.35413	-53.1854	5.93619	3.55713	4.75239	0.208403	0.202656	0.290691	44.1989	32.2531	33.1678	46.2641	-45.8011	0.0000000E+000	0.0000000E+000	0.0000000E+000	45.8011	0.0000000E+000	0.0000000E+000	0.0000000E+000	-45.8011	0.0000000E+000	0.0000000E+000	0.0000000E+000	-44.1989	0.0000000E+000	0.0000000E+000	0.0000000E+000	44.1989	1.02836	45.8011	-1.93125e-05	-0.000216106	-5.57084e-09	-0.000216101	3.96789	72857.3	1.87813	72855.4
251206	1.63957	0.446268	1.69922	-15.2263	4.93555	3.96802	-0.047151	1.41969	0.0979238	1	9	0.00440459	0.00259213	0	-5.28464e-05	0.000197742	2.58685e-05	93.848	0.00997963	-0.000669728	-0.00995713	-14.9076	1.69598	1.6389	0.436311	0.567848	0.154561	0.588507	15.2263	97.9239	359.767	372.856	-74.7737	0.0000000E+000	0.0000000E+000	0.0000000E+000	74.7737	0.0000000E+000	0.0000000E+000	0.0000000E+000	-74.7737	0.0000000E+000	0.0000000E+000	0.0000000E+000	-15.2263	0.0000000E+000	0.0000000E+000	0.0000000E+000	15.2263	3.67395	74.7737	-4.66527e-06	-0.000187096	-9.32373e-09	-0.000187087	3.96782	84155.5	4.1938	84151.3
63093.8	2.27948	1.01165	2.49388	-23.932	7.35856	3.96789	-0.0325507	2.49346	0.41031	1	9	0.00544825	0.00218465	0	-7.70163e-05	8.31968e-05	1.81222e-05	86.4691	0.00829526	0.000510878	-0.00827951	-23.7532	2.491	2.27999	1.00337	0.366508	0.162659	0.400981	23.932	410.31	924.521	1011.48	-66.068	0.0000000E+000	0.0000000E+000	0.0000000E+000	66.068	0.0000000E+000	0.0000000E+000	0.0000000E+000	-66.068	0.0000000E+000	0.0000000E+000	0.0000000E+000	-23.932	0.0000000E+000	0.0000000E+000	0.0000000E+000	23.932	2.25323	66.068	-3.02218e-06	-0.000129158	-2.70811e-09	-0.000129155	3.96781	121899	2.55592	121896
15847.7	3.35243	1.66777	3.74436	-26.4494	9.78256	3.96786	-0.0461827	6.0217	1.19463	1	9	0.0049922	0.00133326	0	-9.67384e-05	-3.13483e-05	3.50754e-06	-6.11708	0.0026308	0.00261582	0.00028034	-26.4355	3.74682	3.35504	1.66805	0.239114	0.118955	0.267069	26.4494	1194.64	2401.37	2682.11	-63.5506	0.0000000E+000	0.0000000E+000	0.0000000E+000	63.5506	0.0000000E+000	0.0000000E+000	0.0000000E+000	-63.5506	0.0000000E+000	0.0000000E+000	0.0000000E+000	-26.4494	0.0000000E+000	0.0000000E+000	0.0000000E+000	26.4494	2.01013	63.5506	-5.24162e-06	-0.000183247	1.44775e-09	-0.000183248	3.96789	85916.7	0.678789	85917.4
3983.6	4.95362	2.77122	5.6761	-29.2241	11.541	3.96781	-0.0503945	14.4169	3.4365	1	10	0.00456279	0.000803861	0	-0.000115628	0.000255014	4.21013e-06	-19.6493	0.00523739	0.0049324	0.00176114	-29.2153	5.68126	4.95856	2.77298	0.153753	0.0860146	0.176177	29.2241	3436.5	6142.82	7038.74	-60.7759	0.0000000E+000	0.0000000E+000	0.0000000E+000	60.7759	0.0000000E+000	0.0000000E+000	0.0000000E+000	-60.7759	0.0000000E+000	0.0000000E+000	0.0000000E+000	-29.2241	0.0000000E+000	0.0000000E+000	0.0000000E+000	29.2241	1.78752	60.7759	-3.79403e-06	-0.000199956	-1.28513e-08	-0.000199943	3.96755	78735	5.06036	78729.9
1000.32	8.0265	4.92412	9.41656	-31.5284	14.3838	3.96783	-0.0281773	32.3111	8.83538	1	10	0.00484773	0.000514809	0	-0.000138583	6.41059e-05	3.98316e-06	11.4824	0.00773715	0.0075823	-0.00154021	-31.4963	9.42222	8.03408	4.92258	0.0905193	0.0555321	0.106196	31.5284	8835.38	14402	16896.2	-58.4716	0.0000000E+000	0.0000000E+000	0.0000000E+000	58.4716	0.0000000E+000	0.0000000E+000	0.0000000E+000	-58.4716	0.0000000E+000	0.0000000E+000	0.0000000E+000	-31.5284	0.0000000E+000	0.0000000E+000	0.0000000E+000	31.5284	1.63004	58.4716	-3.74924e-06	-0.000111803	-1.80633e-09	-0.000111801	3.96776	140816	2.27509	140814
251.044	14.2599	6.62455	15.7236	-24.9175	17.0831	3.96783	-0.0278421	95.7004	16.9873	1	10	0.00480594	0.000305652	0	-0.000158846	4.50151e-05	1.02348e-05	-21.7068	0.033485	0.0311105	0.0123847	-24.9107	15.757	14.2911	6.63693	0.0576787	0.026795	0.0635988	24.9175	16987.3	36566.7	40319.8	-65.0825	0.0000000E+000	0.0000000E+000	0.0000000E+000	65.0825	0.0000000E+000	0.0000000E+000	0.0000000E+000	-65.0825	0.0000000E+000	0.0000000E+000	0.0000000E+000	-24.9175	0.0000000E+000	0.0000000E+000	0.0000000E+000	24.9175	2.15259	65.0825	-3.45742e-06	-0.000110472	-1.25331e-09	-0.000110471	3.96778	142512	1.6168	142510
63.0823	20.3575	4.20872	20.788	-11.6808	20.0539	3.96788	-0.0253942	599.463	24.5717	1	11	0.00480653	0.000231216	0	-0.000179526	0.000102288	8.67063e-06	-37.8393	0.0375001	0.0296151	0.0230044	-11.7263	20.8217	20.3871	4.23172	0.0471084	0.0097392	0.0481046	11.6808	24571.7	118853	121367	-78.3192	0.0000000E+000	0.0000000E+000	0.0000000E+000	78.3192	0.0000000E+000	0.0000000E+000	0.0000000E+000	-78.3192	0.0000000E+000	0.0000000E+000	0.0000000E+000	-11.6808	0.0000000E+000	0.0000000E+000	0.0000000E+000	11.6808	4.83699	78.3192	-4.77307e-06	-0.000100761	-2.59751e-09	-0.000100758	3.96778	156252	4.028	156248
15.8576	22.2524	1.85028	22.3292	-4.7532	22.712	3.96787	-0.0252074	5424.32	37.2457	1	11	0.00478876	0.000214462	0	-0.00019656	-8.86208e-05	2.48591e-05	79.2611	0.115914	0.0215986	-0.113884	-4.45756	22.3416	22.274	1.7364	0.0446304	0.00371101	0.0447845	4.7532	37245.7	447934	449480	-85.2468	0.0000000E+000	0.0000000E+000	0.0000000E+000	85.2468	0.0000000E+000	0.0000000E+000	0.0000000E+000	-85.2468	0.0000000E+000	0.0000000E+000	0.0000000E+000	-4.7532	0.0000000E+000	0.0000000E+000	0.0000000E+000	4.7532	12.0265	85.2468	-2.16932e-06	-0.00010002	2.2339e-09	-0.000100022	3.96796	157409	3.51567	157413
3.97785	23.0128	1.11918	23.04	-2.78427	25.6223	3.96789	-0.023179	35749.5	84.3543	1	11	0.00479111	0.000207947	0	-0.000215119	6.8334e-06	3.85248e-06	-51.7601	0.0185262	0.0114669	0.014551	-2.81901	23.0522	23.0243	1.13373	0.0433515	0.00210831	0.0434027	2.78427	84354.2	1.73451e+06	1.73656e+06	-87.2157	0.0000000E+000	0.0000000E+000	0.0000000E+000	87.2157	0.0000000E+000	0.0000000E+000	0.0000000E+000	-87.2157	0.0000000E+000	0.0000000E+000	0.0000000E+000	-2.78427	0.0000000E+000	0.0000000E+000	0.0000000E+000	2.78427	20.5622	87.2157	-1.67799e-06	-9.1972e-05	-1.58392e-10	-9.19718e-05	3.96788	171184	0.294809	171184
1.00469	24.1019	1.19651	24.1316	-2.84205	240.436	3.96785	-0.018541	132394	325.485	1	11	0.00497751	0.000206265	0	-0.00220929	0.000197742	2.11884e-07	143.135	0.00102724	-0.000821843	-0.000616277	-2.84068	24.1308	24.1011	1.1959	0.0413884	0.00205468	0.0414394	2.84205	325485	6.5564e+06	6.56448e+06	-87.158	0.0000000E+000	0.0000000E+000	0.0000000E+000	87.158	0.0000000E+000	0.0000000E+000	0.0000000E+000	-87.158	0.0000000E+000	0.0000000E+000	0.0000000E+000	-2.84205	0.0000000E+000	0.0000000E+000	0.0000000E+000	2.84205	20.1435	87.158	-0.00195401	-7.35679e-05	-3.66633e-09	-7.35642e-05	3.96765	214004	10.6651	213994
0.251173	25.1608	1.93374	25.235	-4.39485	240.441	3.96785	-0.018541	327678	1924.15	1	11	0.0050036	0.00019828	0	-0.00220929	0.000197742	5.8722e-07	-10.3234	0.00296157	0.00291363	0.000530725	-4.39554	25.238	25.1637	1.93427	0.039511	0.00303663	0.0396275	4.39485	1.92415e+06	2.50359e+07	2.51098e+07	-85.6051	0.0000000E+000	0.0000000E+000	0.0000000E+000	85.6051	0.0000000E+000	0.0000000E+000	0.0000000E+000	-85.6051	0.0000000E+000	0.0000000E+000	0.0000000E+000	-4.39485	0.0000000E+000	0.0000000E+000	0.0000000E+000	4.39485	13.0115	85.6051	0.000000000000000E+000	-7.35679e-05	-3.66633e-09	-7.35642e-05	3.96765	214004	10.6651	213994
0.0602816	26.9488	3.6839	27.1994	-7.78407	240.447	3.96785	-0.018541	716684	13146.9	1	11	0.00499786	0.000183748	0	-0.00220929	0.000197742	5.14669e-07	-28.5168	0.00280094	0.00246113	0.00133722	-7.78616	27.2021	26.9513	3.68523	0.0364267	0.00497952	0.0367655	7.78407	1.31469e+07	9.61733e+07	9.70678e+07	-82.2159	0.0000000E+000	0.0000000E+000	0.0000000E+000	82.2159	0.0000000E+000	0.0000000E+000	0.0000000E+000	-82.2159	0.0000000E+000	0.0000000E+000	0.0000000E+000	-7.78407	0.0000000E+000	0.0000000E+000	0.0000000E+000	7.78407	7.3153	82.2159	0.000000000000000E+000	-7.35679e-05	-3.66633e-09	-7.35642e-05	3.96765	214004	10.6651	213994
0.00796479	36.6358	8.36843	37.5794	-12.8669	20329.4	3.96786	-0.00047214	2.38782e+06	118411	1	11	0.00499395	0.000132891	0	-0.0157129	-0.000145893	3.12794e-07	-143.448	0.00235377	-0.00189081	0.00140181	-12.8696	37.5779	36.6339	8.36984	0.0259421	0.00592577	0.0266103	12.8669	1.18411e+08	5.18384e+08	5.31736e+08	-77.1331	0.0000000E+000	0.0000000E+000	0.0000000E+000	77.1331	0.0000000E+000	0.0000000E+000	0.0000000E+000	-77.1331	0.0000000E+000	0.0000000E+000	0.0000000E+000	-12.8669	0.0000000E+000	0.0000000E+000	0.0000000E+000	12.8669	4.37785	77.1331	-0.0135036	-1.87338e-06	6.88821e-11	-1.87345e-06	3.96801	8.40399e+06	309.005	8.4043e+06
0.0019912	45.1699	12.2164	46.7927	-15.1338	20329.4	3.96786	-0.00047214	6.5428e+06	445956	1	11	0.00500605	0.000106984	0	-0.0157129	-0.000145893	3.4169e-07	-31.2436	0.00319386	0.00273065	0.00165658	-15.1349	46.7958	45.1726	12.218	0.0206297	0.00557937	0.0213708	15.1338	4.45955e+08	1.64892e+09	1.70816e+09	-74.8662	0.0000000E+000	0.0000000E+000	0.0000000E+000	74.8662	0.0000000E+000	0.0000000E+000	0.0000000E+000	-74.8662	0.0000000E+000	0.0000000E+000	0.0000000E+000	-15.1338	0.0000000E+000	0.0000000E+000	0.0000000E+000	15.1338	3.69749	74.8662	0.000000000000000E+000	-1.87338e-06	6.88821e-11	-1.87345e-06	3.96801	8.40399e+06	309.005	8.4043e+06
0.000497799	51.4844	17.3791	54.3385	-18.6526	20329.4	3.96786	-0.00047214	1.83967e+07	1.88182e+06	1	11	0.00500955	9.21916e-05	0	-0.0157129	-0.000145893	1.36928e-06	-118.247	0.0148525	-0.00702921	0.0130838	-18.6681	54.336	51.4773	17.3921	0.0174365	0.00588588	0.0184032	18.6526	1.88182e+09	5.57476e+09	5.88381e+09	-71.3474	0.0000000E+000	0.0000000E+000	0.0000000E+000	71.3474	0.0000000E+000	0.0000000E+000	0.0000000E+000	-71.3474	0.0000000E+000	0.0000000E+000	0.0000000E+000	-18.6526	0.0000000E+000	0.0000000E+000	0.0000000E+000	18.6526	2.96244	71.3474	0.000000000000000E+000	-1.87338e-06	6.88821e-11	-1.87345e-06	3.96801	8.40399e+06	309.005	8.4043e+06
9.95598e-05	60.9108	79.8745	100.449	-52.6715	20329.4	3.96786	-0.00047214	2.00137e+07	1.26546e+07	1	11	0.00500231	4.97994e-05	0	-0.0157129	-0.000145893	4.80854e-06	50.8554	0.0965583	0.0609553	-0.0748863	-52.618	100.427	60.9718	79.7996	0.00603671	0.00791615	0.00995527	52.6715	1.26546e+10	9.6502e+09	1.59144e+10	-37.3285	0.0000000E+000	0.0000000E+000	0.0000000E+000	37.3285	0.0000000E+000	0.0000000E+000	0.0000000E+000	-37.3285	0.0000000E+000	0.0000000E+000	0.0000000E+000	-52.6715	0.0000000E+000	0.0000000E+000	0.0000000E+000	52.6715	0.762582	37.3285	0.000000000000000E+000	-1.87338e-06	6.88821e-11	-1.87345e-06	3.96801	8.40399e+06	309.005	8.4043e+06