File: txt/19077_R307_UC93_28_SOC50_C01.mpt
EC-Lab ASCII FILE
Nb header lines : 66

Potentio Electrochemical Impedance Spectroscopy

Run on channel : 1 (SN 66354)
Grouped channel(s) : 1, 2, 3, 4, 5
User :
CE vs. WE compliance from -10 V to 10 V
Electrode connection : standard
Potential control : Ewe
Ewe ctrl range : min = -10.00 V, max = 10.00 V
Safety Limits :
	Do not start on E overload
Acquisition started on : 11/10/2025 15:44:01.793
Technique started on : 11/10/2025 15:44:04.028
Loaded Setting File :  C:\Users\Celltest\OneDrive - store-dot.com\Documents\EC-Lab\Data\@Biologic Test Protocols\cathode half cell EIS SOC50.mps
Saved on :
	File : 19077_R307_UC93_28_SOC50_C01.mpr
	Directory : C:\Users\Celltest\OneDrive - store-dot.com\Documents\EC-Lab\Data\Anna\
	Host : 169.254.61.224
Device : VMP-3e (SN .003165)
Address : USB
EC-LAB for windows v11.62 (software)
Internet server v27.00 (firmware)
Command interpretor v12.03 (firmware)
Electrode material :
Initial state :
Electrolyte :
Comments :
Electrode surface area : 0.001 cm²
Characteristic mass : 0.001 g
Equivalent Weight : 0.000 g/eq.
Density : 0.000 g/cm3
Volume (V) : 0.001 cm³
Record Ece
Cycle Definition : Charge/Discharge alternance
Mode                Multi sine
E (V)               0.0000
vs.                 Eoc
tE (h:m:s)          0:00:0.0000
record              0
dI                  0.000
unit dI             mA
dt (s)              0.000
fi                  1.000
unit fi             MHz
ff                  0.100
unit ff             mHz
Nd                  10
Points              per decade
spacing             Logarithmic
Va (mV)             5.0
pw                  0.10
Na                  2
corr                0
E range min (V)     -10.000
E range max (V)     10.000
I Range             Auto
Bandwidth           5
nc cycles           0
goto Ns'            0
nr cycles           0
inc. cycle          0

freq/Hz	Re(Z)/Ohm	-Im(Z)/Ohm	|Z|/Ohm	Phase(Z)/deg	time/s	<Ewe>/V	<I>/mA	Cs/µF	Cp/µF	cycle number	I Range	|Ewe|/V	|I|/A	Ns	(Q-Qo)/mA.h	<Ece>/V	|Ece|/V	Phase(Zce)/deg	|Zce|/Ohm	Re(Zce)/Ohm	-Im(Zce)/Ohm	Phase(Zwe-ce)/deg	|Zwe-ce|/Ohm	Re(Zwe-ce)/Ohm	-Im(Zwe-ce)/Ohm	Re(Y)/Ohm-1	Im(Y)/Ohm-1	|Y|/Ohm-1	Phase(Y)/deg	Re(C)/nF	Im(C)/nF	|C|/nF	Phase(C)/deg	Re(M)	Im(M)	|M|	Phase(M)/deg	Re(Permittivity)	Im(Permittivity)	|Permittivity|	Phase(Permittivity)/deg	Re(Resistivity)/Ohm.cm	Im(Resistivity)/Ohm.cm	|Resistivity|/Ohm.cm	Phase(Resistivity)/deg	Re(Conductivity)/mS/cm	Im(Conductivity)/mS/cm	|Conductivity|/mS/cm	Phase(Conductivity)/deg	Tan(Delta)	Loss Angle(Delta)/deg	dq/mA.h	Pwe/W	Pce/W	Pwe-ce/W	<Ewe-Ece>/V	Rwe/Ohm	Rce/Ohm	Rwe-ce/Ohm		Ewe-Ece/V
1.00002e+06	2.44215	2.76913	3.69218	-48.5904	2.23455	3.97113	-0.0128547	0.0574736	0.0323289	1	10	0.000242292	6.5623e-05	0	-5.88195e-06	0.000214098	0.000186123	-71.3922	2.83625	0.905013	2.68798	-58.4768	6.40184	3.34716	5.45712	0.179146	0.203132	0.270843	48.5904	32.3289	28.5114	43.1052	-41.4096	0.0000000E+000	0.0000000E+000	0.0000000E+000	41.4096	0.0000000E+000	0.0000000E+000	0.0000000E+000	-41.4096	0.0000000E+000	0.0000000E+000	0.0000000E+000	-48.5904	0.0000000E+000	0.0000000E+000	0.0000000E+000	48.5904	0.881918	41.4097	-5.88195e-06	-5.10476e-05	-2.75216e-09	-5.10449e-05	3.97092	308925	16.6552	308908
251206	1.61709	0.42587	1.67222	-14.7542	4.93954	3.97072	-0.00879659	1.48769	0.096489	1	9	0.00430537	0.00257464	0	-5.52346e-06	4.24746e-06	5.68078e-05	114.381	0.0220644	-0.00910832	-0.0200966	-14.1629	1.65839	1.60798	0.405773	0.578288	0.152296	0.598006	14.7542	96.4891	366.382	378.874	-75.2458	0.0000000E+000	0.0000000E+000	0.0000000E+000	75.2458	0.0000000E+000	0.0000000E+000	0.0000000E+000	-75.2458	0.0000000E+000	0.0000000E+000	0.0000000E+000	-14.7542	0.0000000E+000	0.0000000E+000	0.0000000E+000	14.7542	3.79714	75.2458	5.10137e-07	-3.49288e-05	-3.73632e-11	-3.49288e-05	3.97072	451394	0.482853	451393
63093.8	2.25866	1.01005	2.47422	-24.0937	7.36155	3.97073	0.0211559	2.49741	0.416198	1	9	0.00502052	0.00202913	0	1.15683e-05	0.000290407	3.13407e-05	71.8688	0.0154454	0.00480651	-0.0146785	-23.7378	2.47266	2.26347	0.995373	0.368956	0.164994	0.404168	24.0937	416.198	930.697	1019.52	-65.9063	0.0000000E+000	0.0000000E+000	0.0000000E+000	65.9063	0.0000000E+000	0.0000000E+000	0.0000000E+000	-65.9063	0.0000000E+000	0.0000000E+000	0.0000000E+000	-24.0937	0.0000000E+000	0.0000000E+000	0.0000000E+000	24.0937	2.23619	65.9063	-3.46403e-06	8.40042e-05	6.14382e-09	8.3998e-05	3.97044	187689	13.727	187675
15847.7	3.38823	1.69315	3.78772	-26.552	9.66353	3.97073	0.019852	5.93142	1.18521	1	9	0.00457631	0.0012082	0	1.60259e-05	-9.11391e-05	4.8077e-06	76.6534	0.00397924	0.000918576	-0.00387177	-26.4934	3.78682	3.38915	1.68928	0.236165	0.118016	0.264011	26.552	1185.21	2371.76	2651.41	-63.448	0.0000000E+000	0.0000000E+000	0.0000000E+000	63.448	0.0000000E+000	0.0000000E+000	0.0000000E+000	-63.448	0.0000000E+000	0.0000000E+000	0.0000000E+000	-26.552	0.0000000E+000	0.0000000E+000	0.0000000E+000	26.552	2.00114	63.448	8.42394e-07	7.88267e-05	-1.80929e-09	7.88285e-05	3.97082	200017	4.59094	200021
3983.6	5.04976	2.6517	5.70364	-27.7046	11.5441	3.97067	-0.0333566	15.0668	3.2566	1	10	0.00469169	0.000822578	0	9.79104e-06	-3.39072e-05	1.0582e-05	-102.652	0.0128644	-0.00281772	0.012552	-27.8293	5.707	5.04694	2.66425	0.155226	0.0815116	0.175327	27.7046	3256.6	6201.69	7004.74	-62.2954	0.0000000E+000	0.0000000E+000	0.0000000E+000	62.2954	0.0000000E+000	0.0000000E+000	0.0000000E+000	-62.2954	0.0000000E+000	0.0000000E+000	0.0000000E+000	-27.7046	0.0000000E+000	0.0000000E+000	0.0000000E+000	27.7046	1.90435	62.2954	-1.98925e-06	-0.000132448	1.13103e-09	-0.000132449	3.9707	119037	1.01651	119038
1000.32	7.915	4.3506	9.03188	-28.796	14.3868	3.97068	-0.0131491	36.5706	8.48542	1	10	0.00498678	0.00055213	0	-1.87596e-07	9.9634e-05	8.78961e-06	15.5402	0.0159194	0.0153375	-0.00426504	-28.7256	9.04328	7.93034	4.34633	0.0970274	0.0533325	0.110719	28.796	8485.42	15437.4	17615.8	-61.204	0.0000000E+000	0.0000000E+000	0.0000000E+000	61.204	0.0000000E+000	0.0000000E+000	0.0000000E+000	-61.204	0.0000000E+000	0.0000000E+000	0.0000000E+000	-28.796	0.0000000E+000	0.0000000E+000	0.0000000E+000	28.796	1.81929	61.204	-1.61755e-06	-5.22108e-05	-1.3101e-09	-5.22095e-05	3.97058	301973	7.57725	301966
251.044	13.2679	5.65129	14.4213	-23.0709	17.087	3.97067	-0.0138721	112.182	17.2269	1	10	0.00494901	0.000343173	0	-1.02342e-05	-0.000129294	4.9841e-06	-43.8898	0.0145236	0.0104668	0.0100688	-23.0914	14.4349	13.2784	5.66136	0.0637959	0.027173	0.0693418	23.0709	17226.9	40444.8	43960.7	-66.9291	0.0000000E+000	0.0000000E+000	0.0000000E+000	66.9291	0.0000000E+000	0.0000000E+000	0.0000000E+000	-66.9291	0.0000000E+000	0.0000000E+000	0.0000000E+000	-23.0709	0.0000000E+000	0.0000000E+000	0.0000000E+000	23.0709	2.34777	66.9291	-1.50275e-06	-5.50816e-05	1.79358e-09	-5.50834e-05	3.9708	286234	9.3204	286243
63.0823	18.3758	3.74918	18.7543	-11.5317	19.808	3.97068	-0.0103613	672.94	26.8935	1	10	0.00493069	0.00026291	0	-1.84309e-05	6.14794e-05	5.0826e-06	-54.4846	0.0193321	0.0112304	0.0157356	-11.5719	18.7685	18.387	3.76492	0.0522447	0.0106594	0.053321	11.5317	26893.4	131812	134528	-78.4683	0.0000000E+000	0.0000000E+000	0.0000000E+000	78.4683	0.0000000E+000	0.0000000E+000	0.0000000E+000	-78.4683	0.0000000E+000	0.0000000E+000	0.0000000E+000	-11.5317	0.0000000E+000	0.0000000E+000	0.0000000E+000	11.5317	4.90127	78.4683	-1.3771e-06	-4.11416e-05	-6.37009e-10	-4.1141e-05	3.97062	383220	5.93353	383214
15.8576	20.2962	1.62826	20.3614	-4.58673	22.712	3.97072	-0.0125578	6163.96	39.4179	1	11	0.00494952	0.000243084	0	-3.01853e-05	0.000214098	1.00595e-05	7.29847	0.0413827	0.0410475	-0.00525718	-4.5628	20.4019	20.3372	1.623	0.0489553	0.00392744	0.0491126	4.58673	39417.9	491341	492920	-85.4133	0.0000000E+000	0.0000000E+000	0.0000000E+000	85.4133	0.0000000E+000	0.0000000E+000	0.0000000E+000	-85.4133	0.0000000E+000	0.0000000E+000	0.0000000E+000	-4.58673	0.0000000E+000	0.0000000E+000	0.0000000E+000	4.58673	12.4649	85.4133	-2.34608e-06	-4.98636e-05	-2.6886e-09	-4.98609e-05	3.97051	316195	17.049	316178
3.97785	20.8952	1.02702	20.9204	-2.81389	25.6244	3.97074	-0.0104142	38957.6	93.8881	1	11	0.00493535	0.000235911	0	-3.99448e-05	-0.000186526	8.60674e-06	-10.2491	0.036483	0.0359009	0.00649135	-2.82679	20.9566	20.9311	1.03351	0.0477426	0.0023466	0.0478002	2.81389	93888.2	1.91019e+06	1.9125e+06	-87.1861	0.0000000E+000	0.0000000E+000	0.0000000E+000	87.1861	0.0000000E+000	0.0000000E+000	0.0000000E+000	-87.1861	0.0000000E+000	0.0000000E+000	0.0000000E+000	-2.81389	0.0000000E+000	0.0000000E+000	0.0000000E+000	2.81389	20.3454	87.1861	-3.92621e-06	-4.13519e-05	1.94251e-09	-4.13538e-05	3.97092	381283	17.9108	381301
1.00469	22.0223	1.19405	22.0546	-3.10355	240.438	3.97071	-0.0095965	132667	388.875	1	11	0.00500599	0.000226982	0	-0.00149732	-0.000205603	1.77636e-07	0.398142	0.000782603	0.000782584	-5.43817e-06	-3.10342	22.0554	22.0231	1.19405	0.0452755	0.00245484	0.045342	3.10355	388875	7.17215e+06	7.18269e+06	-86.8965	0.0000000E+000	0.0000000E+000	0.0000000E+000	86.8965	0.0000000E+000	0.0000000E+000	0.0000000E+000	-86.8965	0.0000000E+000	0.0000000E+000	0.0000000E+000	-3.10355	0.0000000E+000	0.0000000E+000	0.0000000E+000	3.10355	18.4433	86.8965	-0.00144695	-3.81049e-05	1.97307e-09	-3.81069e-05	3.97091	413767	21.4248	413788
0.251173	23.0735	1.89595	23.1512	-4.69746	240.438	3.97071	-0.0095965	334209	2241.44	1	11	0.00503272	0.000217385	0	-0.00149732	-0.000205603	1.7321e-07	17.5406	0.000796788	0.000759741	-0.000240137	-4.69672	23.152	23.0742	1.89571	0.0430492	0.00353737	0.0431943	4.69746	2.24144e+06	2.72779e+07	2.73699e+07	-85.3025	0.0000000E+000	0.0000000E+000	0.0000000E+000	85.3025	0.0000000E+000	0.0000000E+000	0.0000000E+000	-85.3025	0.0000000E+000	0.0000000E+000	0.0000000E+000	-4.69746	0.0000000E+000	0.0000000E+000	0.0000000E+000	4.69746	12.1698	85.3025	0.000000000000000E+000	-3.81049e-05	1.97307e-09	-3.81069e-05	3.97091	413767	21.4248	413788
0.0602816	24.7878	3.67606	25.0589	-8.43554	240.438	3.97071	-0.0095965	718211	15455.8	1	11	0.00502758	0.00020063	0	-0.00149732	-0.000205603	7.55742e-07	-62.5092	0.00376684	0.0017388	0.00334151	-8.44252	25.0612	24.7896	3.67941	0.0394742	0.00585407	0.0399059	8.43554	1.54559e+07	1.04219e+08	1.05359e+08	-81.5645	0.0000000E+000	0.0000000E+000	0.0000000E+000	81.5645	0.0000000E+000	0.0000000E+000	0.0000000E+000	-81.5645	0.0000000E+000	0.0000000E+000	0.0000000E+000	-8.43554	0.0000000E+000	0.0000000E+000	0.0000000E+000	8.43554	6.74304	81.5645	0.000000000000000E+000	-3.81049e-05	1.97307e-09	-3.81069e-05	3.97091	413767	21.4248	413788
0.00796479	33.971	8.72677	35.074	-14.4071	20329.3	3.97073	0.000487417	2.28977e+06	141752	1	11	0.00502061	0.000143143	0	-0.00764776	0.000118711	5.76358e-07	-34.8165	0.00402644	0.00330564	0.0022989	-14.4094	35.0778	33.9743	8.72907	0.0276145	0.00709386	0.0285111	14.4071	1.41752e+08	5.51803e+08	5.69719e+08	-75.5929	0.0000000E+000	0.0000000E+000	0.0000000E+000	75.5929	0.0000000E+000	0.0000000E+000	0.0000000E+000	-75.5929	0.0000000E+000	0.0000000E+000	0.0000000E+000	-14.4071	0.0000000E+000	0.0000000E+000	0.0000000E+000	14.4071	3.89274	75.5929	-0.00615044	1.9354e-06	5.78619e-11	1.93534e-06	3.97061	8.14647e+06	243.552	8.14622e+06
0.0019912	43.2916	13.2607	45.277	-17.0304	20329.3	3.97073	0.000487417	6.02755e+06	517029	1	11	0.00503296	0.000111159	0	-0.00764776	0.000118711	5.54952e-07	-47.1139	0.00499241	0.00339755	0.00365798	-17.0335	45.2814	43.295	13.2643	0.0211178	0.00646858	0.0220862	17.0304	5.17029e+08	1.68793e+09	1.76534e+09	-72.9696	0.0000000E+000	0.0000000E+000	0.0000000E+000	72.9696	0.0000000E+000	0.0000000E+000	0.0000000E+000	-72.9696	0.0000000E+000	0.0000000E+000	0.0000000E+000	-17.0304	0.0000000E+000	0.0000000E+000	0.0000000E+000	17.0304	3.26466	72.9696	0.000000000000000E+000	1.9354e-06	5.78619e-11	1.93534e-06	3.97061	8.14647e+06	243.552	8.14622e+06
0.000497799	50.9497	18.1749	54.0944	-19.6324	20329.3	3.97073	0.000487417	1.75911e+07	1.98579e+06	1	11	0.00503614	9.30992e-05	0	-0.00764776	0.000118711	3.43822e-07	-27.2457	0.00369307	0.00328333	0.00169071	-19.633	54.098	50.953	18.1766	0.0174116	0.00621109	0.0184862	19.6324	1.98579e+09	5.56677e+09	5.91036e+09	-70.3676	0.0000000E+000	0.0000000E+000	0.0000000E+000	70.3676	0.0000000E+000	0.0000000E+000	0.0000000E+000	-70.3676	0.0000000E+000	0.0000000E+000	0.0000000E+000	-19.6324	0.0000000E+000	0.0000000E+000	0.0000000E+000	19.6324	2.8033	70.3676	0.000000000000000E+000	1.9354e-06	5.78619e-11	1.93534e-06	3.97061	8.14647e+06	243.552	8.14622e+06
9.95598e-05	61.1575	77.3194	98.5826	-51.657	20329.3	3.97073	0.000487417	2.06751e+07	1.27181e+07	1	11	0.00503168	5.10402e-05	0	-0.00764776	0.000118711	1.93192e-06	-60.9997	0.0378509	0.0183507	0.033105	-51.6605	98.62	61.1759	77.3525	0.00629288	0.00795587	0.0101438	51.657	1.27181e+10	1.00597e+10	1.62157e+10	-38.343	0.0000000E+000	0.0000000E+000	0.0000000E+000	38.343	0.0000000E+000	0.0000000E+000	0.0000000E+000	-38.343	0.0000000E+000	0.0000000E+000	0.0000000E+000	-51.657	0.0000000E+000	0.0000000E+000	0.0000000E+000	51.657	0.790973	38.343	0.000000000000000E+000	1.9354e-06	5.78619e-11	1.93534e-06	3.97061	8.14647e+06	243.552	8.14622e+06