File: txt/19071_R307_UA701_4p38_SOC00_C08.mpt
EC-Lab ASCII FILE
Nb header lines : 65

Potentio Electrochemical Impedance Spectroscopy

Run on channel : 8 (SN 65398)
Grouped channel(s) : 6, 7, 8
User :
CE vs. WE compliance from -10 V to 10 V
Electrode connection : standard
Potential control : Ewe
Ewe ctrl range : min = -10.00 V, max = 10.00 V
Safety Limits :
	Do not start on E overload
Acquisition started on : 11/12/2025 10:26:23.601
Loaded Setting File :  C:\Users\Celltest\OneDrive - store-dot.com\Documents\EC-Lab\Data\@Biologic Test Protocols\anode half cell EIS SOC00.mps
Saved on :
	File : 19067_R307_UA701_4p38_SOC00_C08.mpr
	Directory : C:\Users\Celltest\OneDrive - store-dot.com\Documents\EC-Lab\Data\Anna\
	Host : 169.254.61.224
Device : VMP-3e (SN .003165)
Address : USB
EC-LAB for windows v11.62 (software)
Internet server v27.00 (firmware)
Command interpretor v12.03 (firmware)
Electrode material :
Initial state :
Electrolyte :
Comments :
Electrode surface area : 0.001 cm²
Characteristic mass : 0.001 g
Equivalent Weight : 0.000 g/eq.
Density : 0.000 g/cm3
Volume (V) : 0.001 cm³
Record Ece
Cycle Definition : Charge/Discharge alternance
Mode                Single sine
E (V)               0.0000
vs.                 Eoc
tE (h:m:s)          0:00:0.0000
record              0
dI                  0.000
unit dI             mA
dt (s)              0.000
fi                  100.000
unit fi             kHz
ff                  10.000
unit ff             mHz
Nd                  6
Points              per decade
spacing             Logarithmic
Va (mV)             5.0
pw                  0.10
Na                  2
corr                0
E range min (V)     -10.000
E range max (V)     10.000
I Range             Auto
Bandwidth           5
nc cycles           0
goto Ns'            0
nr cycles           0
inc. cycle          0

freq/Hz	Re(Z)/Ohm	-Im(Z)/Ohm	|Z|/Ohm	Phase(Z)/deg	time/s	<Ewe>/V	<I>/mA	Cs/µF	Cp/µF	cycle number	I Range	|Ewe|/V	|I|/A	Ns	(Q-Qo)/mA.h	<Ece>/V	|Ece|/V	Phase(Zce)/deg	|Zce|/Ohm	Re(Zce)/Ohm	-Im(Zce)/Ohm	Phase(Zwe-ce)/deg	|Zwe-ce|/Ohm	Re(Zwe-ce)/Ohm	-Im(Zwe-ce)/Ohm	Re(Y)/Ohm-1	Im(Y)/Ohm-1	|Y|/Ohm-1	Phase(Y)/deg	Re(C)/nF	Im(C)/nF	|C|/nF	Phase(C)/deg	Re(M)	Im(M)	|M|	Phase(M)/deg	Re(Permittivity)	Im(Permittivity)	|Permittivity|	Phase(Permittivity)/deg	Re(Resistivity)/Ohm.cm	Im(Resistivity)/Ohm.cm	|Resistivity|/Ohm.cm	Phase(Resistivity)/deg	Re(Conductivity)/mS/cm	Im(Conductivity)/mS/cm	|Conductivity|/mS/cm	Phase(Conductivity)/deg	Tan(Delta)	Loss Angle(Delta)/deg	dq/mA.h	Pwe/W	Pce/W	Pwe-ce/W	<Ewe-Ece>/V	Rwe/Ohm	Rce/Ohm	Rwe-ce/Ohm		Ewe-Ece/V
100004	1.07208	0.373927	1.13542	-19.228	1.72652	0.263234	0.00163933	4.25616	0.461612	1	9	0.00451955	0.00398051	0	-4.56664e-07	0.00024868	5.2297e-05	81.3884	0.0131383	0.00196726	-0.0129902	-18.575	1.13307	1.07405	0.360936	0.8316	0.29005	0.880731	19.228	461.612	1323.48	1401.68	-70.772	0.0000000E+000	0.0000000E+000	0.0000000E+000	70.772	0.0000000E+000	0.0000000E+000	0.0000000E+000	-70.772	0.0000000E+000	0.0000000E+000	0.0000000E+000	-19.228	0.0000000E+000	0.0000000E+000	0.0000000E+000	19.228	2.86709	70.772	-4.56664e-07	4.31527e-07	4.07668e-10	4.3112e-07	0.262986	160575	151.696	160423
31621.1	1.3833	0.496274	1.46963	-19.7359	3.12352	0.263247	0.0130976	10.1419	1.1565	1	9	0.00508163	0.00345776	0	-4.31489e-06	7.68873e-05	1.84762e-05	26.7903	0.00534341	0.00476986	-0.00240842	-19.5851	1.47331	1.38807	0.493865	0.640473	0.229776	0.680443	19.7359	1156.5	3223.61	3424.79	-70.2641	0.0000000E+000	0.0000000E+000	0.0000000E+000	70.2641	0.0000000E+000	0.0000000E+000	0.0000000E+000	-70.2641	0.0000000E+000	0.0000000E+000	0.0000000E+000	-19.7359	0.0000000E+000	0.0000000E+000	0.0000000E+000	19.7359	2.78738	70.2641	8.16647e-07	3.44791e-06	1.00704e-09	3.4469e-06	0.26317	20098.9	5.87033	20093
10002.2	1.75149	0.670971	1.87561	-20.9612	4.14855	0.263241	0.00781489	23.7148	3.03489	1	9	0.00512449	0.00273218	0	-1.95436e-05	3.87112e-05	2.90696e-06	-18.2693	0.00106397	0.00101034	0.000333537	-20.9597	1.87667	1.7525	0.671305	0.497878	0.19073	0.533161	20.9612	3034.89	7922.21	8483.63	-69.0388	0.0000000E+000	0.0000000E+000	0.0000000E+000	69.0388	0.0000000E+000	0.0000000E+000	0.0000000E+000	-69.0388	0.0000000E+000	0.0000000E+000	0.0000000E+000	-20.9612	0.0000000E+000	0.0000000E+000	0.0000000E+000	20.9612	2.61037	69.0388	-6.37733e-07	2.0572e-06	3.02523e-10	2.05689e-06	0.263202	33684.5	4.95352	33679.6
3163.08	2.27533	1.00148	2.48598	-23.7564	5.04664	0.263025	-0.0698634	50.2423	8.1537	1	9	0.00478634	0.00192533	0	-2.76757e-05	7.68873e-05	6.18478e-06	19.5684	0.00321232	0.00302678	-0.00107591	-23.7057	2.48832	2.27836	1.0004	0.368171	0.162048	0.402256	23.7564	8153.7	18525.1	20240.1	-66.2436	0.0000000E+000	0.0000000E+000	0.0000000E+000	66.2436	0.0000000E+000	0.0000000E+000	0.0000000E+000	-66.2436	0.0000000E+000	0.0000000E+000	0.0000000E+000	-23.7564	0.0000000E+000	0.0000000E+000	0.0000000E+000	23.7564	2.27198	66.2436	-7.88399e-06	-1.83758e-05	-5.37161e-09	-1.83705e-05	0.262948	3764.85	1.10054	3763.75
1000.32	3.02029	1.55592	3.39751	-27.2556	6.64481	0.26313	-0.0248528	102.257	21.4461	1	10	0.00476133	0.00140142	0	-3.09549e-05	5.77992e-05	1.86131e-05	33.3655	0.0132816	0.0110925	-0.00730461	-27.0608	3.40404	3.03138	1.54862	0.261654	0.134793	0.294333	27.2556	21446.1	41630.3	46829.6	-62.7444	0.0000000E+000	0.0000000E+000	0.0000000E+000	62.7444	0.0000000E+000	0.0000000E+000	0.0000000E+000	-62.7444	0.0000000E+000	0.0000000E+000	0.0000000E+000	-27.2556	0.0000000E+000	0.0000000E+000	0.0000000E+000	27.2556	1.94116	62.7444	-5.25494e-06	-6.53953e-06	-1.43647e-09	-6.53809e-06	0.263073	10587.5	2.32566	10585.2
316.316	4.26742	2.6984	5.04899	-32.3062	7.99508	0.263129	-0.0240233	186.463	53.2595	1	10	0.00464458	0.000919903	0	-3.97497e-05	0.000210504	1.27823e-05	-3.22998	0.0138953	0.0138732	0.000782916	-32.2298	5.06113	4.2813	2.69918	0.167401	0.105852	0.19806	32.3062	53259.5	84228	99654.1	-57.6938	0.0000000E+000	0.0000000E+000	0.0000000E+000	57.6938	0.0000000E+000	0.0000000E+000	0.0000000E+000	-57.6938	0.0000000E+000	0.0000000E+000	0.0000000E+000	-32.3062	0.0000000E+000	0.0000000E+000	0.0000000E+000	32.3062	1.58146	57.6938	-3.02302e-06	-6.32121e-06	-5.05699e-09	-6.31615e-06	0.262918	10953.1	8.76249	10944.3
100.032	7.00601	4.23772	8.18795	-31.1685	9.34285	0.263124	-0.0233239	375.447	100.569	1	10	0.00461228	0.000563301	0	-4.91303e-05	0.000191416	1.01334e-05	-86.0408	0.0179893	0.00124209	0.0179463	-31.2713	8.19831	7.00725	4.25567	0.104501	0.0632095	0.122131	31.1685	100569	166265	194315	-58.8315	0.0000000E+000	0.0000000E+000	0.0000000E+000	58.8315	0.0000000E+000	0.0000000E+000	0.0000000E+000	-58.8315	0.0000000E+000	0.0000000E+000	0.0000000E+000	-31.1685	0.0000000E+000	0.0000000E+000	0.0000000E+000	31.1685	1.65325	58.8315	-2.33834e-06	-6.13709e-06	-4.46456e-09	-6.13262e-06	0.262933	11281.3	8.20683	11273.1
31.6296	11.0259	4.37125	11.8608	-21.626	10.6716	0.263124	-0.0272559	1151.12	156.352	1	10	0.0046081	0.000388515	0	-5.81558e-05	0.000191416	5.33441e-06	38.9109	0.0137302	0.0106838	-0.00862413	-21.5682	11.8676	11.0366	4.36263	0.0783766	0.0310726	0.0843113	21.626	156352	394379	424241	-68.374	0.0000000E+000	0.0000000E+000	0.0000000E+000	68.374	0.0000000E+000	0.0000000E+000	0.0000000E+000	-68.374	0.0000000E+000	0.0000000E+000	0.0000000E+000	-21.626	0.0000000E+000	0.0000000E+000	0.0000000E+000	21.626	2.52237	68.374	-3.73416e-06	-7.17169e-06	-5.21721e-09	-7.16647e-06	0.262932	9653.82	7.0229	9646.79
10.0032	14.0878	3.24148	14.4559	-12.9578	12.2528	0.26316	-0.0103072	4908.37	246.794	1	11	0.00460942	0.000318862	0	-6.50913e-05	5.77992e-05	6.16687e-06	-30.5066	0.0193403	0.016663	0.00981785	-12.9808	14.4743	14.1044	3.2513	0.0674145	0.0155115	0.069176	12.9578	246795	1.07259e+06	1.10062e+06	-77.0422	0.0000000E+000	0.0000000E+000	0.0000000E+000	77.0422	0.0000000E+000	0.0000000E+000	0.0000000E+000	-77.0422	0.0000000E+000	0.0000000E+000	0.0000000E+000	-12.9578	0.0000000E+000	0.0000000E+000	0.0000000E+000	12.9578	4.34609	77.0422	-3.75703e-06	-2.71245e-06	-5.95748e-10	-2.71185e-06	0.263103	25531.7	5.60766	25526.1
3.1604	15.9636	2.21363	16.1164	-7.89468	13.7694	0.26315	-0.0094008	22749.6	429.188	1	11	0.00460802	0.000285922	0	-7.0755e-05	-0.000209434	2.89593e-06	-51.8609	0.0101284	0.00625502	0.00796613	-7.91966	16.1237	15.9699	2.22159	0.0614606	0.00852254	0.0620486	7.89468	429188	3.0951e+06	3.12472e+06	-82.1053	0.0000000E+000	0.0000000E+000	0.0000000E+000	82.1053	0.0000000E+000	0.0000000E+000	0.0000000E+000	-82.1053	0.0000000E+000	0.0000000E+000	0.0000000E+000	-7.89468	0.0000000E+000	0.0000000E+000	0.0000000E+000	7.89468	7.21153	82.1053	-5.7911e-06	-2.47382e-06	1.96884e-09	-2.47579e-06	0.263359	27992.3	22.2783	28014.6
1.00006	17.1277	1.56301	17.1989	-5.21417	19.4089	0.263169	-0.00758997	101819	840.921	1	12	0.00461508	0.000268336	0	-7.26968e-05	0.000134151	1.59e-06	75.7844	0.00592541	0.00145511	-0.00574396	-5.19467	17.1998	17.1292	1.55727	0.0579028	0.005284	0.0581434	5.21417	840921	9.21492e+06	9.25321e+06	-84.7858	0.0000000E+000	0.0000000E+000	0.0000000E+000	84.7858	0.0000000E+000	0.0000000E+000	0.0000000E+000	-84.7858	0.0000000E+000	0.0000000E+000	0.0000000E+000	-5.21417	0.0000000E+000	0.0000000E+000	0.0000000E+000	5.21417	10.9581	84.7858	2.69272e-06	-1.99744e-06	-1.01821e-09	-1.99643e-06	0.263035	34673.2	17.6748	34655.6
0.316193	17.8256	1.57025	17.8946	-5.03416	33.7528	0.263172	-0.00299379	320553	2468.26	1	12	0.00461667	0.000257992	0	-0.000101375	0.00024868	3.13803e-06	-7.57151	0.0121633	0.0120573	0.00160268	-5.03588	17.9068	17.8377	1.57185	0.0556671	0.00490368	0.0558826	5.03416	2.46825e+06	2.80199e+07	2.81284e+07	-84.9658	0.0000000E+000	0.0000000E+000	0.0000000E+000	84.9658	0.0000000E+000	0.0000000E+000	0.0000000E+000	-84.9658	0.0000000E+000	0.0000000E+000	0.0000000E+000	-5.03416	0.0000000E+000	0.0000000E+000	0.0000000E+000	5.03416	11.3521	84.9658	-2.2893e-05	-7.8788e-07	-7.44494e-10	-7.87135e-07	0.262923	87906	83.0653	87822.9
0.0999041	18.7305	2.74561	18.9306	-8.33933	78.9609	0.263166	-0.0041627	580227	12205.2	1	12	0.00461098	0.000243572	0	-0.000242225	-1.8553e-05	1.95281e-06	3.61712	0.00801737	0.0080014	-0.000505807	-8.3343	18.9385	18.7385	2.74511	0.0522659	0.00766141	0.0528244	8.33933	1.22052e+07	8.32636e+07	8.41534e+07	-81.6607	0.0000000E+000	0.0000000E+000	0.0000000E+000	81.6607	0.0000000E+000	0.0000000E+000	0.0000000E+000	-81.6607	0.0000000E+000	0.0000000E+000	0.0000000E+000	-8.33933	0.0000000E+000	0.0000000E+000	0.0000000E+000	8.33933	6.82197	81.6607	-4.50131e-05	-1.09548e-06	7.72304e-11	-1.09556e-06	0.263185	63220.2	4.45696	63224.6
0.0315922	20.3073	5.89832	21.1466	-16.1961	221.843	0.263167	-0.000962968	854106	66449	1	12	0.00461147	0.000218072	0	2.23183e-06	0.000134151	3.14004e-06	-15.8389	0.0143991	0.0138524	0.00392999	-16.1959	21.161	20.3212	5.90225	0.0454122	0.0131901	0.047289	16.1961	6.6449e+07	2.28777e+08	2.38232e+08	-73.8039	0.0000000E+000	0.0000000E+000	0.0000000E+000	73.8039	0.0000000E+000	0.0000000E+000	0.0000000E+000	-73.8039	0.0000000E+000	0.0000000E+000	0.0000000E+000	-16.1961	0.0000000E+000	0.0000000E+000	0.0000000E+000	16.1961	3.4429	73.8039	0.000175201	-2.53421e-07	-1.29184e-10	-2.53292e-07	0.263033	273288	139.31	273148
0.0100092	23.6104	14.0452	27.4721	-30.7473	673.066	0.263165	0.000343168	1.13213e+06	295914	1	12	0.00461249	0.000167897	0	-0.000106546	3.87112e-05	2.50591e-06	-16.2127	0.0149252	0.0143317	0.0041672	-30.7395	27.4865	23.6247	14.0494	0.0312838	0.0186099	0.0364006	30.7473	2.95914e+08	4.9744e+08	5.78802e+08	-59.2527	0.0000000E+000	0.0000000E+000	0.0000000E+000	59.2527	0.0000000E+000	0.0000000E+000	0.0000000E+000	-59.2527	0.0000000E+000	0.0000000E+000	0.0000000E+000	-30.7473	0.0000000E+000	0.0000000E+000	0.0000000E+000	30.7473	1.68103	59.2527	-0.000322289	9.03098e-08	1.32845e-11	9.02965e-08	0.263126	766867	112.805	766754