File: txt/19080_R307_UC93_28_SOC50_C04.mpt
EC-Lab ASCII FILE
Nb header lines : 65

Potentio Electrochemical Impedance Spectroscopy

Run on channel : 4 (SN 66756)
Grouped channel(s) : 1, 2, 3, 4, 5
User :
CE vs. WE compliance from -10 V to 10 V
Electrode connection : standard
Potential control : Ewe
Ewe ctrl range : min = -10.00 V, max = 10.00 V
Safety Limits :
	Do not start on E overload
Acquisition started on : 11/10/2025 15:44:01.793
Loaded Setting File :  C:\Users\Celltest\OneDrive - store-dot.com\Documents\EC-Lab\Data\@Biologic Test Protocols\cathode half cell EIS SOC50.mps
Saved on :
	File : 19077_R307_UC93_28_SOC50_C04.mpr
	Directory : C:\Users\Celltest\OneDrive - store-dot.com\Documents\EC-Lab\Data\Anna\
	Host : 169.254.61.224
Device : VMP-3e (SN .003165)
Address : USB
EC-LAB for windows v11.62 (software)
Internet server v27.00 (firmware)
Command interpretor v12.03 (firmware)
Electrode material :
Initial state :
Electrolyte :
Comments :
Electrode surface area : 0.001 cm²
Characteristic mass : 0.001 g
Equivalent Weight : 0.000 g/eq.
Density : 0.000 g/cm3
Volume (V) : 0.001 cm³
Record Ece
Cycle Definition : Charge/Discharge alternance
Mode                Multi sine
E (V)               0.0000
vs.                 Eoc
tE (h:m:s)          0:00:0.0000
record              0
dI                  0.000
unit dI             mA
dt (s)              0.000
fi                  1.000
unit fi             MHz
ff                  0.100
unit ff             mHz
Nd                  10
Points              per decade
spacing             Logarithmic
Va (mV)             5.0
pw                  0.10
Na                  2
corr                0
E range min (V)     -10.000
E range max (V)     10.000
I Range             Auto
Bandwidth           5
nc cycles           0
goto Ns'            0
nr cycles           0
inc. cycle          0

freq/Hz	Re(Z)/Ohm	-Im(Z)/Ohm	|Z|/Ohm	Phase(Z)/deg	time/s	<Ewe>/V	<I>/mA	Cs/µF	Cp/µF	cycle number	I Range	|Ewe|/V	|I|/A	Ns	(Q-Qo)/mA.h	<Ece>/V	|Ece|/V	Phase(Zce)/deg	|Zce|/Ohm	Re(Zce)/Ohm	-Im(Zce)/Ohm	Phase(Zwe-ce)/deg	|Zwe-ce|/Ohm	Re(Zwe-ce)/Ohm	-Im(Zwe-ce)/Ohm	Re(Y)/Ohm-1	Im(Y)/Ohm-1	|Y|/Ohm-1	Phase(Y)/deg	Re(C)/nF	Im(C)/nF	|C|/nF	Phase(C)/deg	Re(M)	Im(M)	|M|	Phase(M)/deg	Re(Permittivity)	Im(Permittivity)	|Permittivity|	Phase(Permittivity)/deg	Re(Resistivity)/Ohm.cm	Im(Resistivity)/Ohm.cm	|Resistivity|/Ohm.cm	Phase(Resistivity)/deg	Re(Conductivity)/mS/cm	Im(Conductivity)/mS/cm	|Conductivity|/mS/cm	Phase(Conductivity)/deg	Tan(Delta)	Loss Angle(Delta)/deg	dq/mA.h	Pwe/W	Pce/W	Pwe-ce/W	<Ewe-Ece>/V	Rwe/Ohm	Rce/Ohm	Rwe-ce/Ohm		Ewe-Ece/V
1.00002e+06	2.378	2.47391	3.43149	-46.1324	2.23452	3.97254	0.0243259	0.0643321	0.0334373	1	10	0.000215986	6.29423e-05	0	-8.21243e-07	-0.000144924	0.000187555	-66.3445	2.97979	1.1956	2.72942	-55.519	6.31231	3.5736	5.20333	0.201951	0.210096	0.291419	46.1324	33.4373	32.1409	46.3798	-43.8676	0.0000000E+000	0.0000000E+000	0.0000000E+000	43.8676	0.0000000E+000	0.0000000E+000	0.0000000E+000	-43.8676	0.0000000E+000	0.0000000E+000	0.0000000E+000	-46.1324	0.0000000E+000	0.0000000E+000	0.0000000E+000	46.1324	0.961231	43.8676	-8.21243e-07	9.66357e-05	-3.52541e-09	9.66392e-05	3.97268	163305	5.95758	163310
251206	1.58986	0.419415	1.64425	-14.7783	4.94154	3.97109	-0.0800626	1.51059	0.0982877	1	9	0.00416144	0.00253091	0	-4.8675e-05	4.61757e-05	4.56725e-05	90.7283	0.0180459	-0.000229379	-0.0180444	-14.1706	1.63952	1.58963	0.401371	0.588062	0.155135	0.608181	14.7783	98.2877	372.574	385.321	-75.2217	0.0000000E+000	0.0000000E+000	0.0000000E+000	75.2217	0.0000000E+000	0.0000000E+000	0.0000000E+000	-75.2217	0.0000000E+000	0.0000000E+000	0.0000000E+000	-14.7783	0.0000000E+000	0.0000000E+000	0.0000000E+000	14.7783	3.79065	75.2217	-8.393e-06	-0.000317936	-3.69695e-09	-0.000317933	3.97105	49599.9	0.576745	49599.3
63093.8	2.20912	1.01392	2.43068	-24.6538	7.24052	3.97101	-0.0605934	2.48788	0.432893	1	9	0.00539896	0.00222117	0	-8.8416e-05	-1.11541e-05	2.1401e-05	58.1836	0.00963501	0.00507957	-0.00818727	-24.4286	2.4319	2.2142	1.00573	0.373905	0.171612	0.411407	24.6538	432.893	943.18	1037.78	-65.3462	0.0000000E+000	0.0000000E+000	0.0000000E+000	65.3462	0.0000000E+000	0.0000000E+000	0.0000000E+000	-65.3462	0.0000000E+000	0.0000000E+000	0.0000000E+000	-24.6538	0.0000000E+000	0.0000000E+000	0.0000000E+000	24.6538	2.17878	65.3462	-5.34958e-06	-0.000240617	6.75867e-10	-0.000240618	3.97102	65535.3	0.184082	65535.5
15847.7	3.32969	1.6908	3.73439	-26.9212	9.41657	3.97102	-0.0583556	5.93968	1.21761	1	9	0.00514354	0.00137734	0	-0.00013724	0.000141726	9.03909e-06	-100.457	0.0065627	-0.0011911	0.0064537	-27.0177	3.73625	3.3285	1.69725	0.238762	0.121242	0.267782	26.9212	1217.61	2397.84	2689.27	-63.0788	0.0000000E+000	0.0000000E+000	0.0000000E+000	63.0788	0.0000000E+000	0.0000000E+000	0.0000000E+000	-63.0788	0.0000000E+000	0.0000000E+000	0.0000000E+000	-26.9212	0.0000000E+000	0.0000000E+000	0.0000000E+000	26.9212	1.9693	63.0788	-5.34392e-06	-0.000231731	-8.27048e-09	-0.000231723	3.97088	68048.7	2.42865	68046.2
3983.6	5.00482	2.66861	5.67183	-28.0669	11.1751	3.97098	-0.0449098	14.9713	3.31423	1	10	0.00496391	0.000875186	0	-0.000156785	8.43956e-05	8.27482e-06	-140.876	0.00945493	-0.00733499	0.00596604	-28.155	5.66818	4.99749	2.67458	0.155576	0.0829541	0.17631	28.0669	3314.23	6215.64	7044.02	-61.9331	0.0000000E+000	0.0000000E+000	0.0000000E+000	61.9331	0.0000000E+000	0.0000000E+000	0.0000000E+000	-61.9331	0.0000000E+000	0.0000000E+000	0.0000000E+000	-28.0669	0.0000000E+000	0.0000000E+000	0.0000000E+000	28.0669	1.87544	61.9331	-2.49183e-06	-0.000178336	-3.79019e-09	-0.000178332	3.9709	88421.2	1.87922	88419.3
1000.32	7.86194	4.34823	8.98427	-28.9458	13.8038	3.97096	-0.0351331	36.5905	8.57093	1	10	0.004686	0.000521578	0	-0.000178108	-4.9374e-05	1.01746e-05	-59.8277	0.0195073	0.00980441	0.0168644	-29.0096	9.00102	7.87174	4.36509	0.0974011	0.05387	0.111306	28.9458	8570.93	15496.9	17709.2	-61.0542	0.0000000E+000	0.0000000E+000	0.0000000E+000	61.0542	0.0000000E+000	0.0000000E+000	0.0000000E+000	-61.0542	0.0000000E+000	0.0000000E+000	0.0000000E+000	-28.9458	0.0000000E+000	0.0000000E+000	0.0000000E+000	28.9458	1.80808	61.0542	-4.14924e-06	-0.000139512	1.73466e-09	-0.000139514	3.97101	113026	1.40534	113028
251.044	13.184	5.55516	14.3066	-22.8484	16.5041	3.97096	-0.0300376	114.123	17.2066	1	10	0.00462301	0.000323139	0	-0.000199105	-0.000221364	1.27472e-05	26.861	0.0394479	0.0351917	-0.0178237	-22.7281	14.3321	13.2192	5.53733	0.0644135	0.027141	0.069898	22.8484	17206.6	40836.3	44313.4	-67.1516	0.0000000E+000	0.0000000E+000	0.0000000E+000	67.1516	0.0000000E+000	0.0000000E+000	0.0000000E+000	-67.1516	0.0000000E+000	0.0000000E+000	0.0000000E+000	-22.8484	0.0000000E+000	0.0000000E+000	0.0000000E+000	22.8484	2.37329	67.1516	-3.55285e-06	-0.000119278	6.64924e-09	-0.000119285	3.97118	132199	7.36954	132207
63.0823	18.2196	3.463	18.5458	-10.7618	19.2249	3.97096	-0.0249534	728.552	25.4024	1	10	0.00462934	0.000249617	0	-0.000219886	-3.02641e-05	4.85955e-06	21.1689	0.019468	0.0181543	-0.00703027	-10.7301	18.5623	18.2378	3.45597	0.0529722	0.0100684	0.0539206	10.7618	25402.4	133648	136040	-79.2382	0.0000000E+000	0.0000000E+000	0.0000000E+000	79.2382	0.0000000E+000	0.0000000E+000	0.0000000E+000	-79.2382	0.0000000E+000	0.0000000E+000	0.0000000E+000	-10.7618	0.0000000E+000	0.0000000E+000	0.0000000E+000	10.7618	5.26122	79.2382	-3.09736e-06	-9.90891e-05	7.55192e-10	-9.90898e-05	3.97099	159135	1.21282	159136
15.8576	19.5084	1.16845	19.5434	-3.4276	22.129	3.97101	-0.0171055	8589.64	30.7038	1	11	0.00461364	0.000236072	0	-0.000237236	0.000179945	9.66243e-06	-8.51544	0.04093	0.0404788	0.00606075	-3.43822	19.5841	19.5489	1.17451	0.0510767	0.00305921	0.0511682	3.4276	30703.8	512632	513551	-86.5724	0.0000000E+000	0.0000000E+000	0.0000000E+000	86.5724	0.0000000E+000	0.0000000E+000	0.0000000E+000	-86.5724	0.0000000E+000	0.0000000E+000	0.0000000E+000	-3.4276	0.0000000E+000	0.0000000E+000	0.0000000E+000	3.4276	16.696	86.5724	-2.63267e-06	-6.79261e-05	-3.07805e-09	-6.7923e-05	3.97083	232148	10.5198	232138
3.97785	20.7236	0.959843	20.7458	-2.65184	25.0403	3.97103	-0.0158831	41684.2	89.2299	1	11	0.00462274	0.000222827	0	-0.000255992	-0.000336023	6.03038e-06	-69.0797	0.027063	0.00966337	0.025279	-2.72031	20.7567	20.7333	0.985122	0.0481508	0.00223017	0.0482025	2.65184	89229.9	1.92653e+06	1.92859e+06	-87.3482	0.0000000E+000	0.0000000E+000	0.0000000E+000	87.3482	0.0000000E+000	0.0000000E+000	0.0000000E+000	-87.3482	0.0000000E+000	0.0000000E+000	0.0000000E+000	-2.65184	0.0000000E+000	0.0000000E+000	0.0000000E+000	2.65184	21.5906	87.3482	-5.2446e-06	-6.30723e-05	5.33709e-09	-6.30776e-05	3.97137	250016	21.156	250038
1.00469	21.2993	1.00294	21.3229	-2.69594	239.854	3.97098	-0.0156357	157947	349.436	1	11	0.00506357	0.000237471	0	-0.00214178	-0.000125814	2.59506e-07	-2.06895	0.00109279	0.00109208	3.94522e-05	-2.69591	21.324	21.3004	1.00298	0.046846	0.00220588	0.0468979	2.69594	349436	7.42094e+06	7.42916e+06	-87.3041	0.0000000E+000	0.0000000E+000	0.0000000E+000	87.3041	0.0000000E+000	0.0000000E+000	0.0000000E+000	-87.3041	0.0000000E+000	0.0000000E+000	0.0000000E+000	-2.69594	0.0000000E+000	0.0000000E+000	0.0000000E+000	2.69594	21.2369	87.3041	-0.00186052	-6.20889e-05	1.96718e-09	-6.20909e-05	3.9711	253969	8.04659	253977
0.251173	22.2113	1.76252	22.2811	-4.53705	239.856	3.97098	-0.0156357	359512	2249.61	1	11	0.00509113	0.000228495	0	-0.00214178	-0.000125814	4.5464e-07	52.1632	0.00198971	0.00122052	-0.0015714	-4.53277	22.2822	22.2125	1.76095	0.0447404	0.00355026	0.0448811	4.53705	2.24961e+06	2.83496e+07	2.84387e+07	-85.463	0.0000000E+000	0.0000000E+000	0.0000000E+000	85.463	0.0000000E+000	0.0000000E+000	0.0000000E+000	-85.463	0.0000000E+000	0.0000000E+000	0.0000000E+000	-4.53705	0.0000000E+000	0.0000000E+000	0.0000000E+000	4.53705	12.602	85.463	0.000000000000000E+000	-6.20889e-05	1.96718e-09	-6.20909e-05	3.9711	253969	8.04659	253977
0.0602816	23.9276	3.44941	24.175	-8.20325	239.857	3.97098	-0.0156357	765404	15582.9	1	11	0.00508447	0.00021032	0	-0.00214178	-0.000125814	5.11527e-07	21.0084	0.00243214	0.00227047	-0.000871936	-8.20043	24.1771	23.9299	3.44854	0.0409418	0.00590217	0.0413651	8.20325	1.55829e+07	1.08094e+08	1.09212e+08	-81.7968	0.0000000E+000	0.0000000E+000	0.0000000E+000	81.7968	0.0000000E+000	0.0000000E+000	0.0000000E+000	-81.7968	0.0000000E+000	0.0000000E+000	0.0000000E+000	-8.20325	0.0000000E+000	0.0000000E+000	0.0000000E+000	8.20325	6.93674	81.7968	0.000000000000000E+000	-6.20889e-05	1.96718e-09	-6.20909e-05	3.9711	253969	8.04659	253977
0.00796479	32.3334	7.90432	33.2855	-13.7373	20328.8	3.97098	-0.00079237	2.52802e+06	142561	1	11	0.00507641	0.000152511	0	-0.0157721	-0.000527123	3.30561e-07	-16.3347	0.00216746	0.00207997	0.000609592	-13.7375	33.2877	32.3354	7.90493	0.0291837	0.00713435	0.0300431	13.7373	1.42561e+08	5.83159e+08	6.00331e+08	-76.2627	0.0000000E+000	0.0000000E+000	0.0000000E+000	76.2627	0.0000000E+000	0.0000000E+000	0.0000000E+000	-76.2627	0.0000000E+000	0.0000000E+000	0.0000000E+000	-13.7373	0.0000000E+000	0.0000000E+000	0.0000000E+000	13.7373	4.09059	76.2627	-0.0136303	-3.14649e-06	4.17676e-10	-3.1469e-06	3.97151	5.01153e+06	665.249	5.01219e+06
0.0019912	40.5564	11.7898	42.2353	-16.2091	20328.8	3.97098	-0.00079237	6.77956e+06	528274	1	11	0.00508904	0.000120493	0	-0.0157721	-0.000527123	3.73023e-07	90.7041	0.00309581	-3.8043e-05	-0.00309558	-16.2051	42.2344	40.5564	11.7867	0.0227357	0.00660926	0.0236769	16.2091	5.28274e+08	1.81725e+09	1.89247e+09	-73.7909	0.0000000E+000	0.0000000E+000	0.0000000E+000	73.7909	0.0000000E+000	0.0000000E+000	0.0000000E+000	-73.7909	0.0000000E+000	0.0000000E+000	0.0000000E+000	-16.2091	0.0000000E+000	0.0000000E+000	0.0000000E+000	16.2091	3.43997	73.7909	0.000000000000000E+000	-3.14649e-06	4.17676e-10	-3.1469e-06	3.97151	5.01153e+06	665.249	5.01219e+06
0.000497799	46.4953	17.0582	49.5257	-20.1471	20328.8	3.97098	-0.00079237	1.87427e+07	2.2235e+06	1	11	0.00509214	0.000102818	0	-0.0157721	-0.000527123	1.76781e-06	1.75867	0.0171936	0.0171855	-0.000527665	-20.1396	49.5417	46.5125	17.0577	0.018956	0.00695459	0.0201915	20.1471	2.2235e+09	6.06057e+09	6.45558e+09	-69.8529	0.0000000E+000	0.0000000E+000	0.0000000E+000	69.8529	0.0000000E+000	0.0000000E+000	0.0000000E+000	-69.8529	0.0000000E+000	0.0000000E+000	0.0000000E+000	-20.1471	0.0000000E+000	0.0000000E+000	0.0000000E+000	20.1471	2.72569	69.8529	0.000000000000000E+000	-3.14649e-06	4.17676e-10	-3.1469e-06	3.97151	5.01153e+06	665.249	5.01219e+06
9.95598e-05	55.5176	78.5613	96.1981	-54.752	20328.8	3.97098	-0.00079237	2.03483e+07	1.3571e+07	1	11	0.00508997	5.29113e-05	0	-0.0157721	-0.000527123	5.81976e-06	50.2642	0.109991	0.0703115	-0.084583	-54.6887	96.1697	55.5879	78.4767	0.00599926	0.00848937	0.0103952	54.752	1.3571e+10	9.59033e+09	1.66176e+10	-35.248	0.0000000E+000	0.0000000E+000	0.0000000E+000	35.248	0.0000000E+000	0.0000000E+000	0.0000000E+000	-35.248	0.0000000E+000	0.0000000E+000	0.0000000E+000	-54.752	0.0000000E+000	0.0000000E+000	0.0000000E+000	54.752	0.706679	35.248	0.000000000000000E+000	-3.14649e-06	4.17676e-10	-3.1469e-06	3.97151	5.01153e+06	665.249	5.01219e+06