File: txt/19081_R307_UC93_28_SOC50_C05.mpt
EC-Lab ASCII FILE
Nb header lines : 65

Potentio Electrochemical Impedance Spectroscopy

Run on channel : 5 (SN 65912)
Grouped channel(s) : 1, 2, 3, 4, 5
User :
CE vs. WE compliance from -10 V to 10 V
Electrode connection : standard
Potential control : Ewe
Ewe ctrl range : min = -10.00 V, max = 10.00 V
Safety Limits :
	Do not start on E overload
Acquisition started on : 11/10/2025 15:44:01.793
Loaded Setting File :  C:\Users\Celltest\OneDrive - store-dot.com\Documents\EC-Lab\Data\@Biologic Test Protocols\cathode half cell EIS SOC50.mps
Saved on :
	File : 19077_R307_UC93_28_SOC50_C05.mpr
	Directory : C:\Users\Celltest\OneDrive - store-dot.com\Documents\EC-Lab\Data\Anna\
	Host : 169.254.61.224
Device : VMP-3e (SN .003165)
Address : USB
EC-LAB for windows v11.62 (software)
Internet server v27.00 (firmware)
Command interpretor v12.03 (firmware)
Electrode material :
Initial state :
Electrolyte :
Comments :
Electrode surface area : 0.001 cm²
Characteristic mass : 0.001 g
Equivalent Weight : 0.000 g/eq.
Density : 0.000 g/cm3
Volume (V) : 0.001 cm³
Record Ece
Cycle Definition : Charge/Discharge alternance
Mode                Multi sine
E (V)               0.0000
vs.                 Eoc
tE (h:m:s)          0:00:0.0000
record              0
dI                  0.000
unit dI             mA
dt (s)              0.000
fi                  1.000
unit fi             MHz
ff                  0.100
unit ff             mHz
Nd                  10
Points              per decade
spacing             Logarithmic
Va (mV)             5.0
pw                  0.10
Na                  2
corr                0
E range min (V)     -10.000
E range max (V)     10.000
I Range             Auto
Bandwidth           5
nc cycles           0
goto Ns'            0
nr cycles           0
inc. cycle          0

freq/Hz	Re(Z)/Ohm	-Im(Z)/Ohm	|Z|/Ohm	Phase(Z)/deg	time/s	<Ewe>/V	<I>/mA	Cs/µF	Cp/µF	cycle number	I Range	|Ewe|/V	|I|/A	Ns	(Q-Qo)/mA.h	<Ece>/V	|Ece|/V	Phase(Zce)/deg	|Zce|/Ohm	Re(Zce)/Ohm	-Im(Zce)/Ohm	Phase(Zwe-ce)/deg	|Zwe-ce|/Ohm	Re(Zwe-ce)/Ohm	-Im(Zwe-ce)/Ohm	Re(Y)/Ohm-1	Im(Y)/Ohm-1	|Y|/Ohm-1	Phase(Y)/deg	Re(C)/nF	Im(C)/nF	|C|/nF	Phase(C)/deg	Re(M)	Im(M)	|M|	Phase(M)/deg	Re(Permittivity)	Im(Permittivity)	|Permittivity|	Phase(Permittivity)/deg	Re(Resistivity)/Ohm.cm	Im(Resistivity)/Ohm.cm	|Resistivity|/Ohm.cm	Phase(Resistivity)/deg	Re(Conductivity)/mS/cm	Im(Conductivity)/mS/cm	|Conductivity|/mS/cm	Phase(Conductivity)/deg	Tan(Delta)	Loss Angle(Delta)/deg	dq/mA.h	Pwe/W	Pce/W	Pwe-ce/W	<Ewe-Ece>/V	Rwe/Ohm	Rce/Ohm	Rwe-ce/Ohm		Ewe-Ece/V
1.00002e+06	0.962322	-0.426112	1.05244	23.8835	2.69355	3.97052	0.0380375	-0.373498	-0.0612264	1	9	0.000230351	0.000218872	0	5.02839e-06	-0.000211513	0.000194818	6.00534	0.890097	0.885212	-0.0931229	15.6976	1.91911	1.84753	-0.519235	0.868808	-0.384704	0.95017	-23.8835	-61.2264	138.272	151.222	-113.884	0.0000000E+000	0.0000000E+000	0.0000000E+000	113.884	0.0000000E+000	0.0000000E+000	0.0000000E+000	-113.884	0.0000000E+000	0.0000000E+000	0.0000000E+000	23.8835	0.0000000E+000	0.0000000E+000	0.0000000E+000	-23.8835	2.25838	66.1165	5.02839e-06	0.000151029	-8.04542e-09	0.000151037	3.97074	104385	5.56064	104390
251206	1.45988	0.391516	1.51146	-15.0126	4.99455	3.96891	-0.0351759	1.61823	0.108579	1	9	0.00395304	0.00261537	0	-7.3089e-06	3.66729e-05	4.91838e-05	92.702	0.0188056	-0.000886531	-0.0187847	-14.331	1.50585	1.45899	0.372732	0.639029	0.171378	0.66161	15.0126	108.579	404.865	419.172	-74.9874	0.0000000E+000	0.0000000E+000	0.0000000E+000	74.9874	0.0000000E+000	0.0000000E+000	0.0000000E+000	-74.9874	0.0000000E+000	0.0000000E+000	0.0000000E+000	-15.0126	0.0000000E+000	0.0000000E+000	0.0000000E+000	15.0126	3.72877	74.9874	-5.81875e-06	-0.00013961	-1.29e-09	-0.000139609	3.96887	112830	1.04256	112829
63093.8	2.05656	0.965852	2.27207	-25.1568	7.29455	3.96863	-0.0295527	2.6117	0.471954	1	9	0.00533708	0.002349	0	-2.42137e-05	0.000113038	2.67833e-05	56.1491	0.011402	0.00635132	-0.00946928	-24.8728	2.27382	2.06291	0.956383	0.39838	0.187097	0.440127	25.1568	471.954	1004.92	1110.23	-64.8432	0.0000000E+000	0.0000000E+000	0.0000000E+000	64.8432	0.0000000E+000	0.0000000E+000	0.0000000E+000	-64.8432	0.0000000E+000	0.0000000E+000	0.0000000E+000	-25.1568	0.0000000E+000	0.0000000E+000	0.0000000E+000	25.1568	2.12927	64.8432	3.63504e-06	-0.000117284	-3.34057e-09	-0.00011728	3.96851	134290	3.82496	134286
15847.7	3.12361	1.63777	3.52693	-27.6689	9.59653	3.96861	-0.0218068	6.13198	1.32225	1	9	0.00501917	0.0014231	0	-3.95393e-05	0.000170311	4.31682e-06	11.0269	0.00303339	0.00297739	-0.000580199	-27.6381	3.5293	3.12659	1.63719	0.251109	0.131662	0.283532	27.6689	1322.25	2521.84	2847.46	-62.3311	0.0000000E+000	0.0000000E+000	0.0000000E+000	62.3311	0.0000000E+000	0.0000000E+000	0.0000000E+000	-62.3311	0.0000000E+000	0.0000000E+000	0.0000000E+000	-27.6689	0.0000000E+000	0.0000000E+000	0.0000000E+000	27.6689	1.90723	62.3311	-3.07694e-06	-8.65428e-05	-3.71395e-09	-8.65391e-05	3.96844	181989	7.81	181982
3983.6	4.70472	2.67144	5.41026	-29.5889	11.3531	3.96858	-0.0332857	14.9554	3.64631	1	10	0.00517347	0.000956232	0	-5.34314e-05	-1.50951e-06	5.65162e-06	52.9812	0.0059103	0.00355846	-0.00471901	-29.5268	5.41103	4.70827	2.66672	0.16073	0.091266	0.184834	29.5889	3646.31	6421.56	7384.58	-60.4111	0.0000000E+000	0.0000000E+000	0.0000000E+000	60.4111	0.0000000E+000	0.0000000E+000	0.0000000E+000	-60.4111	0.0000000E+000	0.0000000E+000	0.0000000E+000	-29.5889	0.0000000E+000	0.0000000E+000	0.0000000E+000	29.5889	1.76111	60.4111	-1.81564e-06	-0.000132097	5.02452e-11	-0.000132097	3.96859	119228	0.0453502	119228
1000.32	7.61353	4.54983	8.86943	-30.8625	13.9818	3.96855	-0.0212777	34.9692	9.20206	1	10	0.00483847	0.000545522	0	-6.93476e-05	-9.69656e-05	7.85598e-06	52.4759	0.0144008	0.00877148	-0.0114213	-30.7701	8.87111	7.6223	4.53841	0.096782	0.0578368	0.112747	30.8625	9202.06	15398.4	17938.5	-59.1375	0.0000000E+000	0.0000000E+000	0.0000000E+000	59.1375	0.0000000E+000	0.0000000E+000	0.0000000E+000	-59.1375	0.0000000E+000	0.0000000E+000	0.0000000E+000	-30.8625	0.0000000E+000	0.0000000E+000	0.0000000E+000	30.8625	1.67336	59.1375	-2.88124e-06	-8.44417e-05	2.06321e-09	-8.44438e-05	3.96865	186512	4.55714	186517
251.044	13.3101	6.12168	14.6504	-24.699	16.6831	3.96855	-0.0237166	103.562	18.0818	1	10	0.00477065	0.000325633	0	-8.60233e-05	0.00015122	6.10182e-06	84.4528	0.0187384	0.00181135	-0.0186506	-24.6297	14.6443	13.3119	6.10303	0.0620131	0.0285215	0.0682576	24.699	18081.8	39314.5	43273.3	-65.301	0.0000000E+000	0.0000000E+000	0.0000000E+000	65.301	0.0000000E+000	0.0000000E+000	0.0000000E+000	-65.301	0.0000000E+000	0.0000000E+000	0.0000000E+000	-24.699	0.0000000E+000	0.0000000E+000	0.0000000E+000	24.699	2.17426	65.301	-2.99366e-06	-9.41204e-05	-3.58642e-09	-9.41168e-05	3.9684	167333	6.37615	167326
63.0823	18.9667	4.08648	19.4019	-12.1588	19.405	3.96857	-0.0186155	617.395	27.3888	1	10	0.00475729	0.000245197	0	-0.000102056	-2.06007e-05	8.20261e-06	-4.10293	0.0334531	0.0333674	0.00239352	-12.145	19.4351	19.0001	4.08887	0.0503851	0.0108557	0.0515413	12.1588	27388.8	127120	130037	-77.8412	0.0000000E+000	0.0000000E+000	0.0000000E+000	77.8412	0.0000000E+000	0.0000000E+000	0.0000000E+000	-77.8412	0.0000000E+000	0.0000000E+000	0.0000000E+000	-12.1588	0.0000000E+000	0.0000000E+000	0.0000000E+000	12.1588	4.64133	77.8412	-2.14945e-06	-7.38769e-05	3.83493e-10	-7.38773e-05	3.96859	213187	1.10664	213188
15.8576	20.932	1.74296	21.0044	-4.75992	22.3091	3.96859	-0.0181944	5758.31	39.6506	1	11	0.00475091	0.000226186	0	-0.000114932	-0.000154239	9.56877e-06	11.5849	0.0423049	0.041443	-0.00849564	-4.72751	21.045	20.9734	1.73447	0.0474448	0.00395063	0.047609	4.75992	39650.6	476181	477829	-85.2401	0.0000000E+000	0.0000000E+000	0.0000000E+000	85.2401	0.0000000E+000	0.0000000E+000	0.0000000E+000	-85.2401	0.0000000E+000	0.0000000E+000	0.0000000E+000	-4.75992	0.0000000E+000	0.0000000E+000	0.0000000E+000	4.75992	12.0094	85.2401	-1.37528e-06	-7.22061e-05	2.80629e-09	-7.22089e-05	3.96875	218122	8.4773	218130
3.97785	21.6412	1.03794	21.6661	-2.74587	25.2194	3.96861	-0.016416	38547.8	88.4673	1	11	0.00475589	0.000219508	0	-0.000127947	0.000208494	5.61546e-06	-63.1788	0.025582	0.0115428	0.0228298	-2.80468	21.6787	21.6528	1.06077	0.0461021	0.00221111	0.0461551	2.74587	88467.3	1.84456e+06	1.84668e+06	-87.2541	0.0000000E+000	0.0000000E+000	0.0000000E+000	87.2541	0.0000000E+000	0.0000000E+000	0.0000000E+000	-87.2541	0.0000000E+000	0.0000000E+000	0.0000000E+000	-2.74587	0.0000000E+000	0.0000000E+000	0.0000000E+000	2.74587	20.8502	87.2541	-3.7099e-07	-6.51487e-05	-3.42263e-09	-6.51453e-05	3.9684	241753	12.7007	241740
1.00469	22.4513	1.17169	22.4818	-2.98744	240.032	3.96857	-0.0139205	135199	367.227	1	11	0.00507472	0.000225725	0	-0.00187645	-1.50951e-06	5.78284e-07	2.65887	0.0025619	0.00255914	-0.000118845	-2.9868	22.4844	22.4538	1.17157	0.0444199	0.00231818	0.0444803	2.98744	367227	7.03662e+06	7.04619e+06	-87.0126	0.0000000E+000	0.0000000E+000	0.0000000E+000	87.0126	0.0000000E+000	0.0000000E+000	0.0000000E+000	-87.0126	0.0000000E+000	0.0000000E+000	0.0000000E+000	-2.98744	0.0000000E+000	0.0000000E+000	0.0000000E+000	2.98744	19.1615	87.0126	-0.00171887	-5.52444e-05	2.10131e-11	-5.52444e-05	3.96857	285089	0.108438	285089
0.251173	23.4939	1.88976	23.5698	-4.59874	240.033	3.96857	-0.0139205	335306	2155.46	1	11	0.00510574	0.000216622	0	-0.00187645	-1.50951e-06	3.72169e-07	17.4383	0.00171806	0.00163909	-0.000514864	-4.59717	23.5714	23.4956	1.88924	0.0422906	0.00340168	0.0424271	4.59874	2.15546e+06	2.67972e+07	2.68838e+07	-85.4013	0.0000000E+000	0.0000000E+000	0.0000000E+000	85.4013	0.0000000E+000	0.0000000E+000	0.0000000E+000	-85.4013	0.0000000E+000	0.0000000E+000	0.0000000E+000	-4.59874	0.0000000E+000	0.0000000E+000	0.0000000E+000	4.59874	12.4323	85.4013	0.000000000000000E+000	-5.52444e-05	2.10131e-11	-5.52444e-05	3.96857	285089	0.108438	285089
0.0602816	25.2353	3.59862	25.4906	-8.11581	240.034	3.96857	-0.0139205	733667	14622.1	1	11	0.00509373	0.000199828	0	-0.00187645	-1.50951e-06	5.81689e-07	-0.776113	0.00291095	0.00291068	3.94297e-05	-8.11497	25.4935	25.2382	3.59866	0.0388372	0.00553829	0.0392301	8.11581	1.46222e+07	1.02538e+08	1.03575e+08	-81.8842	0.0000000E+000	0.0000000E+000	0.0000000E+000	81.8842	0.0000000E+000	0.0000000E+000	0.0000000E+000	-81.8842	0.0000000E+000	0.0000000E+000	0.0000000E+000	-8.11581	0.0000000E+000	0.0000000E+000	0.0000000E+000	8.11581	7.01249	81.8842	0.000000000000000E+000	-5.52444e-05	2.10131e-11	-5.52444e-05	3.96857	285089	0.108438	285089
0.00796479	34.0844	8.4794	35.1233	-13.9703	20328.9	3.96859	-0.000947586	2.35657e+06	137347	1	11	0.00508931	0.000144898	0	-0.0149257	3.66729e-05	3.53717e-07	-115.523	0.00244114	-0.00105182	0.00220292	-13.9742	35.1228	34.0834	8.48161	0.027629	0.00687344	0.0284711	13.9703	1.37347e+08	5.52091e+08	5.68919e+08	-76.0297	0.0000000E+000	0.0000000E+000	0.0000000E+000	76.0297	0.0000000E+000	0.0000000E+000	0.0000000E+000	-76.0297	0.0000000E+000	0.0000000E+000	0.0000000E+000	-13.9703	0.0000000E+000	0.0000000E+000	0.0000000E+000	13.9703	4.01967	76.0297	-0.0130493	-3.76058e-06	-3.47508e-11	-3.76054e-06	3.96855	4.1881e+06	38.7014	4.18806e+06
0.0019912	42.7623	12.4047	44.5251	-16.1766	20328.9	3.96859	-0.000947586	6.44348e+06	500128	1	11	0.0050999	0.00011454	0	-0.0149257	3.66729e-05	1.74509e-07	-69.9873	0.00152357	0.000521408	0.00143157	-16.1782	44.526	42.7628	12.4061	0.02157	0.00625713	0.0224592	16.1766	5.00128e+08	1.72408e+09	1.79515e+09	-73.8234	0.0000000E+000	0.0000000E+000	0.0000000E+000	73.8234	0.0000000E+000	0.0000000E+000	0.0000000E+000	-73.8234	0.0000000E+000	0.0000000E+000	0.0000000E+000	-16.1766	0.0000000E+000	0.0000000E+000	0.0000000E+000	16.1766	3.44727	73.8234	0.000000000000000E+000	-3.76058e-06	-3.47508e-11	-3.76054e-06	3.96855	4.1881e+06	38.7014	4.18806e+06
0.000497799	49.2812	18.0065	52.4678	-20.0714	20328.9	3.96859	-0.000947586	1.77557e+07	2.09126e+06	1	11	0.00510133	9.72278e-05	0	-0.0149257	3.66729e-05	6.54403e-07	23.3421	0.00673062	0.00617975	-0.00266681	-20.0663	52.4727	49.2874	18.0038	0.0179017	0.00654098	0.0190593	20.0714	2.09126e+09	5.7235e+09	6.09358e+09	-69.9286	0.0000000E+000	0.0000000E+000	0.0000000E+000	69.9286	0.0000000E+000	0.0000000E+000	0.0000000E+000	-69.9286	0.0000000E+000	0.0000000E+000	0.0000000E+000	-20.0714	0.0000000E+000	0.0000000E+000	0.0000000E+000	20.0714	2.73686	69.9286	0.000000000000000E+000	-3.76058e-06	-3.47508e-11	-3.76054e-06	3.96855	4.1881e+06	38.7014	4.18806e+06
9.95598e-05	59.2658	80.5135	99.9743	-53.6433	20328.9	3.96859	-0.000947586	1.98549e+07	1.28774e+07	1	11	0.00509885	5.10016e-05	0	-0.0149257	3.66729e-05	1.50647e-06	-6.57459	0.0295376	0.0293434	0.00338196	-53.6309	99.9944	59.2952	80.5169	0.00592963	0.00805549	0.0100026	53.6433	1.28774e+10	9.47902e+09	1.599e+10	-36.3567	0.0000000E+000	0.0000000E+000	0.0000000E+000	36.3567	0.0000000E+000	0.0000000E+000	0.0000000E+000	-36.3567	0.0000000E+000	0.0000000E+000	0.0000000E+000	-53.6433	0.0000000E+000	0.0000000E+000	0.0000000E+000	53.6433	0.736097	36.3567	0.000000000000000E+000	-3.76058e-06	-3.47508e-11	-3.76054e-06	3.96855	4.1881e+06	38.7014	4.18806e+06