File: txt/19119_R311_UC96_SOC50_C01.mpt
EC-Lab ASCII FILE
Nb header lines : 66

Potentio Electrochemical Impedance Spectroscopy

Run on channel : 1 (SN 66354)
Grouped channel(s) : 1, 2, 3, 4
User :
CE vs. WE compliance from -10 V to 10 V
Electrode connection : standard
Potential control : Ewe
Ewe ctrl range : min = -10.00 V, max = 10.00 V
Safety Limits :
	Do not start on E overload
Acquisition started on : 11/11/2025 16:20:14.228
Technique started on : 11/11/2025 16:20:16.462
Loaded Setting File :  C:\Users\Celltest\OneDrive - store-dot.com\Documents\EC-Lab\Data\@Biologic Test Protocols\cathode half cell EIS SOC50.mps
Saved on :
	File : 19119_R311_UC96_SOC50_C01.mpr
	Directory : C:\Users\Celltest\OneDrive - store-dot.com\Documents\EC-Lab\Data\Gyutae\
	Host : 169.254.61.224
Device : VMP-3e (SN .003165)
Address : USB
EC-LAB for windows v11.62 (software)
Internet server v27.00 (firmware)
Command interpretor v12.03 (firmware)
Electrode material :
Initial state :
Electrolyte :
Comments :
Electrode surface area : 0.001 cm²
Characteristic mass : 0.001 g
Equivalent Weight : 0.000 g/eq.
Density : 0.000 g/cm3
Volume (V) : 0.001 cm³
Record Ece
Cycle Definition : Charge/Discharge alternance
Mode                Multi sine
E (V)               0.0000
vs.                 Eoc
tE (h:m:s)          0:00:0.0000
record              0
dI                  0.000
unit dI             mA
dt (s)              0.000
fi                  1.000
unit fi             MHz
ff                  0.100
unit ff             mHz
Nd                  10
Points              per decade
spacing             Logarithmic
Va (mV)             5.0
pw                  0.10
Na                  2
corr                0
E range min (V)     -10.000
E range max (V)     10.000
I Range             Auto
Bandwidth           5
nc cycles           0
goto Ns'            0
nr cycles           0
inc. cycle          0

freq/Hz	Re(Z)/Ohm	-Im(Z)/Ohm	|Z|/Ohm	Phase(Z)/deg	time/s	<Ewe>/V	<I>/mA	Cs/µF	Cp/µF	cycle number	I Range	|Ewe|/V	|I|/A	Ns	(Q-Qo)/mA.h	<Ece>/V	|Ece|/V	Phase(Zce)/deg	|Zce|/Ohm	Re(Zce)/Ohm	-Im(Zce)/Ohm	Phase(Zwe-ce)/deg	|Zwe-ce|/Ohm	Re(Zwe-ce)/Ohm	-Im(Zwe-ce)/Ohm	Re(Y)/Ohm-1	Im(Y)/Ohm-1	|Y|/Ohm-1	Phase(Y)/deg	Re(C)/nF	Im(C)/nF	|C|/nF	Phase(C)/deg	Re(M)	Im(M)	|M|	Phase(M)/deg	Re(Permittivity)	Im(Permittivity)	|Permittivity|	Phase(Permittivity)/deg	Re(Resistivity)/Ohm.cm	Im(Resistivity)/Ohm.cm	|Resistivity|/Ohm.cm	Phase(Resistivity)/deg	Re(Conductivity)/mS/cm	Im(Conductivity)/mS/cm	|Conductivity|/mS/cm	Phase(Conductivity)/deg	Tan(Delta)	Loss Angle(Delta)/deg	dq/mA.h	Pwe/W	Pce/W	Pwe-ce/W	<Ewe-Ece>/V	Rwe/Ohm	Rce/Ohm	Rwe-ce/Ohm		Ewe-Ece/V
1.00002e+06	1.79665	2.84516	3.36495	-57.7285	2.23352	3.9088	0.00349541	0.0559378	0.0399909	1	10	0.000222589	6.61494e-05	0	-8.14554e-06	4.11142e-05	0.000183947	-71.496	2.78079	0.88254	2.63703	-63.9548	6.10184	2.67919	5.48218	0.158674	0.251275	0.297181	57.7285	39.9909	25.2534	47.297	-32.2715	0.0000000E+000	0.0000000E+000	0.0000000E+000	32.2715	0.0000000E+000	0.0000000E+000	0.0000000E+000	-32.2715	0.0000000E+000	0.0000000E+000	0.0000000E+000	-57.7285	0.0000000E+000	0.0000000E+000	0.0000000E+000	57.7285	0.631477	32.2715	-8.14554e-06	1.36629e-05	1.43711e-10	1.36627e-05	3.90876	1.11827e+06	11.7623	1.11826e+06
251206	1.06486	0.286626	1.10276	-15.0652	4.93653	3.90848	0.0164246	2.21042	0.149329	1	9	0.00285762	0.00259134	0	4.61171e-06	-5.42724e-05	6.26119e-05	113.252	0.024162	-0.00953841	-0.0221995	-14.0667	1.08794	1.05532	0.264426	0.875651	0.235697	0.906817	15.0652	149.329	554.78	574.526	-74.9348	0.0000000E+000	0.0000000E+000	0.0000000E+000	74.9348	0.0000000E+000	0.0000000E+000	0.0000000E+000	-74.9348	0.0000000E+000	0.0000000E+000	0.0000000E+000	-15.0652	0.0000000E+000	0.0000000E+000	0.0000000E+000	15.0652	3.71515	74.9348	3.85358e-06	6.41952e-05	-8.91402e-10	6.41961e-05	3.90853	237965	3.30433	237968
63093.8	1.51893	0.623764	1.64202	-22.326	7.11253	3.90843	0.0312891	4.04402	0.583574	1	9	0.00540216	0.00328994	0	-2.64545e-05	-0.000130582	2.56174e-05	72.9447	0.00778657	0.00228376	-0.00744413	-22.0553	1.64132	1.52122	0.61632	0.563353	0.231346	0.609006	22.326	583.574	1421.06	1536.22	-67.674	0.0000000E+000	0.0000000E+000	0.0000000E+000	67.674	0.0000000E+000	0.0000000E+000	0.0000000E+000	-67.674	0.0000000E+000	0.0000000E+000	0.0000000E+000	-22.326	0.0000000E+000	0.0000000E+000	0.0000000E+000	22.326	2.43511	67.674	-5.85377e-07	0.000122291	-4.08578e-09	0.000122295	3.90856	124914	4.17339	124918
15847.7	2.17805	0.891422	2.35341	-22.2581	9.28656	3.90843	0.0333753	11.266	1.61638	1	9	0.00490589	0.00208459	0	-3.67685e-06	0.000250965	1.15362e-05	-43.5314	0.00553403	0.00401216	0.00381158	-22.3069	2.35857	2.18206	0.895234	0.393254	0.160949	0.424916	22.2581	1616.38	3949.37	4267.34	-67.7419	0.0000000E+000	0.0000000E+000	0.0000000E+000	67.7419	0.0000000E+000	0.0000000E+000	0.0000000E+000	-67.7419	0.0000000E+000	0.0000000E+000	0.0000000E+000	-22.2581	0.0000000E+000	0.0000000E+000	0.0000000E+000	22.2581	2.44334	67.7419	3.83355e-06	0.000130445	8.37602e-09	0.000130437	3.90818	117106	7.51947	117098
3983.6	2.96508	1.35113	3.25841	-24.4978	11.0121	3.9082	-0.0493666	29.5698	5.08427	1	9	0.0045671	0.00140163	0	3.72963e-06	0.000289119	8.41187e-06	32.7048	0.00600148	0.00505004	-0.00324266	-24.4091	3.26167	2.97013	1.34788	0.27927	0.127258	0.306898	24.4978	5084.27	11157.6	12261.4	-65.5022	0.0000000E+000	0.0000000E+000	0.0000000E+000	65.5022	0.0000000E+000	0.0000000E+000	0.0000000E+000	-65.5022	0.0000000E+000	0.0000000E+000	0.0000000E+000	-24.4978	0.0000000E+000	0.0000000E+000	0.0000000E+000	24.4978	2.19453	65.5022	-4.62662e-06	-0.000192935	-1.42728e-08	-0.00019292	3.90791	79166.9	5.85657	79161.1
1000.32	4.37437	2.32869	4.9556	-28.0285	13.8858	3.90832	-0.0294395	68.3234	15.0869	1	10	0.00453305	0.000914734	0	-9.14253e-06	-0.000111504	8.41384e-06	10.9347	0.00919813	0.00903113	-0.0017448	-27.9617	4.96275	4.3834	2.32695	0.178125	0.0948243	0.201792	28.0285	15086.9	28340.3	32105.9	-61.9715	0.0000000E+000	0.0000000E+000	0.0000000E+000	61.9715	0.0000000E+000	0.0000000E+000	0.0000000E+000	-61.9715	0.0000000E+000	0.0000000E+000	0.0000000E+000	-28.0285	0.0000000E+000	0.0000000E+000	0.0000000E+000	28.0285	1.87847	61.9715	-2.93578e-06	-0.000115059	3.28263e-09	-0.000115062	3.90843	132758	3.78757	132761
251.044	7.30047	3.65693	8.16517	-26.6071	16.802	3.90833	-0.0285041	173.362	34.7741	1	10	0.00494904	0.000606116	0	-3.03436e-05	-0.000130582	9.93373e-06	27.2335	0.0163892	0.0145724	-0.00749996	-26.5143	8.17485	7.31504	3.64943	0.109502	0.0548512	0.122471	26.6071	34774.1	69420.9	77643.4	-63.3929	0.0000000E+000	0.0000000E+000	0.0000000E+000	63.3929	0.0000000E+000	0.0000000E+000	0.0000000E+000	-63.3929	0.0000000E+000	0.0000000E+000	0.0000000E+000	-26.6071	0.0000000E+000	0.0000000E+000	0.0000000E+000	26.6071	1.99634	63.3929	-3.16814e-06	-0.000111403	3.72211e-09	-0.000111407	3.90846	137115	4.58116	137119
63.0823	11.1266	2.7808	11.4689	-14.0321	19.522	3.90832	-0.0244529	907.282	53.3387	1	10	0.00492895	0.000429768	0	-4.80838e-05	0.000365428	4.5797e-06	-66.6555	0.0106562	0.00422263	0.00978388	-14.0744	11.4753	11.1309	2.79059	0.0845908	0.0211412	0.0871926	14.0321	53338.7	213420	219985	-75.9679	0.0000000E+000	0.0000000E+000	0.0000000E+000	75.9679	0.0000000E+000	0.0000000E+000	0.0000000E+000	-75.9679	0.0000000E+000	0.0000000E+000	0.0000000E+000	-14.0321	0.0000000E+000	0.0000000E+000	0.0000000E+000	14.0321	4.00123	75.9679	-3.24519e-06	-9.55699e-05	-8.93579e-09	-9.55609e-05	3.90796	159831	14.9442	159816
15.8576	12.5964	1.18541	12.652	-5.37613	22.18	3.9083	-0.0327193	8466.68	74.3246	1	10	0.00493128	0.000389762	0	-6.86086e-05	0.000270042	5.6852e-06	43.2734	0.0145864	0.0106202	-0.00999867	-5.32658	12.6617	12.607	1.17542	0.078691	0.00740542	0.0790387	5.37613	74324.6	789784	793274	-84.6239	0.0000000E+000	0.0000000E+000	0.0000000E+000	84.6239	0.0000000E+000	0.0000000E+000	0.0000000E+000	-84.6239	0.0000000E+000	0.0000000E+000	0.0000000E+000	-5.37613	0.0000000E+000	0.0000000E+000	0.0000000E+000	5.37613	10.6261	84.6239	-3.68401e-06	-0.000127877	-8.83557e-09	-0.000127868	3.90803	119450	8.2533	119441
3.97785	13.1252	0.578458	13.138	-2.52352	25.3374	3.90839	-0.0147935	69167.1	134.087	1	11	0.00494134	0.000376111	0	-8.64631e-05	0.000193733	8.4936e-06	-32.4244	0.0225827	0.0190621	0.0121085	-2.57254	13.1576	13.1443	0.590567	0.0760414	0.00335131	0.0761152	2.52352	134087	3.04244e+06	3.04539e+06	-87.4765	0.0000000E+000	0.0000000E+000	0.0000000E+000	87.4765	0.0000000E+000	0.0000000E+000	0.0000000E+000	-87.4765	0.0000000E+000	0.0000000E+000	0.0000000E+000	-2.52352	0.0000000E+000	0.0000000E+000	0.0000000E+000	2.52352	22.69	87.4765	-6.79075e-06	-5.78186e-05	-2.86598e-09	-5.78157e-05	3.90819	264197	13.0958	264184
1.00469	13.9076	0.62722	13.9217	-2.58225	240.152	3.90835	-0.0111532	252561	512.651	1	11	0.00500687	0.000359645	0	-0.00215398	0.000250965	3.80564e-07	21.3303	0.00105816	0.000985679	-0.000384902	-2.58048	13.9227	13.9085	0.626835	0.0717574	0.0032362	0.0718303	2.58225	512651	1.13672e+07	1.13787e+07	-87.4178	0.0000000E+000	0.0000000E+000	0.0000000E+000	87.4178	0.0000000E+000	0.0000000E+000	0.0000000E+000	-87.4178	0.0000000E+000	0.0000000E+000	0.0000000E+000	-2.58225	0.0000000E+000	0.0000000E+000	0.0000000E+000	2.58225	22.1733	87.4178	-0.00205063	-4.35905e-05	-2.79905e-09	-4.35877e-05	3.9081	350425	22.5016	350403
0.251173	14.4116	1.2962	14.4697	-5.13946	240.152	3.90835	-0.0111532	488847	3922.82	1	11	0.00503407	0.000347903	0	-0.00215398	0.000250965	2.75552e-07	11.1233	0.000792038	0.000777159	-0.000152801	-5.13858	14.4705	14.4123	1.29605	0.0688319	0.00619087	0.0691097	5.13946	3.92282e+06	4.3615e+07	4.37911e+07	-84.8605	0.0000000E+000	0.0000000E+000	0.0000000E+000	84.8605	0.0000000E+000	0.0000000E+000	0.0000000E+000	-84.8605	0.0000000E+000	0.0000000E+000	0.0000000E+000	-5.13946	0.0000000E+000	0.0000000E+000	0.0000000E+000	5.13946	11.1183	84.8605	0.000000000000000E+000	-4.35905e-05	-2.79905e-09	-4.35877e-05	3.9081	350425	22.5016	350403
0.0602816	15.6936	2.95374	15.9692	-10.6591	240.153	3.90835	-0.0111532	893847	30580.4	1	11	0.00502631	0.000314751	0	-0.00215398	0.000250965	1.72581e-07	-34.3905	0.000548308	0.000452467	0.000309701	-10.6599	15.9697	15.6941	2.95405	0.0615402	0.0115827	0.0626207	10.6591	3.05804e+07	1.62478e+08	1.65331e+08	-79.3409	0.0000000E+000	0.0000000E+000	0.0000000E+000	79.3409	0.0000000E+000	0.0000000E+000	0.0000000E+000	-79.3409	0.0000000E+000	0.0000000E+000	0.0000000E+000	-10.6591	0.0000000E+000	0.0000000E+000	0.0000000E+000	10.6591	5.31314	79.3409	0.000000000000000E+000	-4.35905e-05	-2.79905e-09	-4.35877e-05	3.9081	350425	22.5016	350403
0.00796479	22.0583	6.20189	22.9136	-15.7038	20329	3.9084	0.00137765	3.22197e+06	236038	1	11	0.00502037	0.0002191	0	-0.0104971	-5.42724e-05	4.57611e-07	-18.665	0.0020886	0.00197875	0.000668424	-15.704	22.9157	22.0603	6.20256	0.0420132	0.0118124	0.0436422	15.7038	2.36038e+08	8.39521e+08	8.72072e+08	-74.2962	0.0000000E+000	0.0000000E+000	0.0000000E+000	74.2962	0.0000000E+000	0.0000000E+000	0.0000000E+000	-74.2962	0.0000000E+000	0.0000000E+000	0.0000000E+000	-15.7038	0.0000000E+000	0.0000000E+000	0.0000000E+000	15.7038	3.55671	74.2962	-0.00834315	5.3844e-06	-7.47683e-11	5.38448e-06	3.90845	2.837e+06	39.3949	2.83704e+06
0.0019912	26.9105	8.70492	28.2834	-17.9252	20329	3.9084	0.00137765	9.18208e+06	869775	1	11	0.00503412	0.000177988	0	-0.0104971	-5.42724e-05	7.38693e-07	-7.32979	0.00415024	0.00411632	0.000529488	-17.9236	28.2875	26.9146	8.70545	0.0336402	0.0108818	0.0353564	17.9252	8.69775e+08	2.68884e+09	2.82601e+09	-72.0748	0.0000000E+000	0.0000000E+000	0.0000000E+000	72.0748	0.0000000E+000	0.0000000E+000	0.0000000E+000	-72.0748	0.0000000E+000	0.0000000E+000	0.0000000E+000	-17.9252	0.0000000E+000	0.0000000E+000	0.0000000E+000	17.9252	3.09142	72.0748	0.000000000000000E+000	5.3844e-06	-7.47683e-11	5.38448e-06	3.90845	2.837e+06	39.3949	2.83704e+06
0.000497799	28.8794	21.5418	36.0287	-36.7201	20329	3.9084	0.00137765	1.48417e+07	5.3058e+06	1	11	0.00503608	0.00013978	0	-0.0104971	-5.42724e-05	6.59809e-07	8.88409	0.00472035	0.00466372	-0.000728993	-36.7148	36.032	28.884	21.5411	0.022248	0.0165953	0.0277556	36.7201	5.3058e+09	7.11305e+09	8.87395e+09	-53.2799	0.0000000E+000	0.0000000E+000	0.0000000E+000	53.2799	0.0000000E+000	0.0000000E+000	0.0000000E+000	-53.2799	0.0000000E+000	0.0000000E+000	0.0000000E+000	-36.7201	0.0000000E+000	0.0000000E+000	0.0000000E+000	36.7201	1.34062	53.2798	0.000000000000000E+000	5.3844e-06	-7.47683e-11	5.38448e-06	3.90845	2.837e+06	39.3949	2.83704e+06
9.95598e-05	38.1965	116.445	122.55	-71.8394	20329.1	3.9084	0.00137765	1.37282e+07	1.23946e+07	1	11	0.00503263	4.1066e-05	0	-0.0104971	-5.42724e-05	2.1934e-06	-45.0674	0.0534115	0.0377232	0.0378121	-71.8282	122.597	38.2342	116.483	0.00254331	0.00775347	0.00815995	71.8394	1.23946e+10	4.06569e+09	1.30444e+10	-18.1606	0.0000000E+000	0.0000000E+000	0.0000000E+000	18.1606	0.0000000E+000	0.0000000E+000	0.0000000E+000	-18.1606	0.0000000E+000	0.0000000E+000	0.0000000E+000	-71.8394	0.0000000E+000	0.0000000E+000	0.0000000E+000	71.8394	0.328022	18.1606	0.000000000000000E+000	5.3844e-06	-7.47683e-11	5.38448e-06	3.90845	2.837e+06	39.3949	2.83704e+06