File: txt/19120_R311_UC96_SOC50_C02.mpt
EC-Lab ASCII FILE
Nb header lines : 65

Potentio Electrochemical Impedance Spectroscopy

Run on channel : 2 (SN 66139)
Grouped channel(s) : 1, 2, 3, 4
User :
CE vs. WE compliance from -10 V to 10 V
Electrode connection : standard
Potential control : Ewe
Ewe ctrl range : min = -10.00 V, max = 10.00 V
Safety Limits :
	Do not start on E overload
Acquisition started on : 11/11/2025 16:20:14.228
Loaded Setting File :  C:\Users\Celltest\OneDrive - store-dot.com\Documents\EC-Lab\Data\@Biologic Test Protocols\cathode half cell EIS SOC50.mps
Saved on :
	File : 19119_R311_UC96_SOC50_C02.mpr
	Directory : C:\Users\Celltest\OneDrive - store-dot.com\Documents\EC-Lab\Data\Gyutae\
	Host : 169.254.61.224
Device : VMP-3e (SN .003165)
Address : USB
EC-LAB for windows v11.62 (software)
Internet server v27.00 (firmware)
Command interpretor v12.03 (firmware)
Electrode material :
Initial state :
Electrolyte :
Comments :
Electrode surface area : 0.001 cm²
Characteristic mass : 0.001 g
Equivalent Weight : 0.000 g/eq.
Density : 0.000 g/cm3
Volume (V) : 0.001 cm³
Record Ece
Cycle Definition : Charge/Discharge alternance
Mode                Multi sine
E (V)               0.0000
vs.                 Eoc
tE (h:m:s)          0:00:0.0000
record              0
dI                  0.000
unit dI             mA
dt (s)              0.000
fi                  1.000
unit fi             MHz
ff                  0.100
unit ff             mHz
Nd                  10
Points              per decade
spacing             Logarithmic
Va (mV)             5.0
pw                  0.10
Na                  2
corr                0
E range min (V)     -10.000
E range max (V)     10.000
I Range             Auto
Bandwidth           5
nc cycles           0
goto Ns'            0
nr cycles           0
inc. cycle          0

freq/Hz	Re(Z)/Ohm	-Im(Z)/Ohm	|Z|/Ohm	Phase(Z)/deg	time/s	<Ewe>/V	<I>/mA	Cs/µF	Cp/µF	cycle number	I Range	|Ewe|/V	|I|/A	Ns	(Q-Qo)/mA.h	<Ece>/V	|Ece|/V	Phase(Zce)/deg	|Zce|/Ohm	Re(Zce)/Ohm	-Im(Zce)/Ohm	Phase(Zwe-ce)/deg	|Zwe-ce|/Ohm	Re(Zwe-ce)/Ohm	-Im(Zwe-ce)/Ohm	Re(Y)/Ohm-1	Im(Y)/Ohm-1	|Y|/Ohm-1	Phase(Y)/deg	Re(C)/nF	Im(C)/nF	|C|/nF	Phase(C)/deg	Re(M)	Im(M)	|M|	Phase(M)/deg	Re(Permittivity)	Im(Permittivity)	|Permittivity|	Phase(Permittivity)/deg	Re(Resistivity)/Ohm.cm	Im(Resistivity)/Ohm.cm	|Resistivity|/Ohm.cm	Phase(Resistivity)/deg	Re(Conductivity)/mS/cm	Im(Conductivity)/mS/cm	|Conductivity|/mS/cm	Phase(Conductivity)/deg	Tan(Delta)	Loss Angle(Delta)/deg	dq/mA.h	Pwe/W	Pce/W	Pwe-ce/W	<Ewe-Ece>/V	Rwe/Ohm	Rce/Ohm	Rwe-ce/Ohm		Ewe-Ece/V
1.00002e+06	0.999984	-0.381015	1.07011	20.8579	2.69452	3.91065	-0.0647312	-0.417705	-0.0529535	1	9	0.000219524	0.000205141	0	-3.41361e-05	-0.000283825	0.000176301	3.14516	0.859416	0.858121	-0.0471525	12.9763	1.9068	1.85811	-0.428167	0.873241	-0.332723	0.934481	-20.8579	-52.9536	138.978	148.725	-110.858	0.0000000E+000	0.0000000E+000	0.0000000E+000	110.858	0.0000000E+000	0.0000000E+000	0.0000000E+000	-110.858	0.0000000E+000	0.0000000E+000	0.0000000E+000	20.8579	0.0000000E+000	0.0000000E+000	0.0000000E+000	-20.8579	2.62453	69.1421	-3.41361e-05	-0.000253141	1.83723e-08	-0.00025316	3.91094	60413.8	4.38467	60418.2
251206	1.22179	0.265188	1.25023	-12.2461	4.99654	3.91066	-0.0586973	2.38911	0.107488	1	9	0.00323666	0.00258884	0	-6.3805e-05	0.000403446	2.29707e-05	105.936	0.00887296	-0.00243624	-0.00853195	-11.8864	1.24607	1.21935	0.256656	0.781651	0.169657	0.799851	12.2461	107.488	495.225	506.756	-77.7539	0.0000000E+000	0.0000000E+000	0.0000000E+000	77.7539	0.0000000E+000	0.0000000E+000	0.0000000E+000	-77.7539	0.0000000E+000	0.0000000E+000	0.0000000E+000	-12.2461	0.0000000E+000	0.0000000E+000	0.0000000E+000	12.2461	4.60725	77.7539	-1.60813e-06	-0.000229545	-2.36812e-08	-0.000229521	3.91026	66624.3	6.87333	66617.4
63093.8	1.64699	0.643078	1.76808	-21.3285	7.29654	3.91056	-0.0329231	3.92256	0.518911	1	9	0.00547331	0.00309562	0	-0.000110278	0.000174356	1.87298e-05	68.9967	0.00605043	0.0021686	-0.00564844	-21.1325	1.76806	1.64915	0.63743	0.526848	0.205712	0.565585	21.3285	518.911	1328.98	1426.69	-68.6715	0.0000000E+000	0.0000000E+000	0.0000000E+000	68.6715	0.0000000E+000	0.0000000E+000	0.0000000E+000	-68.6715	0.0000000E+000	0.0000000E+000	0.0000000E+000	-21.3285	0.0000000E+000	0.0000000E+000	0.0000000E+000	21.3285	2.5611	68.6715	-1.84268e-06	-0.000128748	-5.74032e-09	-0.000128742	3.91038	118779	5.29585	118773
15847.7	2.33792	1.00664	2.54543	-23.2953	9.59656	3.91056	-0.0310236	9.97651	1.5603	1	9	0.00489497	0.00192304	0	-0.000135625	-3.56437e-05	1.00498e-05	-56.6146	0.00522599	0.00287569	0.00436364	-23.3599	2.5498	2.3408	1.01101	0.360834	0.155365	0.392861	23.2953	1560.3	3623.78	3945.42	-66.7047	0.0000000E+000	0.0000000E+000	0.0000000E+000	66.7047	0.0000000E+000	0.0000000E+000	0.0000000E+000	-66.7047	0.0000000E+000	0.0000000E+000	0.0000000E+000	-23.2953	0.0000000E+000	0.0000000E+000	0.0000000E+000	23.2953	2.32249	66.7047	-2.02512e-06	-0.00012132	1.10579e-09	-0.000121321	3.91059	126051	1.14892	126052
3983.6	3.25015	1.5531	3.60217	-25.541	11.3251	3.91029	-0.14779	25.7244	4.78207	1	9	0.00464389	0.00128919	0	-0.000156946	-0.000245643	1.46482e-05	-116.622	0.0113623	-0.00509141	0.0101577	-25.7217	3.60197	3.24506	1.56326	0.250482	0.119694	0.277611	25.541	4782.07	10007.4	11091.3	-64.459	0.0000000E+000	0.0000000E+000	0.0000000E+000	64.459	0.0000000E+000	0.0000000E+000	0.0000000E+000	-64.459	0.0000000E+000	0.0000000E+000	0.0000000E+000	-25.541	0.0000000E+000	0.0000000E+000	0.0000000E+000	25.541	2.09269	64.459	-9.83295e-06	-0.000577899	3.63035e-08	-0.000577935	3.91053	26458.5	1.66211	26460.1
1000.32	4.91738	2.58212	5.55409	-27.704	14.1628	3.91047	-0.0473026	61.6176	13.3178	1	10	0.00461692	0.000831265	0	-0.000194049	2.16289e-05	8.27382e-06	44.1802	0.00995328	0.00713801	-0.00693662	-27.6065	5.5572	4.92452	2.57518	0.159407	0.0837047	0.180047	27.704	13317.8	25362.3	28646.3	-62.296	0.0000000E+000	0.0000000E+000	0.0000000E+000	62.296	0.0000000E+000	0.0000000E+000	0.0000000E+000	-62.296	0.0000000E+000	0.0000000E+000	0.0000000E+000	-27.704	0.0000000E+000	0.0000000E+000	0.0000000E+000	27.704	1.9044	62.296	-6.35379e-06	-0.000184975	-1.0231e-09	-0.000184974	3.91045	82669.4	0.457245	82668.9
251.044	8.09378	3.79186	8.93797	-25.1026	16.8641	3.91047	-0.0469561	167.193	30.0915	1	10	0.00456217	0.000510426	0	-0.000227276	0.000155265	4.61142e-06	102.327	0.00903445	-0.00192872	-0.00882617	-25.0566	8.93249	8.09185	3.78303	0.101315	0.047465	0.111882	25.1026	30091.5	64230.7	70930.1	-64.8974	0.0000000E+000	0.0000000E+000	0.0000000E+000	64.8974	0.0000000E+000	0.0000000E+000	0.0000000E+000	-64.8974	0.0000000E+000	0.0000000E+000	0.0000000E+000	-25.1026	0.0000000E+000	0.0000000E+000	0.0000000E+000	25.1026	2.13452	64.8974	-6.01816e-06	-0.000183621	-7.29063e-09	-0.000183613	3.91031	83279.2	3.30659	83275.9
63.0823	12.0944	2.90143	12.4376	-13.4902	19.583	3.91049	-0.0407723	869.562	47.3209	1	10	0.00454836	0.000365695	0	-0.000259987	0.000193446	6.54886e-06	-52.5265	0.017908	0.0108951	0.0142124	-13.5421	12.4515	12.1053	2.91564	0.0781832	0.018756	0.0804015	13.4902	47320.9	197254	202851	-76.5098	0.0000000E+000	0.0000000E+000	0.0000000E+000	76.5098	0.0000000E+000	0.0000000E+000	0.0000000E+000	-76.5098	0.0000000E+000	0.0000000E+000	0.0000000E+000	-13.4902	0.0000000E+000	0.0000000E+000	0.0000000E+000	13.4902	4.16844	76.5098	-5.23895e-06	-0.00015944	-7.88725e-09	-0.000159432	3.9103	95910.5	4.74456	95905.8
15.8576	13.5675	1.23879	13.624	-5.21693	22.2411	3.91046	-0.0500406	8101.9	66.9841	1	10	0.00453705	0.00033302	0	-0.000295486	0.000403446	6.81263e-06	20.6898	0.0204571	0.0191378	-0.00722766	-5.17939	13.6424	13.5867	1.23156	0.0730959	0.00667403	0.0734	5.21693	66984.1	733629	736681	-84.7831	0.0000000E+000	0.0000000E+000	0.0000000E+000	84.7831	0.0000000E+000	0.0000000E+000	0.0000000E+000	-84.7831	0.0000000E+000	0.0000000E+000	0.0000000E+000	-5.21693	0.0000000E+000	0.0000000E+000	0.0000000E+000	5.21693	10.9523	84.7831	-7.07004e-06	-0.000195682	-2.01887e-08	-0.000195662	3.91006	78145.8	8.06236	78137.7
3.97785	14.0452	0.58596	14.0574	-2.38898	25.4363	3.91054	-0.0309746	68281.6	118.64	1	11	0.00454226	0.000323123	0	-0.000322798	0.000136174	3.46038e-06	-16.0991	0.0107092	0.0102892	0.00296966	-2.39932	14.0678	14.0555	0.58893	0.0710752	0.00296524	0.071137	2.38898	118640	2.84374e+06	2.84621e+06	-87.611	0.0000000E+000	0.0000000E+000	0.0000000E+000	87.611	0.0000000E+000	0.0000000E+000	0.0000000E+000	-87.611	0.0000000E+000	0.0000000E+000	0.0000000E+000	-2.38898	0.0000000E+000	0.0000000E+000	0.0000000E+000	2.38898	23.9695	87.611	-3.82767e-06	-0.000121128	-4.21794e-09	-0.000121123	3.91041	126250	4.39631	126246
1.00469	14.8308	0.650247	14.845	-2.51049	240.25	3.9105	-0.0215814	243617	467.415	1	11	0.00497839	0.000335357	0	-0.0030853	-9.29162e-05	3.04425e-07	147.544	0.000907765	-0.000765977	-0.000487152	-2.50874	14.8442	14.83	0.64976	0.067298	0.00295064	0.0673626	2.51049	467415	1.06608e+07	1.0671e+07	-87.4895	0.0000000E+000	0.0000000E+000	0.0000000E+000	87.4895	0.0000000E+000	0.0000000E+000	0.0000000E+000	-87.4895	0.0000000E+000	0.0000000E+000	0.0000000E+000	-2.51049	0.0000000E+000	0.0000000E+000	0.0000000E+000	2.51049	22.8079	87.4895	-0.00270737	-8.4394e-05	2.00526e-09	-8.4396e-05	3.91059	181198	4.30539	181202
0.251173	15.3875	1.29047	15.4415	-4.79391	240.255	3.9105	-0.0215814	491017	3429.4	1	11	0.00500457	0.000324099	0	-0.0030853	-9.29162e-05	5.85538e-07	-3.27863	0.00180666	0.0018037	0.000103326	-4.79374	15.4433	15.3893	1.29058	0.0645341	0.00541218	0.0647607	4.79391	3.4294e+06	4.08917e+07	4.10353e+07	-85.2061	0.0000000E+000	0.0000000E+000	0.0000000E+000	85.2061	0.0000000E+000	0.0000000E+000	0.0000000E+000	-85.2061	0.0000000E+000	0.0000000E+000	0.0000000E+000	-4.79391	0.0000000E+000	0.0000000E+000	0.0000000E+000	4.79391	11.9239	85.2061	0.000000000000000E+000	-8.4394e-05	2.00526e-09	-8.4396e-05	3.91059	181198	4.30539	181202
0.0602816	16.4802	2.88608	16.731	-9.93311	240.259	3.9105	-0.0215814	914802	27220.6	1	11	0.00499978	0.000298833	0	-0.0030853	-9.29162e-05	2.63694e-07	94.8621	0.000882414	-7.47912e-05	-0.000879239	-9.93019	16.7308	16.4802	2.8852	0.0588732	0.0103101	0.0597691	9.93311	2.72206e+07	1.55436e+08	1.57802e+08	-80.0669	0.0000000E+000	0.0000000E+000	0.0000000E+000	80.0669	0.0000000E+000	0.0000000E+000	0.0000000E+000	-80.0669	0.0000000E+000	0.0000000E+000	0.0000000E+000	-9.93311	0.0000000E+000	0.0000000E+000	0.0000000E+000	9.93311	5.71026	80.0669	0.000000000000000E+000	-8.4394e-05	2.00526e-09	-8.4396e-05	3.91059	181198	4.30539	181202
0.00796479	23.1509	7.42651	24.3129	-17.7855	20329.2	3.91053	-0.000228869	2.69068e+06	251047	1	11	0.00499394	0.000205403	0	-0.0185417	0.000174356	1.31237e-07	-102.169	0.000638926	-0.000134687	0.000624568	-17.787	24.313	23.1508	7.42713	0.0391646	0.0125635	0.0411304	17.7855	2.51047e+08	7.826e+08	8.2188e+08	-72.2145	0.0000000E+000	0.0000000E+000	0.0000000E+000	72.2145	0.0000000E+000	0.0000000E+000	0.0000000E+000	-72.2145	0.0000000E+000	0.0000000E+000	0.0000000E+000	-17.7855	0.0000000E+000	0.0000000E+000	0.0000000E+000	17.7855	3.11734	72.2145	-0.0154564	-8.94998e-07	-3.99045e-11	-8.94958e-07	3.91036	1.70864e+07	761.816	1.70856e+07
0.0019912	30.0627	10.6739	31.9014	-19.5477	20329.2	3.91053	-0.000228869	7.48829e+06	838322	1	11	0.00500749	0.000156968	0	-0.0185417	0.000174356	4.76614e-07	47.432	0.00303638	0.002054	-0.00223622	-19.5426	31.9026	30.0647	10.6717	0.0295399	0.0104883	0.0313466	19.5477	8.38322e+08	2.3611e+09	2.50551e+09	-70.4523	0.0000000E+000	0.0000000E+000	0.0000000E+000	70.4523	0.0000000E+000	0.0000000E+000	0.0000000E+000	-70.4523	0.0000000E+000	0.0000000E+000	0.0000000E+000	-19.5477	0.0000000E+000	0.0000000E+000	0.0000000E+000	19.5477	2.81647	70.4523	0.000000000000000E+000	-8.94998e-07	-3.99045e-11	-8.94958e-07	3.91036	1.70864e+07	761.816	1.70856e+07
0.000497799	33.2841	22.0399	39.9198	-33.5115	20329.2	3.91053	-0.000228869	1.45063e+07	4.4218e+06	1	11	0.00501045	0.000125513	0	-0.0185417	0.000174356	1.349e-06	28.0838	0.0107479	0.00948246	-0.00505971	-33.498	39.9249	33.2936	22.0349	0.0208862	0.0138304	0.0250502	33.5115	4.4218e+09	6.67769e+09	8.00899e+09	-56.4885	0.0000000E+000	0.0000000E+000	0.0000000E+000	56.4885	0.0000000E+000	0.0000000E+000	0.0000000E+000	-56.4885	0.0000000E+000	0.0000000E+000	0.0000000E+000	-33.5115	0.0000000E+000	0.0000000E+000	0.0000000E+000	33.5115	1.51017	56.4885	0.000000000000000E+000	-8.94998e-07	-3.99045e-11	-8.94958e-07	3.91036	1.70864e+07	761.816	1.70856e+07
9.95598e-05	45.3394	111.508	120.373	-67.8732	20329.2	3.91053	-0.000228869	1.43361e+07	1.23022e+07	1	11	0.00501625	4.16725e-05	0	-0.0185417	0.000174356	3.1227e-06	-19.3724	0.0749343	0.0706917	0.0248562	-67.8465	120.423	45.4101	111.533	0.00312908	0.00769568	0.00830751	67.8732	1.23022e+10	5.0021e+09	1.32803e+10	-22.1268	0.0000000E+000	0.0000000E+000	0.0000000E+000	22.1268	0.0000000E+000	0.0000000E+000	0.0000000E+000	-22.1268	0.0000000E+000	0.0000000E+000	0.0000000E+000	-67.8732	0.0000000E+000	0.0000000E+000	0.0000000E+000	67.8732	0.406602	22.1268	0.000000000000000E+000	-8.94998e-07	-3.99045e-11	-8.94958e-07	3.91036	1.70864e+07	761.816	1.70856e+07