File: txt/19122_R311_UC96_SOC50_C04.mpt
EC-Lab ASCII FILE
Nb header lines : 65

Potentio Electrochemical Impedance Spectroscopy

Run on channel : 4 (SN 66756)
Grouped channel(s) : 1, 2, 3, 4
User :
CE vs. WE compliance from -10 V to 10 V
Electrode connection : standard
Potential control : Ewe
Ewe ctrl range : min = -10.00 V, max = 10.00 V
Safety Limits :
	Do not start on E overload
Acquisition started on : 11/11/2025 16:20:14.228
Loaded Setting File :  C:\Users\Celltest\OneDrive - store-dot.com\Documents\EC-Lab\Data\@Biologic Test Protocols\cathode half cell EIS SOC50.mps
Saved on :
	File : 19119_R311_UC96_SOC50_C04.mpr
	Directory : C:\Users\Celltest\OneDrive - store-dot.com\Documents\EC-Lab\Data\Gyutae\
	Host : 169.254.61.224
Device : VMP-3e (SN .003165)
Address : USB
EC-LAB for windows v11.62 (software)
Internet server v27.00 (firmware)
Command interpretor v12.03 (firmware)
Electrode material :
Initial state :
Electrolyte :
Comments :
Electrode surface area : 0.001 cm²
Characteristic mass : 0.001 g
Equivalent Weight : 0.000 g/eq.
Density : 0.000 g/cm3
Volume (V) : 0.001 cm³
Record Ece
Cycle Definition : Charge/Discharge alternance
Mode                Multi sine
E (V)               0.0000
vs.                 Eoc
tE (h:m:s)          0:00:0.0000
record              0
dI                  0.000
unit dI             mA
dt (s)              0.000
fi                  1.000
unit fi             MHz
ff                  0.100
unit ff             mHz
Nd                  10
Points              per decade
spacing             Logarithmic
Va (mV)             5.0
pw                  0.10
Na                  2
corr                0
E range min (V)     -10.000
E range max (V)     10.000
I Range             Auto
Bandwidth           5
nc cycles           0
goto Ns'            0
nr cycles           0
inc. cycle          0

freq/Hz	Re(Z)/Ohm	-Im(Z)/Ohm	|Z|/Ohm	Phase(Z)/deg	time/s	<Ewe>/V	<I>/mA	Cs/µF	Cp/µF	cycle number	I Range	|Ewe|/V	|I|/A	Ns	(Q-Qo)/mA.h	<Ece>/V	|Ece|/V	Phase(Zce)/deg	|Zce|/Ohm	Re(Zce)/Ohm	-Im(Zce)/Ohm	Phase(Zwe-ce)/deg	|Zwe-ce|/Ohm	Re(Zwe-ce)/Ohm	-Im(Zwe-ce)/Ohm	Re(Y)/Ohm-1	Im(Y)/Ohm-1	|Y|/Ohm-1	Phase(Y)/deg	Re(C)/nF	Im(C)/nF	|C|/nF	Phase(C)/deg	Re(M)	Im(M)	|M|	Phase(M)/deg	Re(Permittivity)	Im(Permittivity)	|Permittivity|	Phase(Permittivity)/deg	Re(Resistivity)/Ohm.cm	Im(Resistivity)/Ohm.cm	|Resistivity|/Ohm.cm	Phase(Resistivity)/deg	Re(Conductivity)/mS/cm	Im(Conductivity)/mS/cm	|Conductivity|/mS/cm	Phase(Conductivity)/deg	Tan(Delta)	Loss Angle(Delta)/deg	dq/mA.h	Pwe/W	Pce/W	Pwe-ce/W	<Ewe-Ece>/V	Rwe/Ohm	Rce/Ohm	Rwe-ce/Ohm		Ewe-Ece/V
1.00002e+06	3.07728	2.48764	3.95702	-38.9517	1.77453	3.89863	0.0317676	0.0639771	0.025285	1	10	0.000216717	5.47678e-05	0	-3.1011e-06	-0.0003741	0.000185492	-64.9163	3.38689	1.43584	3.06747	-50.9086	7.15734	4.51312	5.55511	0.196531	0.158873	0.252715	38.9517	25.285	31.2783	40.2202	-51.0483	0.0000000E+000	0.0000000E+000	0.0000000E+000	51.0483	0.0000000E+000	0.0000000E+000	0.0000000E+000	-51.0483	0.0000000E+000	0.0000000E+000	0.0000000E+000	-38.9517	0.0000000E+000	0.0000000E+000	0.0000000E+000	38.9517	1.23703	51.0483	-3.1011e-06	0.00012385	-1.18843e-08	0.000123862	3.899	122723	11.7761	122735
251206	1.52369	0.184314	1.5348	-6.89728	4.47752	3.89724	-0.0654794	3.43742	0.0495729	1	9	0.00314088	0.00204644	0	-4.44327e-05	-0.00024033	5.61808e-05	70.9955	0.0274529	0.00893983	-0.0259565	-5.89908	1.54079	1.53263	0.158357	0.646836	0.0782446	0.651551	6.89728	49.5729	409.811	412.799	-83.1027	0.0000000E+000	0.0000000E+000	0.0000000E+000	83.1027	0.0000000E+000	0.0000000E+000	0.0000000E+000	-83.1027	0.0000000E+000	0.0000000E+000	0.0000000E+000	-6.89728	0.0000000E+000	0.0000000E+000	0.0000000E+000	6.89728	8.26684	83.1027	-9.87002e-06	-0.000255189	1.57367e-08	-0.000255205	3.89749	59518.7	3.67032	59522.3
63093.8	1.84153	0.614909	1.94148	-18.4648	6.65152	3.89714	-0.0798761	4.10225	0.411509	1	9	0.005261	0.00270979	0	-9.12376e-05	-6.83407e-05	2.504e-05	45.0524	0.00924058	0.00652809	-0.00654005	-18.2212	1.94562	1.84806	0.608369	0.488555	0.163135	0.515072	18.4648	411.509	1232.39	1299.27	-71.5352	0.0000000E+000	0.0000000E+000	0.0000000E+000	71.5352	0.0000000E+000	0.0000000E+000	0.0000000E+000	-71.5352	0.0000000E+000	0.0000000E+000	0.0000000E+000	-18.4648	0.0000000E+000	0.0000000E+000	0.0000000E+000	18.4648	2.9948	71.5352	-1.54387e-05	-0.000311288	5.45879e-09	-0.000311294	3.89721	48789.8	0.855583	48790.6
15847.7	2.5267	1.06979	2.74384	-22.9476	8.95156	3.89714	-0.0933405	9.3876	1.42704	1	9	0.00523081	0.00190638	0	-0.000147527	0.000180089	1.1447e-05	-78.2694	0.00600459	0.0012208	0.00587918	-23.0505	2.74726	2.52792	1.07567	0.33561	0.142096	0.364452	22.9476	1427.04	3370.46	3660.12	-67.0524	0.0000000E+000	0.0000000E+000	0.0000000E+000	67.0524	0.0000000E+000	0.0000000E+000	0.0000000E+000	-67.0524	0.0000000E+000	0.0000000E+000	0.0000000E+000	-22.9476	0.0000000E+000	0.0000000E+000	0.0000000E+000	22.9476	2.36186	67.0524	-1.1169e-05	-0.000363761	-1.68096e-08	-0.000363744	3.89696	41751.9	1.92937	41750
3983.6	3.62423	1.71956	4.01147	-25.3825	11.3681	3.89715	-0.0928053	23.2342	4.26927	1	10	0.00495386	0.00123492	0	-0.000201024	6.5429e-05	1.58881e-05	6.20756	0.0128656	0.0127902	-0.00139117	-25.2865	4.02244	3.63702	1.71817	0.225221	0.106859	0.249285	25.3825	4269.27	8998.13	9959.57	-64.6175	0.0000000E+000	0.0000000E+000	0.0000000E+000	64.6175	0.0000000E+000	0.0000000E+000	0.0000000E+000	-64.6175	0.0000000E+000	0.0000000E+000	0.0000000E+000	-25.3825	0.0000000E+000	0.0000000E+000	0.0000000E+000	25.3825	2.10765	64.6175	-1.30181e-05	-0.000361676	-6.07216e-09	-0.00036167	3.89708	41992.7	0.705014	41992
1000.32	5.40678	2.82757	6.10151	-27.6081	13.9968	3.89712	-0.111479	56.2688	12.0843	1	10	0.00494295	0.00081012	0	-0.000274807	-3.01208e-05	9.39631e-06	10.824	0.0115987	0.0113923	-0.00217815	-27.5405	6.1106	5.41817	2.82539	0.145233	0.075952	0.163894	27.6081	12084.3	23107.1	26076.2	-62.3919	0.0000000E+000	0.0000000E+000	0.0000000E+000	62.3919	0.0000000E+000	0.0000000E+000	0.0000000E+000	-62.3919	0.0000000E+000	0.0000000E+000	0.0000000E+000	-27.6081	0.0000000E+000	0.0000000E+000	0.0000000E+000	27.6081	1.91216	62.3919	-1.29868e-05	-0.000434446	3.35782e-09	-0.000434449	3.89715	34958.5	0.270193	34958.8
251.044	8.81957	4.11879	9.73392	-25.0328	16.6981	3.89713	-0.119073	153.922	27.559	1	10	0.004765	0.000489526	0	-0.000358186	-0.000106561	4.86895e-06	3.60443	0.00994627	0.00992659	-0.000625299	-25.0048	9.74265	8.8295	4.11816	0.0930833	0.0434704	0.102733	25.0328	27559	59012.1	65130.1	-64.9672	0.0000000E+000	0.0000000E+000	0.0000000E+000	64.9672	0.0000000E+000	0.0000000E+000	0.0000000E+000	-64.9672	0.0000000E+000	0.0000000E+000	0.0000000E+000	-25.0328	0.0000000E+000	0.0000000E+000	0.0000000E+000	25.0328	2.1413	64.9672	-1.43947e-05	-0.000464044	1.26885e-08	-0.000464056	3.89724	32728.9	0.894917	32729.7
63.0823	13.1145	3.39702	13.5473	-14.522	19.418	3.89713	-0.118409	742.703	46.6985	1	10	0.00474037	0.000349912	0	-0.000446927	-0.000125671	3.82265e-06	-114.251	0.0109246	-0.0044871	0.00996058	-14.5675	13.5455	13.11	3.40698	0.071457	0.0185093	0.0738153	14.522	46698.5	180284	186234	-75.478	0.0000000E+000	0.0000000E+000	0.0000000E+000	75.478	0.0000000E+000	0.0000000E+000	0.0000000E+000	-75.478	0.0000000E+000	0.0000000E+000	0.0000000E+000	-14.522	0.0000000E+000	0.0000000E+000	0.0000000E+000	14.522	3.8606	75.478	-1.5334e-05	-0.000461456	1.48806e-08	-0.000461471	3.89725	32912.4	1.06132	32913.4
15.8576	15.2961	1.4871	15.3682	-5.55292	22.312	3.89714	-0.117616	6749.04	63.1945	1	11	0.00474179	0.000308546	0	-0.00054344	-0.000125671	8.19647e-06	163.984	0.0265649	-0.0255337	-0.00732943	-5.5349	15.3421	15.2705	1.47977	0.0647641	0.00629646	0.0650695	5.55292	63194.6	650007	653072	-84.4471	0.0000000E+000	0.0000000E+000	0.0000000E+000	84.4471	0.0000000E+000	0.0000000E+000	0.0000000E+000	-84.4471	0.0000000E+000	0.0000000E+000	0.0000000E+000	-5.55292	0.0000000E+000	0.0000000E+000	0.0000000E+000	5.55292	10.2858	84.4471	-2.16784e-05	-0.000458365	1.47808e-08	-0.000458379	3.89726	33134.5	1.06848	33135.6
3.97785	15.3939	0.705349	15.4101	-2.62346	25.2243	3.89714	-0.126715	56724.1	118.841	1	11	0.00473939	0.000307552	0	-0.000640396	4.6319e-05	6.95031e-06	12.3492	0.0225988	0.0220759	-0.0048332	-2.60178	15.4319	15.416	0.700516	0.0648247	0.00297027	0.0648927	2.62346	118841	2.59365e+06	2.59638e+06	-87.3765	0.0000000E+000	0.0000000E+000	0.0000000E+000	87.3765	0.0000000E+000	0.0000000E+000	0.0000000E+000	-87.3765	0.0000000E+000	0.0000000E+000	0.0000000E+000	-2.62346	0.0000000E+000	0.0000000E+000	0.0000000E+000	2.62346	21.8245	87.3765	-2.14762e-05	-0.000493828	-5.86933e-09	-0.000493822	3.8971	30755.1	0.365536	30754.8
1.00469	16.4626	0.73747	16.4791	-2.56494	240.038	3.89712	-0.15539	214804	430.192	1	11	0.00506369	0.000307279	0	-0.0111643	-0.00022122	4.65224e-07	-5.53382	0.00151401	0.00150696	0.000146001	-2.56522	16.4806	16.4641	0.737616	0.0606221	0.00271567	0.0606829	2.56494	430192	9.60322e+06	9.61286e+06	-87.4351	0.0000000E+000	0.0000000E+000	0.0000000E+000	87.4351	0.0000000E+000	0.0000000E+000	0.0000000E+000	-87.4351	0.0000000E+000	0.0000000E+000	0.0000000E+000	-2.56494	0.0000000E+000	0.0000000E+000	0.0000000E+000	2.56494	22.3231	87.4351	-0.0103323	-0.000605575	3.43755e-08	-0.000605609	3.89734	25079.5	1.42364	25081
0.251173	17.1216	1.47814	17.1852	-4.93423	240.042	3.89712	-0.15539	428677	3171.4	1	11	0.00509137	0.000296264	0	-0.0111643	-0.00022122	2.91248e-07	-47.3419	0.00098307	0.00066615	0.000722959	-4.93645	17.186	17.1222	1.47886	0.0579738	0.00500501	0.0581895	4.93423	3.1714e+06	3.67349e+07	3.68715e+07	-85.0658	0.0000000E+000	0.0000000E+000	0.0000000E+000	85.0658	0.0000000E+000	0.0000000E+000	0.0000000E+000	-85.0658	0.0000000E+000	0.0000000E+000	0.0000000E+000	-4.93423	0.0000000E+000	0.0000000E+000	0.0000000E+000	4.93423	11.5832	85.0658	0.000000000000000E+000	-0.000605575	3.43755e-08	-0.000605609	3.89734	25079.5	1.42364	25081
0.0602816	18.3941	3.24366	18.678	-10.0008	240.046	3.89712	-0.15539	813953	24547.8	1	11	0.0050869	0.000272348	0	-0.0111643	-0.00022122	5.07395e-07	73.0525	0.00186304	0.000543067	-0.00178213	-9.99517	18.6782	18.3947	3.24188	0.0527255	0.00929773	0.0535391	10.0008	2.45478e+07	1.39205e+08	1.41353e+08	-79.9992	0.0000000E+000	0.0000000E+000	0.0000000E+000	79.9992	0.0000000E+000	0.0000000E+000	0.0000000E+000	-79.9992	0.0000000E+000	0.0000000E+000	0.0000000E+000	-10.0008	0.0000000E+000	0.0000000E+000	0.0000000E+000	10.0008	5.67079	79.9992	0.000000000000000E+000	-0.000605575	3.43755e-08	-0.000605609	3.89734	25079.5	1.42364	25081
0.00796479	25.9099	8.285	27.2023	-17.7323	20329	3.89711	-0.000667247	2.41187e+06	223732	1	11	0.00507557	0.000186586	0	-0.0680969	-0.00024033	6.86606e-07	-6.24057	0.00367983	0.00365803	0.00040001	-17.7308	27.2059	25.9135	8.2854	0.0350151	0.0111965	0.0367617	17.7323	2.23732e+08	6.99683e+08	7.34583e+08	-72.2677	0.0000000E+000	0.0000000E+000	0.0000000E+000	72.2677	0.0000000E+000	0.0000000E+000	0.0000000E+000	-72.2677	0.0000000E+000	0.0000000E+000	0.0000000E+000	-17.7323	0.0000000E+000	0.0000000E+000	0.0000000E+000	17.7323	3.12732	72.2677	-0.0569325	-2.60033e-06	1.6036e-10	-2.60049e-06	3.89735	5.84058e+06	360.182	5.84094e+06
0.0019912	34.3991	12.0749	36.4569	-19.3423	20329	3.89711	-0.000667247	6.61944e+06	726160	1	11	0.00509037	0.000139627	0	-0.0680969	-0.00024033	7.1064e-07	-26.1038	0.00508956	0.00457041	0.0022394	-19.3433	36.4619	34.4037	12.0772	0.0258814	0.00908502	0.0274297	19.3423	7.26159e+08	2.06869e+09	2.19243e+09	-70.6577	0.0000000E+000	0.0000000E+000	0.0000000E+000	70.6577	0.0000000E+000	0.0000000E+000	0.0000000E+000	-70.6577	0.0000000E+000	0.0000000E+000	0.0000000E+000	-19.3423	0.0000000E+000	0.0000000E+000	0.0000000E+000	19.3423	2.8488	70.6577	0.000000000000000E+000	-2.60033e-06	1.6036e-10	-2.60049e-06	3.89735	5.84058e+06	360.182	5.84094e+06
0.000497799	39.7835	19.1742	44.163	-25.7324	20329	3.89711	-0.000667247	1.66744e+07	3.14315e+06	1	11	0.00509183	0.000115296	0	-0.0680969	-0.00024033	1.01576e-06	-84.1937	0.00880999	0.000891271	0.0087648	-25.7421	44.1676	39.7844	19.1829	0.0203979	0.00983103	0.0226434	25.7324	3.14315e+09	6.52155e+09	7.23948e+09	-64.2676	0.0000000E+000	0.0000000E+000	0.0000000E+000	64.2676	0.0000000E+000	0.0000000E+000	0.0000000E+000	-64.2676	0.0000000E+000	0.0000000E+000	0.0000000E+000	-25.7324	0.0000000E+000	0.0000000E+000	0.0000000E+000	25.7324	2.07485	64.2676	0.000000000000000E+000	-2.60033e-06	1.6036e-10	-2.60049e-06	3.89735	5.84058e+06	360.182	5.84094e+06
9.95598e-05	48.3786	124.401	133.477	-68.7493	20329	3.89711	-0.000667247	1.28503e+07	1.11621e+07	1	11	0.00509199	3.81489e-05	0	-0.0680969	-0.00024033	2.35054e-06	-27.5932	0.0616151	0.0546069	0.0285395	-68.7319	133.523	48.4332	124.429	0.00271545	0.00698251	0.00749194	68.7493	1.11621e+10	4.34088e+09	1.19765e+10	-21.2507	0.0000000E+000	0.0000000E+000	0.0000000E+000	21.2507	0.0000000E+000	0.0000000E+000	0.0000000E+000	-21.2507	0.0000000E+000	0.0000000E+000	0.0000000E+000	-68.7493	0.0000000E+000	0.0000000E+000	0.0000000E+000	68.7493	0.388893	21.2507	0.000000000000000E+000	-2.60033e-06	1.6036e-10	-2.60049e-06	3.89735	5.84058e+06	360.182	5.84094e+06