File: txt/19121_R311_UC96_SOC50_C03.mpt
EC-Lab ASCII FILE
Nb header lines : 65

Potentio Electrochemical Impedance Spectroscopy

Run on channel : 3 (SN 65921)
Grouped channel(s) : 1, 2, 3, 4
User :
CE vs. WE compliance from -10 V to 10 V
Electrode connection : standard
Potential control : Ewe
Ewe ctrl range : min = -10.00 V, max = 10.00 V
Safety Limits :
	Do not start on E overload
Acquisition started on : 11/11/2025 16:20:14.228
Loaded Setting File :  C:\Users\Celltest\OneDrive - store-dot.com\Documents\EC-Lab\Data\@Biologic Test Protocols\cathode half cell EIS SOC50.mps
Saved on :
	File : 19119_R311_UC96_SOC50_C03.mpr
	Directory : C:\Users\Celltest\OneDrive - store-dot.com\Documents\EC-Lab\Data\Gyutae\
	Host : 169.254.61.224
Device : VMP-3e (SN .003165)
Address : USB
EC-LAB for windows v11.62 (software)
Internet server v27.00 (firmware)
Command interpretor v12.03 (firmware)
Electrode material :
Initial state :
Electrolyte :
Comments :
Electrode surface area : 0.001 cm²
Characteristic mass : 0.001 g
Equivalent Weight : 0.000 g/eq.
Density : 0.000 g/cm3
Volume (V) : 0.001 cm³
Record Ece
Cycle Definition : Charge/Discharge alternance
Mode                Multi sine
E (V)               0.0000
vs.                 Eoc
tE (h:m:s)          0:00:0.0000
record              0
dI                  0.000
unit dI             mA
dt (s)              0.000
fi                  1.000
unit fi             MHz
ff                  0.100
unit ff             mHz
Nd                  10
Points              per decade
spacing             Logarithmic
Va (mV)             5.0
pw                  0.10
Na                  2
corr                0
E range min (V)     -10.000
E range max (V)     10.000
I Range             Auto
Bandwidth           5
nc cycles           0
goto Ns'            0
nr cycles           0
inc. cycle          0

freq/Hz	Re(Z)/Ohm	-Im(Z)/Ohm	|Z|/Ohm	Phase(Z)/deg	time/s	<Ewe>/V	<I>/mA	Cs/µF	Cp/µF	cycle number	I Range	|Ewe|/V	|I|/A	Ns	(Q-Qo)/mA.h	<Ece>/V	|Ece|/V	Phase(Zce)/deg	|Zce|/Ohm	Re(Zce)/Ohm	-Im(Zce)/Ohm	Phase(Zwe-ce)/deg	|Zwe-ce|/Ohm	Re(Zwe-ce)/Ohm	-Im(Zwe-ce)/Ohm	Re(Y)/Ohm-1	Im(Y)/Ohm-1	|Y|/Ohm-1	Phase(Y)/deg	Re(C)/nF	Im(C)/nF	|C|/nF	Phase(C)/deg	Re(M)	Im(M)	|M|	Phase(M)/deg	Re(Permittivity)	Im(Permittivity)	|Permittivity|	Phase(Permittivity)/deg	Re(Resistivity)/Ohm.cm	Im(Resistivity)/Ohm.cm	|Resistivity|/Ohm.cm	Phase(Resistivity)/deg	Re(Conductivity)/mS/cm	Im(Conductivity)/mS/cm	|Conductivity|/mS/cm	Phase(Conductivity)/deg	Tan(Delta)	Loss Angle(Delta)/deg	dq/mA.h	Pwe/W	Pce/W	Pwe-ce/W	<Ewe-Ece>/V	Rwe/Ohm	Rce/Ohm	Rwe-ce/Ohm		Ewe-Ece/V
1.00002e+06	2.40253	2.54967	3.50328	-46.7018	2.23353	3.91163	-0.00660822	0.0624207	0.0330633	1	10	0.000221651	6.32696e-05	0	-1.29263e-05	-0.000214507	0.000201031	-66.2575	3.17737	1.27929	2.90845	-55.998	6.58383	3.68182	5.45812	0.195758	0.207747	0.285447	46.7018	33.0633	31.1553	45.4294	-43.2982	0.0000000E+000	0.0000000E+000	0.0000000E+000	43.2982	0.0000000E+000	0.0000000E+000	0.0000000E+000	-43.2982	0.0000000E+000	0.0000000E+000	0.0000000E+000	-46.7018	0.0000000E+000	0.0000000E+000	0.0000000E+000	46.7018	0.942292	43.2982	-1.29263e-05	-2.58489e-05	1.41751e-09	-2.58503e-05	3.91184	591933	32.4607	591966
251206	1.19221	0.213066	1.2111	-10.1326	4.93456	3.91125	0.0117038	2.97356	0.0920324	1	9	0.00290454	0.00239826	0	-7.82461e-06	-0.000138131	5.19131e-05	114.674	0.0216461	-0.00903644	-0.0196697	-9.28317	1.19888	1.18318	0.193396	0.812815	0.145262	0.825693	10.1326	92.0324	514.97	523.129	-79.8674	0.0000000E+000	0.0000000E+000	0.0000000E+000	79.8674	0.0000000E+000	0.0000000E+000	0.0000000E+000	-79.8674	0.0000000E+000	0.0000000E+000	0.0000000E+000	-10.1326	0.0000000E+000	0.0000000E+000	0.0000000E+000	10.1326	5.59552	79.8674	1.39633e-06	4.57763e-05	-1.61666e-09	4.5778e-05	3.91138	334187	11.8023	334198
63093.8	1.54265	0.580962	1.64842	-20.6363	7.11052	3.91117	0.00364839	4.34195	0.539317	1	9	0.00524018	0.0031789	0	1.79991e-05	-0.000176319	2.19444e-05	43.0489	0.00690315	0.00504462	-0.00471225	-20.4217	1.65149	1.5477	0.57625	0.567716	0.213802	0.606641	20.6363	539.317	1432.07	1530.26	-69.3637	0.0000000E+000	0.0000000E+000	0.0000000E+000	69.3637	0.0000000E+000	0.0000000E+000	0.0000000E+000	-69.3637	0.0000000E+000	0.0000000E+000	0.0000000E+000	-20.6363	0.0000000E+000	0.0000000E+000	0.0000000E+000	20.6363	2.65534	69.3637	1.61921e-06	1.42695e-05	-6.43281e-10	1.42701e-05	3.91135	1.07203e+06	48.328	1.07208e+06
15847.7	2.2039	0.962245	2.40481	-23.5865	9.40752	3.91118	0.018342	10.4368	1.67101	1	9	0.00515951	0.0021455	0	2.66212e-05	-4.47269e-06	5.40534e-06	-89.3733	0.00251939	2.75544e-05	0.00251923	-23.6413	2.40584	2.20393	0.964764	0.381094	0.166389	0.415834	23.5865	1671.01	3827.24	4176.13	-66.4135	0.0000000E+000	0.0000000E+000	0.0000000E+000	66.4135	0.0000000E+000	0.0000000E+000	0.0000000E+000	-66.4135	0.0000000E+000	0.0000000E+000	0.0000000E+000	-23.5865	0.0000000E+000	0.0000000E+000	0.0000000E+000	23.5865	2.29038	66.4135	1.12452e-06	7.1739e-05	-8.20383e-11	7.1739e-05	3.91119	213236	0.24385	213236
3983.6	3.18032	1.443	3.49238	-24.4051	11.2541	3.9111	0.0135684	27.6872	4.7268	1	9	0.00542501	0.00155338	0	3.10754e-05	-4.26608e-05	8.95744e-06	2.94063	0.0057664	0.00575881	-0.000295823	-24.3617	3.4975	3.18608	1.4427	0.260753	0.11831	0.286338	24.4051	4726.8	10417.7	11439.9	-65.5949	0.0000000E+000	0.0000000E+000	0.0000000E+000	65.5949	0.0000000E+000	0.0000000E+000	0.0000000E+000	-65.5949	0.0000000E+000	0.0000000E+000	0.0000000E+000	-24.4051	0.0000000E+000	0.0000000E+000	0.0000000E+000	24.4051	2.20397	65.5949	-2.85618e-07	5.30675e-05	-5.7884e-10	5.30681e-05	3.91115	288251	3.14413	288254
1000.32	4.64341	2.39652	5.22537	-27.2988	14.1278	3.91112	-0.026897	66.3897	13.9646	1	10	0.00521693	0.000998384	0	1.29886e-05	-0.000138131	9.99563e-06	67.3116	0.0100118	0.00386174	-0.00923705	-27.1894	5.22458	4.64727	2.38728	0.17006	0.08777	0.191374	27.2988	13964.6	27057.2	30448.4	-62.7012	0.0000000E+000	0.0000000E+000	0.0000000E+000	62.7012	0.0000000E+000	0.0000000E+000	0.0000000E+000	-62.7012	0.0000000E+000	0.0000000E+000	0.0000000E+000	-27.2988	0.0000000E+000	0.0000000E+000	0.0000000E+000	27.2988	1.93756	62.7012	-2.66317e-06	-0.000105198	3.71532e-09	-0.000105201	3.91126	145411	5.13555	145416
251.044	7.57017	3.51022	8.34441	-24.8768	16.828	3.91112	-0.0246075	180.607	31.9605	1	10	0.00509864	0.000611025	0	-5.61177e-06	0.000205562	6.15346e-06	-27.0007	0.0100707	0.00897303	0.00457213	-24.8793	8.35447	7.57914	3.5148	0.108721	0.0504131	0.119841	24.8768	31960.5	68926.2	75975.6	-65.1232	0.0000000E+000	0.0000000E+000	0.0000000E+000	65.1232	0.0000000E+000	0.0000000E+000	0.0000000E+000	-65.1232	0.0000000E+000	0.0000000E+000	0.0000000E+000	-24.8768	0.0000000E+000	0.0000000E+000	0.0000000E+000	24.8768	2.15661	65.1232	-3.48444e-06	-9.62431e-05	-5.05837e-09	-9.6238e-05	3.91092	158940	8.35362	158932
63.0823	11.2194	2.65908	11.5302	-13.3335	19.5469	3.91112	-0.0239923	948.813	50.4624	1	10	0.00509216	0.000441635	0	-2.52291e-05	9.09976e-05	6.29456e-06	-150.573	0.0142528	-0.012414	0.00700264	-13.3816	11.5198	11.207	2.66609	0.0843907	0.0200012	0.0867285	13.3335	50462.4	212915	218814	-76.6665	0.0000000E+000	0.0000000E+000	0.0000000E+000	76.6665	0.0000000E+000	0.0000000E+000	0.0000000E+000	-76.6665	0.0000000E+000	0.0000000E+000	0.0000000E+000	-13.3335	0.0000000E+000	0.0000000E+000	0.0000000E+000	13.3335	4.21929	76.6665	-2.88311e-06	-9.38366e-05	-2.18324e-09	-9.38344e-05	3.91103	163016	3.79279	163012
15.8576	12.596	1.04564	12.6393	-4.74544	22.2051	3.9111	-0.0289554	9598.48	65.6928	1	10	0.00507643	0.000401639	0	-4.78069e-05	7.19036e-05	5.22568e-06	22.009	0.0130109	0.0120627	-0.00487587	-4.71892	12.6509	12.608	1.04076	0.078847	0.00654537	0.0791182	4.74544	65692.8	791350	794072	-85.2546	0.0000000E+000	0.0000000E+000	0.0000000E+000	85.2546	0.0000000E+000	0.0000000E+000	0.0000000E+000	-85.2546	0.0000000E+000	0.0000000E+000	0.0000000E+000	-4.74544	0.0000000E+000	0.0000000E+000	0.0000000E+000	4.74544	12.0462	85.2546	-4.96313e-06	-0.000113248	-2.082e-09	-0.000113245	3.91103	135073	2.48325	135071
3.97785	12.9541	0.504579	12.9639	-2.23062	25.3623	3.91115	-0.0198496	79294.3	120.124	1	11	0.00507566	0.000391522	0	-6.87323e-05	7.19036e-05	4.984e-06	93.7016	0.0127298	-0.00082184	-0.0127032	-2.17465	12.9626	12.9533	0.491876	0.0770788	0.00300232	0.0771372	2.23062	120124	3.08394e+06	3.08628e+06	-87.7694	0.0000000E+000	0.0000000E+000	0.0000000E+000	87.7694	0.0000000E+000	0.0000000E+000	0.0000000E+000	-87.7694	0.0000000E+000	0.0000000E+000	0.0000000E+000	-2.23062	0.0000000E+000	0.0000000E+000	0.0000000E+000	2.23062	25.6731	87.7694	-4.0962e-06	-7.7635e-05	-1.42726e-09	-7.76335e-05	3.91108	197039	3.62241	197036
1.00469	13.6976	0.592878	13.7105	-2.4784	240.175	3.91113	-0.0134825	267191	499.629	1	11	0.00503834	0.000367481	0	-0.00236563	-0.000119037	4.07444e-07	-7.58198	0.00110875	0.00109906	0.000146294	-2.47881	13.7116	13.6987	0.593024	0.0728688	0.003154	0.072937	2.4784	499629	1.15432e+07	1.15541e+07	-87.5216	0.0000000E+000	0.0000000E+000	0.0000000E+000	87.5216	0.0000000E+000	0.0000000E+000	0.0000000E+000	-87.5216	0.0000000E+000	0.0000000E+000	0.0000000E+000	-2.4784	0.0000000E+000	0.0000000E+000	0.0000000E+000	2.4784	23.1036	87.5216	-0.00225926	-5.27319e-05	1.60492e-09	-5.27335e-05	3.91125	290089	8.82899	290098
0.251173	14.2062	1.22512	14.2589	-4.92892	240.18	3.91113	-0.0134825	517210	3818.16	1	11	0.00506308	0.000355082	0	-0.00236563	-0.000119037	5.10626e-07	4.4876	0.00143805	0.00143364	-0.000112518	-4.92798	14.2603	14.2076	1.22501	0.0698723	0.0060257	0.0701317	4.92892	3.81816e+06	4.42743e+07	4.44386e+07	-85.0711	0.0000000E+000	0.0000000E+000	0.0000000E+000	85.0711	0.0000000E+000	0.0000000E+000	0.0000000E+000	-85.0711	0.0000000E+000	0.0000000E+000	0.0000000E+000	-4.92892	0.0000000E+000	0.0000000E+000	0.0000000E+000	4.92892	11.5957	85.0711	0.000000000000000E+000	-5.27319e-05	1.60492e-09	-5.27335e-05	3.91125	290089	8.82899	290098
0.0602816	15.2603	2.75312	15.5066	-10.2268	240.184	3.91113	-0.0134825	958980	30229.2	1	11	0.00505787	0.000326175	0	-0.00236563	-0.000119037	3.5591e-07	-26.794	0.00109116	0.000974008	0.00049188	-10.2279	15.5077	15.2612	2.75361	0.0634641	0.0114496	0.0644886	10.2268	3.02292e+07	1.67557e+08	1.70262e+08	-79.7732	0.0000000E+000	0.0000000E+000	0.0000000E+000	79.7732	0.0000000E+000	0.0000000E+000	0.0000000E+000	-79.7732	0.0000000E+000	0.0000000E+000	0.0000000E+000	-10.2268	0.0000000E+000	0.0000000E+000	0.0000000E+000	10.2268	5.54289	79.7732	0.000000000000000E+000	-5.27319e-05	1.60492e-09	-5.27335e-05	3.91125	290089	8.82899	290098
0.00796479	21.6165	7.28769	22.8119	-18.6308	20329	3.91114	0.000127926	2.74193e+06	279841	1	11	0.0050518	0.000221454	0	-0.0145636	0.00014828	1.05162e-06	-161.613	0.00474871	-0.00450629	0.00149788	-18.638	22.8081	21.612	7.28919	0.0415395	0.0140044	0.0438367	18.6308	2.79841e+08	8.30057e+08	8.7596e+08	-71.3692	0.0000000E+000	0.0000000E+000	0.0000000E+000	71.3692	0.0000000E+000	0.0000000E+000	0.0000000E+000	-71.3692	0.0000000E+000	0.0000000E+000	0.0000000E+000	-18.6308	0.0000000E+000	0.0000000E+000	0.0000000E+000	18.6308	2.96617	71.3692	-0.012198	5.00338e-07	1.89689e-11	5.00319e-07	3.911	3.05734e+07	1159.1	3.05723e+07
0.0019912	28.5566	10.6073	30.463	-20.3775	20329	3.91114	0.000127926	7.53528e+06	913625	1	11	0.00506558	0.000166287	0	-0.0145636	0.00014828	8.84318e-07	-140.244	0.00531804	-0.00408835	0.00340101	-20.3862	30.4603	28.5525	10.6107	0.0307724	0.0114304	0.0328267	20.3775	9.13625e+08	2.45962e+09	2.62382e+09	-69.6225	0.0000000E+000	0.0000000E+000	0.0000000E+000	69.6225	0.0000000E+000	0.0000000E+000	0.0000000E+000	-69.6225	0.0000000E+000	0.0000000E+000	0.0000000E+000	-20.3775	0.0000000E+000	0.0000000E+000	0.0000000E+000	20.3775	2.69215	69.6225	0.000000000000000E+000	5.00338e-07	1.89689e-11	5.00319e-07	3.911	3.05734e+07	1159.1	3.05723e+07
0.000497799	31.8376	21.6516	38.5023	-34.2182	20329	3.91114	0.000127926	1.47664e+07	4.66964e+06	1	11	0.00506474	0.000131544	0	-0.0145636	0.00014828	1.29355e-06	-121.02	0.00983362	-0.00506765	0.00842728	-34.2328	38.5028	31.8326	21.66	0.0214767	0.0146055	0.0259725	34.2182	4.66964e+09	6.86647e+09	8.30385e+09	-55.7818	0.0000000E+000	0.0000000E+000	0.0000000E+000	55.7818	0.0000000E+000	0.0000000E+000	0.0000000E+000	-55.7818	0.0000000E+000	0.0000000E+000	0.0000000E+000	-34.2182	0.0000000E+000	0.0000000E+000	0.0000000E+000	34.2182	1.47045	55.7818	0.000000000000000E+000	5.00338e-07	1.89689e-11	5.00319e-07	3.911	3.05734e+07	1159.1	3.05723e+07
9.95598e-05	42.9755	108.976	117.144	-68.4778	20329	3.91114	0.000127926	1.46692e+07	1.26949e+07	1	11	0.0050666	4.32511e-05	0	-0.0145636	0.00014828	1.97578e-06	-37.7158	0.0456816	0.0361367	0.0279455	-68.4664	117.183	43.0117	109.004	0.00313173	0.00794132	0.00853653	68.4778	1.26949e+10	5.00633e+09	1.36464e+10	-21.5222	0.0000000E+000	0.0000000E+000	0.0000000E+000	21.5222	0.0000000E+000	0.0000000E+000	0.0000000E+000	-21.5222	0.0000000E+000	0.0000000E+000	0.0000000E+000	-68.4778	0.0000000E+000	0.0000000E+000	0.0000000E+000	68.4778	0.394358	21.5222	0.000000000000000E+000	5.00338e-07	1.89689e-11	5.00319e-07	3.911	3.05734e+07	1159.1	3.05723e+07