File: txt/19139_R306_UA703_SOC00_C03.mpt
EC-Lab ASCII FILE
Nb header lines : 65

Potentio Electrochemical Impedance Spectroscopy

Run on channel : 3 (SN 65921)
Grouped channel(s) : 1, 2, 3, 4, 5
User :
CE vs. WE compliance from -10 V to 10 V
Electrode connection : standard
Potential control : Ewe
Ewe ctrl range : min = -10.00 V, max = 10.00 V
Safety Limits :
	Do not start on E overload
Acquisition started on : 11/12/2025 11:20:24.450
Loaded Setting File :  C:\Users\Celltest\OneDrive - store-dot.com\Documents\EC-Lab\Data\@Biologic Test Protocols\anode half cell EIS SOC00.mps
Saved on :
	File : 19137_R306_UA703_SOC00_C03.mpr
	Directory : C:\Users\Celltest\OneDrive - store-dot.com\Documents\EC-Lab\Data\Charmaine\
	Host : 169.254.61.224
Device : VMP-3e (SN .003165)
Address : USB
EC-LAB for windows v11.62 (software)
Internet server v27.00 (firmware)
Command interpretor v12.03 (firmware)
Electrode material :
Initial state :
Electrolyte :
Comments :
Electrode surface area : 0.001 cm²
Characteristic mass : 0.001 g
Equivalent Weight : 0.000 g/eq.
Density : 0.000 g/cm3
Volume (V) : 0.001 cm³
Record Ece
Cycle Definition : Charge/Discharge alternance
Mode                Single sine
E (V)               0.0000
vs.                 Eoc
tE (h:m:s)          0:00:0.0000
record              0
dI                  0.000
unit dI             mA
dt (s)              0.000
fi                  100.000
unit fi             kHz
ff                  10.000
unit ff             mHz
Nd                  6
Points              per decade
spacing             Logarithmic
Va (mV)             5.0
pw                  0.10
Na                  2
corr                0
E range min (V)     -10.000
E range max (V)     10.000
I Range             Auto
Bandwidth           5
nc cycles           0
goto Ns'            0
nr cycles           0
inc. cycle          0

freq/Hz	Re(Z)/Ohm	-Im(Z)/Ohm	|Z|/Ohm	Phase(Z)/deg	time/s	<Ewe>/V	<I>/mA	Cs/µF	Cp/µF	cycle number	I Range	|Ewe|/V	|I|/A	Ns	(Q-Qo)/mA.h	<Ece>/V	|Ece|/V	Phase(Zce)/deg	|Zce|/Ohm	Re(Zce)/Ohm	-Im(Zce)/Ohm	Phase(Zwe-ce)/deg	|Zwe-ce|/Ohm	Re(Zwe-ce)/Ohm	-Im(Zwe-ce)/Ohm	Re(Y)/Ohm-1	Im(Y)/Ohm-1	|Y|/Ohm-1	Phase(Y)/deg	Re(C)/nF	Im(C)/nF	|C|/nF	Phase(C)/deg	Re(M)	Im(M)	|M|	Phase(M)/deg	Re(Permittivity)	Im(Permittivity)	|Permittivity|	Phase(Permittivity)/deg	Re(Resistivity)/Ohm.cm	Im(Resistivity)/Ohm.cm	|Resistivity|/Ohm.cm	Phase(Resistivity)/deg	Re(Conductivity)/mS/cm	Im(Conductivity)/mS/cm	|Conductivity|/mS/cm	Phase(Conductivity)/deg	Tan(Delta)	Loss Angle(Delta)/deg	dq/mA.h	Pwe/W	Pce/W	Pwe-ce/W	<Ewe-Ece>/V	Rwe/Ohm	Rce/Ohm	Rwe-ce/Ohm		Ewe-Ece/V
100004	1.13171	0.508685	1.24078	-24.2031	1.72654	0.265089	0.0113308	3.12863	0.525852	1	9	0.00476566	0.00384085	0	-1.69424e-06	6.08766e-05	4.45778e-05	97.2574	0.0116062	-0.00146618	-0.0115132	-23.7437	1.23476	1.13025	0.497172	0.7351	0.330415	0.805944	24.2031	525.852	1169.9	1282.65	-65.7969	0.0000000E+000	0.0000000E+000	0.0000000E+000	65.7969	0.0000000E+000	0.0000000E+000	0.0000000E+000	-65.7969	0.0000000E+000	0.0000000E+000	0.0000000E+000	-24.2031	0.0000000E+000	0.0000000E+000	0.0000000E+000	24.2031	2.22478	65.7969	-1.69424e-06	3.00368e-06	6.89784e-10	3.00299e-06	0.265028	23395.3	5.37264	23390
31621.1	1.58782	0.682717	1.72837	-23.2664	3.24752	0.265063	0.0116292	7.37228	1.1503	1	9	0.00520856	0.00301357	0	5.01226e-06	-0.00011097	4.79042e-06	17.4399	0.00158962	0.00151655	-0.000476418	-23.232	1.72957	1.58933	0.682241	0.531529	0.228543	0.57858	23.2664	1150.3	2675.28	2912.1	-66.7336	0.0000000E+000	0.0000000E+000	0.0000000E+000	66.7336	0.0000000E+000	0.0000000E+000	0.0000000E+000	-66.7336	0.0000000E+000	0.0000000E+000	0.0000000E+000	-23.2664	0.0000000E+000	0.0000000E+000	0.0000000E+000	23.2664	2.32573	66.7336	-1.9566e-06	3.08248e-06	-1.29049e-09	3.08377e-06	0.265174	22792.9	9.54235	22802.4
10002.2	2.1107	0.865306	2.28118	-22.2918	4.39652	0.265104	0.0186777	18.3888	2.6459	1	9	0.00487411	0.00213666	0	1.51131e-05	-0.000149158	5.45194e-06	-11.5554	0.00255162	0.0024999	0.000511129	-22.2799	2.28369	2.1132	0.865818	0.405607	0.166284	0.438369	22.2918	2645.9	6454	6975.31	-67.7082	0.0000000E+000	0.0000000E+000	0.0000000E+000	67.7082	0.0000000E+000	0.0000000E+000	0.0000000E+000	-67.7082	0.0000000E+000	0.0000000E+000	0.0000000E+000	-22.2918	0.0000000E+000	0.0000000E+000	0.0000000E+000	22.2918	2.43925	67.7082	5.85626e-06	4.95153e-06	-2.78593e-09	4.95432e-06	0.265254	14193.7	7.98591	14201.6
3163.08	2.76691	1.22234	3.02488	-23.8344	5.47367	0.264814	-0.0505019	41.1641	6.7218	1	9	0.00493674	0.00163205	0	7.64627e-06	-9.18759e-05	4.6859e-06	-4.18279	0.00287118	0.00286353	0.00020942	-23.8161	3.02758	2.76977	1.22255	0.302398	0.13359	0.330592	23.8344	6721.8	15215.6	16634.2	-66.1656	0.0000000E+000	0.0000000E+000	0.0000000E+000	66.1656	0.0000000E+000	0.0000000E+000	0.0000000E+000	-66.1656	0.0000000E+000	0.0000000E+000	0.0000000E+000	-23.8344	0.0000000E+000	0.0000000E+000	0.0000000E+000	23.8344	2.26362	66.1656	-7.5298e-06	-1.33736e-05	4.63991e-09	-1.33782e-05	0.264906	5243.64	1.81926	5245.46
1000.32	3.63107	1.86749	4.08316	-27.2172	7.07179	0.265012	-0.0181342	85.1966	17.8216	1	10	0.00495505	0.00121353	0	2.10183e-05	-7.27818e-05	8.19038e-06	66.2309	0.0067492	0.00272027	-0.00617672	-27.1226	4.08276	3.63379	1.86132	0.217792	0.112012	0.244908	27.2172	17821.6	34651.6	38965.9	-62.7828	0.0000000E+000	0.0000000E+000	0.0000000E+000	62.7828	0.0000000E+000	0.0000000E+000	0.0000000E+000	-62.7828	0.0000000E+000	0.0000000E+000	0.0000000E+000	-27.2172	0.0000000E+000	0.0000000E+000	0.0000000E+000	27.2172	1.94436	62.7828	-2.18408e-06	-4.80578e-06	1.31984e-09	-4.8071e-06	0.265085	14614	4.01352	14618
316.316	5.04881	3.29742	6.03021	-33.1489	8.42204	0.265013	-0.0161169	152.59	45.6256	1	10	0.00486551	0.000806856	0	1.41336e-05	4.17825e-05	1.21297e-05	-61.9952	0.0150333	0.00705882	0.013273	-33.2177	6.04338	5.05586	3.31069	0.138843	0.0906796	0.165832	33.1489	45625.6	69859.1	83438.6	-56.8511	0.0000000E+000	0.0000000E+000	0.0000000E+000	56.8511	0.0000000E+000	0.0000000E+000	0.0000000E+000	-56.8511	0.0000000E+000	0.0000000E+000	0.0000000E+000	-33.1489	0.0000000E+000	0.0000000E+000	0.0000000E+000	33.1489	1.53114	56.8511	-2.41187e-06	-4.27118e-06	-6.73403e-10	-4.27051e-06	0.264972	16443.2	2.59248	16440.7
100.032	8.40321	5.4612	10.0219	-33.0196	9.76785	0.265019	-0.0149796	291.335	86.5103	1	10	0.00483755	0.000482698	0	7.09241e-06	3.59442e-06	7.27442e-06	-35.4025	0.0150703	0.0122839	0.0087305	-33.0232	10.037	8.4155	5.46993	0.0836651	0.0543734	0.0997814	33.0196	86510.3	133115	158756	-56.9804	0.0000000E+000	0.0000000E+000	0.0000000E+000	56.9804	0.0000000E+000	0.0000000E+000	0.0000000E+000	-56.9804	0.0000000E+000	0.0000000E+000	0.0000000E+000	-33.0196	0.0000000E+000	0.0000000E+000	0.0000000E+000	33.0196	1.53871	56.9804	-1.33117e-06	-3.96987e-06	-5.38428e-11	-3.96982e-06	0.265016	17692.1	0.239955	17691.8
31.6296	13.7215	5.89825	14.9355	-23.2607	11.0956	0.265003	-0.0213746	853.108	133.049	1	10	0.00483191	0.000323519	0	1.26361e-06	0.000137253	1.00275e-05	47.8312	0.0309951	0.0208075	-0.0229726	-23.1483	14.9455	13.7423	5.87528	0.0615125	0.0264415	0.0669547	23.2607	133049	309521	336906	-66.7393	0.0000000E+000	0.0000000E+000	0.0000000E+000	66.7393	0.0000000E+000	0.0000000E+000	0.0000000E+000	-66.7393	0.0000000E+000	0.0000000E+000	0.0000000E+000	-23.2607	0.0000000E+000	0.0000000E+000	0.0000000E+000	23.2607	2.32636	66.7393	-2.10237e-06	-5.66432e-06	-2.93372e-09	-5.66139e-06	0.264865	12398	6.42131	12391.6
10.0032	18.0069	4.60033	18.5852	-14.3312	12.6588	0.265047	-0.00794809	3458.53	211.902	1	11	0.00483391	0.000260095	0	-2.29401e-06	-0.000130064	1.37237e-05	-2.3705	0.0527643	0.0527191	0.00218239	-14.2976	18.6368	18.0596	4.60252	0.0521318	0.0133185	0.0538062	14.3312	211902	829438	856078	-75.6688	0.0000000E+000	0.0000000E+000	0.0000000E+000	75.6688	0.0000000E+000	0.0000000E+000	0.0000000E+000	-75.6688	0.0000000E+000	0.0000000E+000	0.0000000E+000	-14.3312	0.0000000E+000	0.0000000E+000	0.0000000E+000	14.3312	3.91425	75.6688	-2.5031e-06	-2.10662e-06	1.03376e-09	-2.10765e-06	0.265177	33347.3	16.3642	33363.6
3.1604	20.7626	3.17477	21.004	-8.69364	14.1754	0.265045	-0.00728545	15862.3	362.401	1	11	0.0048343	0.000230161	0	-7.50814e-06	-5.36878e-05	3.74043e-06	-133.656	0.0162514	-0.0112187	0.0117578	-8.72999	20.9947	20.7514	3.18653	0.0470631	0.00719632	0.0476101	8.69364	362400	2.37006e+06	2.3976e+06	-81.3064	0.0000000E+000	0.0000000E+000	0.0000000E+000	81.3064	0.0000000E+000	0.0000000E+000	0.0000000E+000	-81.3064	0.0000000E+000	0.0000000E+000	0.0000000E+000	-8.69364	0.0000000E+000	0.0000000E+000	0.0000000E+000	8.69364	6.53988	81.3064	-4.30898e-06	-1.93097e-06	3.91139e-10	-1.93136e-06	0.265099	36380.1	7.36918	36387.5
1.00006	22.3889	2.20215	22.4969	-5.61749	19.8137	0.265051	-0.00633029	72268	692.458	1	12	0.00483397	0.000214873	0	-6.26231e-06	9.90647e-05	2.71103e-06	29.8706	0.0126169	0.0109408	-0.00628375	-5.59885	22.5072	22.3998	2.19586	0.0442371	0.00435112	0.0444506	5.61749	692459	7.04011e+06	7.07408e+06	-84.3825	0.0000000E+000	0.0000000E+000	0.0000000E+000	84.3825	0.0000000E+000	0.0000000E+000	0.0000000E+000	-84.3825	0.0000000E+000	0.0000000E+000	0.0000000E+000	-5.61749	0.0000000E+000	0.0000000E+000	0.0000000E+000	5.61749	10.1668	84.3825	1.44957e-06	-1.67785e-06	-6.27108e-10	-1.67722e-06	0.264952	41870.3	15.6493	41854.7
0.316193	23.3849	2.1048	23.4794	-5.14317	34.1567	0.265052	-0.0032551	239142	1921.79	1	12	0.00483338	0.000205856	0	-4.29364e-05	-3.45937e-05	4.65469e-06	9.55804	0.0226114	0.0222975	-0.00375455	-5.12918	23.5013	23.4072	2.10105	0.0424191	0.00381802	0.0425905	5.14317	1.92179e+06	2.13515e+07	2.14378e+07	-84.8568	0.0000000E+000	0.0000000E+000	0.0000000E+000	84.8568	0.0000000E+000	0.0000000E+000	0.0000000E+000	-84.8568	0.0000000E+000	0.0000000E+000	0.0000000E+000	-5.14317	0.0000000E+000	0.0000000E+000	0.0000000E+000	5.14317	11.1102	84.8568	-2.37093e-05	-8.62769e-07	1.12606e-10	-8.62881e-07	0.265086	81426.6	10.6276	81437.2
0.0999041	24.5943	3.51332	24.844	-8.12976	79.3645	0.265048	-0.0040882	453440	9068.02	1	12	0.00483543	0.000194632	0	-0.00013035	3.59442e-06	2.82031e-06	13.1277	0.0144905	0.0141118	-0.0032911	-8.11765	24.8575	24.6084	3.51003	0.0398467	0.00569214	0.0402512	8.12976	9.06802e+06	6.34789e+07	6.41233e+07	-81.8702	0.0000000E+000	0.0000000E+000	0.0000000E+000	81.8702	0.0000000E+000	0.0000000E+000	0.0000000E+000	-81.8702	0.0000000E+000	0.0000000E+000	0.0000000E+000	-8.12976	0.0000000E+000	0.0000000E+000	0.0000000E+000	8.12976	7.0003	81.8702	-1.72356e-05	-1.08357e-06	-1.46947e-11	-1.08355e-06	0.265044	64832.4	0.879219	64831.5
0.0315922	26.736	7.09803	27.6622	-14.8682	222.247	0.265049	-0.000600513	709746	46730.9	1	12	0.00483498	0.000174787	0	9.08582e-05	-9.18759e-05	1.78935e-06	-36.7906	0.0102373	0.00819835	0.00613106	-14.8761	27.6717	26.7442	7.10416	0.0349401	0.00927608	0.0361504	14.8682	4.67309e+07	1.76021e+08	1.82118e+08	-75.1318	0.0000000E+000	0.0000000E+000	0.0000000E+000	75.1318	0.0000000E+000	0.0000000E+000	0.0000000E+000	-75.1318	0.0000000E+000	0.0000000E+000	0.0000000E+000	-14.8682	0.0000000E+000	0.0000000E+000	0.0000000E+000	14.8682	3.76669	75.1318	0.000122241	-1.59165e-07	5.51727e-11	-1.59221e-07	0.265141	441371	152.996	441524
0.0100092	30.9444	16.1314	34.8966	-27.5331	673.468	0.265049	0.000170107	985715	210633	1	12	0.00483494	0.00013855	0	-0.000288199	-0.000263722	2.54084e-06	-2.92913	0.0183387	0.0183147	0.000937122	-27.5206	34.9133	30.9627	16.1323	0.0254106	0.0132466	0.0286561	27.5331	2.10633e+08	4.04052e+08	4.55658e+08	-62.4669	0.0000000E+000	0.0000000E+000	0.0000000E+000	62.4669	0.0000000E+000	0.0000000E+000	0.0000000E+000	-62.4669	0.0000000E+000	0.0000000E+000	0.0000000E+000	-27.5331	0.0000000E+000	0.0000000E+000	0.0000000E+000	27.5331	1.91827	62.4669	-0.000359124	4.50868e-08	-4.48611e-11	4.51317e-08	0.265313	1.55813e+06	1550.33	1.55968e+06