File: txt/19138_R306_UA703_SOC00_C02.mpt
EC-Lab ASCII FILE
Nb header lines : 65

Potentio Electrochemical Impedance Spectroscopy

Run on channel : 2 (SN 66139)
Grouped channel(s) : 1, 2, 3, 4, 5
User :
CE vs. WE compliance from -10 V to 10 V
Electrode connection : standard
Potential control : Ewe
Ewe ctrl range : min = -10.00 V, max = 10.00 V
Safety Limits :
	Do not start on E overload
Acquisition started on : 11/12/2025 11:20:24.450
Loaded Setting File :  C:\Users\Celltest\OneDrive - store-dot.com\Documents\EC-Lab\Data\@Biologic Test Protocols\anode half cell EIS SOC00.mps
Saved on :
	File : 19137_R306_UA703_SOC00_C02.mpr
	Directory : C:\Users\Celltest\OneDrive - store-dot.com\Documents\EC-Lab\Data\Charmaine\
	Host : 169.254.61.224
Device : VMP-3e (SN .003165)
Address : USB
EC-LAB for windows v11.62 (software)
Internet server v27.00 (firmware)
Command interpretor v12.03 (firmware)
Electrode material :
Initial state :
Electrolyte :
Comments :
Electrode surface area : 0.001 cm²
Characteristic mass : 0.001 g
Equivalent Weight : 0.000 g/eq.
Density : 0.000 g/cm3
Volume (V) : 0.001 cm³
Record Ece
Cycle Definition : Charge/Discharge alternance
Mode                Single sine
E (V)               0.0000
vs.                 Eoc
tE (h:m:s)          0:00:0.0000
record              0
dI                  0.000
unit dI             mA
dt (s)              0.000
fi                  100.000
unit fi             kHz
ff                  10.000
unit ff             mHz
Nd                  6
Points              per decade
spacing             Logarithmic
Va (mV)             5.0
pw                  0.10
Na                  2
corr                0
E range min (V)     -10.000
E range max (V)     10.000
I Range             Auto
Bandwidth           5
nc cycles           0
goto Ns'            0
nr cycles           0
inc. cycle          0

freq/Hz	Re(Z)/Ohm	-Im(Z)/Ohm	|Z|/Ohm	Phase(Z)/deg	time/s	<Ewe>/V	<I>/mA	Cs/µF	Cp/µF	cycle number	I Range	|Ewe|/V	|I|/A	Ns	(Q-Qo)/mA.h	<Ece>/V	|Ece|/V	Phase(Zce)/deg	|Zce|/Ohm	Re(Zce)/Ohm	-Im(Zce)/Ohm	Phase(Zwe-ce)/deg	|Zwe-ce|/Ohm	Re(Zwe-ce)/Ohm	-Im(Zwe-ce)/Ohm	Re(Y)/Ohm-1	Im(Y)/Ohm-1	|Y|/Ohm-1	Phase(Y)/deg	Re(C)/nF	Im(C)/nF	|C|/nF	Phase(C)/deg	Re(M)	Im(M)	|M|	Phase(M)/deg	Re(Permittivity)	Im(Permittivity)	|Permittivity|	Phase(Permittivity)/deg	Re(Resistivity)/Ohm.cm	Im(Resistivity)/Ohm.cm	|Resistivity|/Ohm.cm	Phase(Resistivity)/deg	Re(Conductivity)/mS/cm	Im(Conductivity)/mS/cm	|Conductivity|/mS/cm	Phase(Conductivity)/deg	Tan(Delta)	Loss Angle(Delta)/deg	dq/mA.h	Pwe/W	Pce/W	Pwe-ce/W	<Ewe-Ece>/V	Rwe/Ohm	Rce/Ohm	Rwe-ce/Ohm		Ewe-Ece/V
100004	1.10476	0.480021	1.20454	-23.485	1.72656	0.269558	-0.0203712	3.31546	0.526528	1	9	0.00476265	0.00395392	0	-1.1092e-05	-6.01755e-05	2.11114e-05	90.523	0.00533935	-4.87408e-05	-0.00533913	-23.2526	1.20238	1.10471	0.474681	0.761423	0.33084	0.830193	23.485	526.528	1211.8	1321.24	-66.515	0.0000000E+000	0.0000000E+000	0.0000000E+000	66.515	0.0000000E+000	0.0000000E+000	0.0000000E+000	-66.515	0.0000000E+000	0.0000000E+000	0.0000000E+000	-23.485	0.0000000E+000	0.0000000E+000	0.0000000E+000	23.485	2.30149	66.515	-1.1092e-05	-5.49123e-06	1.22585e-09	-5.49246e-06	0.269619	13232.3	2.95395	13235.3
31621.1	1.54409	0.657202	1.67814	-23.0557	3.24754	0.269567	-0.0142629	7.6585	1.17459	1	9	0.00514335	0.00306492	0	-9.16962e-06	0.00028346	1.2638e-05	45.4495	0.00412342	0.00289274	-0.00293848	-22.9248	1.67965	1.54699	0.654264	0.548301	0.23337	0.595899	23.0557	1174.59	2759.7	2999.27	-66.9443	0.0000000E+000	0.0000000E+000	0.0000000E+000	66.9443	0.0000000E+000	0.0000000E+000	0.0000000E+000	-66.9443	0.0000000E+000	0.0000000E+000	0.0000000E+000	-23.0557	0.0000000E+000	0.0000000E+000	0.0000000E+000	23.0557	2.3495	66.9443	-8.60207e-06	-3.8448e-06	-4.04295e-09	-3.84076e-06	0.269283	18899.9	19.8739	18880
10002.2	2.05503	0.842799	2.22114	-22.2993	4.39652	0.269536	-0.0283791	18.8799	2.71829	1	9	0.00483304	0.00217593	0	-1.18123e-05	0.000188005	7.80471e-06	-72.224	0.00358684	0.00109505	0.0034156	-22.37	2.22345	2.05613	0.846214	0.41655	0.170833	0.450219	22.2993	2718.29	6628.12	7163.87	-67.7007	0.0000000E+000	0.0000000E+000	0.0000000E+000	67.7007	0.0000000E+000	0.0000000E+000	0.0000000E+000	-67.7007	0.0000000E+000	0.0000000E+000	0.0000000E+000	-22.2993	0.0000000E+000	0.0000000E+000	0.0000000E+000	22.2993	2.43834	67.7007	-1.33937e-06	-7.6492e-06	-5.33543e-09	-7.64386e-06	0.269348	9497.7	6.62478	9491.07
3163.08	2.69303	1.19561	2.9465	-23.9395	5.41862	0.269303	-0.084248	42.0844	6.92923	1	9	0.00488404	0.00165757	0	-2.31697e-05	-2.90295e-06	6.67844e-06	29.9238	0.00402905	0.00349194	-0.00200988	-23.8763	2.94888	2.69652	1.1936	0.310189	0.137713	0.339385	23.9395	6929.23	15607.6	17076.7	-66.0605	0.0000000E+000	0.0000000E+000	0.0000000E+000	66.0605	0.0000000E+000	0.0000000E+000	0.0000000E+000	-66.0605	0.0000000E+000	0.0000000E+000	0.0000000E+000	-23.9395	0.0000000E+000	0.0000000E+000	0.0000000E+000	23.9395	2.25243	66.0605	-7.52415e-06	-2.26882e-05	2.44567e-10	-2.26885e-05	0.269306	3196.55	0.0344572	3196.59
1000.32	3.51159	1.84358	3.96611	-27.6994	7.01885	0.269485	-0.0320068	86.3018	18.6472	1	10	0.00489697	0.0012347	0	-2.20481e-05	0.000130733	8.06362e-06	-73.7565	0.00653081	0.0018268	0.00627011	-27.7673	3.97064	3.51341	1.84985	0.223241	0.117201	0.252136	27.6994	18647.2	35518.6	40115.9	-62.3006	0.0000000E+000	0.0000000E+000	0.0000000E+000	62.3006	0.0000000E+000	0.0000000E+000	0.0000000E+000	-62.3006	0.0000000E+000	0.0000000E+000	0.0000000E+000	-27.6994	0.0000000E+000	0.0000000E+000	0.0000000E+000	27.6994	1.90477	62.3006	-4.65516e-06	-8.62534e-06	-4.18435e-09	-8.62116e-06	0.269354	8419.6	4.08453	8415.51
316.316	4.92152	3.32142	5.93744	-34.0145	8.36905	0.269492	-0.0330871	151.487	47.405	1	10	0.00481568	0.00081107	0	-3.43571e-05	0.000264369	3.87675e-06	-61.6454	0.0047798	0.00227006	0.00420635	-34.0359	5.94168	4.92379	3.32563	0.139605	0.0942162	0.168423	34.0145	47405.1	70242.4	84742.2	-55.9855	0.0000000E+000	0.0000000E+000	0.0000000E+000	55.9855	0.0000000E+000	0.0000000E+000	0.0000000E+000	-55.9855	0.0000000E+000	0.0000000E+000	0.0000000E+000	-34.0145	0.0000000E+000	0.0000000E+000	0.0000000E+000	34.0145	1.48175	55.9855	-4.36478e-06	-8.91671e-06	-8.74721e-09	-8.90796e-06	0.269227	8144.9	7.99008	8136.91
100.032	8.38273	5.56279	10.0606	-33.5683	9.71679	0.269475	-0.032886	286.015	87.444	1	10	0.00480094	0.000477205	0	-4.6795e-05	-4.10846e-05	6.40635e-06	-14.6573	0.0134247	0.0129878	0.00339696	-33.5436	10.0733	8.39571	5.56618	0.0828212	0.0549603	0.0993981	33.5683	87444	131772	158146	-56.4317	0.0000000E+000	0.0000000E+000	0.0000000E+000	56.4317	0.0000000E+000	0.0000000E+000	0.0000000E+000	-56.4317	0.0000000E+000	0.0000000E+000	0.0000000E+000	-33.5683	0.0000000E+000	0.0000000E+000	0.0000000E+000	33.5683	1.50693	56.4317	-3.69711e-06	-8.86197e-06	1.35111e-09	-8.86332e-06	0.269516	8194.23	1.24931	8195.48
31.6296	13.7663	5.94611	14.9956	-23.3611	11.0466	0.269464	-0.0364846	846.242	133.056	1	10	0.0047946	0.000319734	0	-5.88472e-05	-2.90295e-06	1.12965e-05	-57.8175	0.035331	0.0188179	0.0299026	-23.4373	15.0247	13.7851	5.97601	0.0612197	0.0264428	0.0666864	23.3611	133056	308048	335555	-66.6389	0.0000000E+000	0.0000000E+000	0.0000000E+000	66.6389	0.0000000E+000	0.0000000E+000	0.0000000E+000	-66.6389	0.0000000E+000	0.0000000E+000	0.0000000E+000	-23.3611	0.0000000E+000	0.0000000E+000	0.0000000E+000	23.3611	2.31518	66.6389	-4.64596e-06	-9.83127e-06	1.05913e-10	-9.83138e-06	0.269467	7385.7	0.0795665	7385.78
10.0032	18.0195	4.59767	18.5968	-14.3136	12.6109	0.26952	-0.0153946	3460.53	211.516	1	11	0.00478346	0.000257219	0	-6.58803e-05	5.43696e-05	1.14766e-05	-14.7842	0.044618	0.0431408	0.0113856	-14.3147	18.6414	18.0626	4.60906	0.0521034	0.0132942	0.0537727	14.3136	211516	828986	855545	-75.6864	0.0000000E+000	0.0000000E+000	0.0000000E+000	75.6864	0.0000000E+000	0.0000000E+000	0.0000000E+000	-75.6864	0.0000000E+000	0.0000000E+000	0.0000000E+000	-14.3136	0.0000000E+000	0.0000000E+000	0.0000000E+000	14.3136	3.91927	75.6864	1.86843e-07	-4.14916e-06	-8.37001e-10	-4.14832e-06	0.269465	17507.4	3.53172	17503.8
3.1604	20.7762	3.22681	21.0253	-8.82824	14.1274	0.269527	-0.0138475	15606.5	367.594	1	11	0.0047802	0.000227355	0	-7.17668e-05	0.000302551	4.0211e-06	89.4357	0.0176864	0.000174185	-0.0176856	-8.78054	21.0227	20.7764	3.20913	0.0469983	0.00729945	0.0475618	8.82824	367594	2.3668e+06	2.39517e+06	-81.1718	0.0000000E+000	0.0000000E+000	0.0000000E+000	81.1718	0.0000000E+000	0.0000000E+000	0.0000000E+000	-81.1718	0.0000000E+000	0.0000000E+000	0.0000000E+000	-8.82824	0.0000000E+000	0.0000000E+000	0.0000000E+000	8.82824	6.43861	81.1718	7.04486e-08	-3.73228e-06	-4.18957e-09	-3.72809e-06	0.269225	19464	21.8488	19442.1
1.00006	22.4803	2.24217	22.5918	-5.6958	19.7676	0.269537	-0.0103628	70978.1	699.13	1	12	0.00478949	0.000212001	0	-9.2237e-05	0.000188005	1.79192e-06	-11.3276	0.0084524	0.00828775	0.00166021	-5.69791	22.6002	22.4886	2.24383	0.0440453	0.00439305	0.0442638	5.6958	699130	7.00958e+06	7.04436e+06	-84.3042	0.0000000E+000	0.0000000E+000	0.0000000E+000	84.3042	0.0000000E+000	0.0000000E+000	0.0000000E+000	-84.3042	0.0000000E+000	0.0000000E+000	0.0000000E+000	-5.6958	0.0000000E+000	0.0000000E+000	0.0000000E+000	5.6958	10.0261	84.3042	-1.533e-05	-2.79317e-06	-1.94827e-09	-2.79123e-06	0.269349	26010	18.1423	25991.8
0.316193	23.5831	2.24173	23.6894	-5.43003	34.1121	0.269534	-0.00936991	224535	2010.68	1	12	0.00478877	0.000202148	0	-0.000141831	0.000111642	2.21961e-06	-48.4304	0.0109801	0.00728563	0.00821479	-5.44813	23.6974	23.5904	2.24995	0.0420235	0.00399461	0.0422129	5.43003	2.01068e+06	2.11524e+07	2.12478e+07	-84.57	0.0000000E+000	0.0000000E+000	0.0000000E+000	84.57	0.0000000E+000	0.0000000E+000	0.0000000E+000	-84.57	0.0000000E+000	0.0000000E+000	0.0000000E+000	-5.43003	0.0000000E+000	0.0000000E+000	0.0000000E+000	5.43003	10.52	84.57	-1.34249e-05	-2.52551e-06	-1.04608e-09	-2.52446e-06	0.269422	28765.9	11.915	28754
0.0999041	24.8573	3.61724	25.1191	-8.27957	79.3213	0.269535	-0.00400118	440412	9132.81	1	12	0.00478966	0.000190678	0	-0.000120695	0.000302551	1.33182e-06	-31.0996	0.00698465	0.00598075	0.00360777	-8.28575	25.1256	24.8633	3.62085	0.0393953	0.00573281	0.0398103	8.27957	9.13282e+06	6.27598e+07	6.34208e+07	-81.7204	0.0000000E+000	0.0000000E+000	0.0000000E+000	81.7204	0.0000000E+000	0.0000000E+000	0.0000000E+000	-81.7204	0.0000000E+000	0.0000000E+000	0.0000000E+000	-8.27957	0.0000000E+000	0.0000000E+000	0.0000000E+000	8.27957	6.8719	81.7204	1.34885e-05	-1.07846e-06	-1.21056e-09	-1.07725e-06	0.269233	67364	75.6154	67288.4
0.0315922	27.227	7.42605	28.2216	-15.2561	222.205	0.269524	-0.000355583	678394	46971.7	1	12	0.00478999	0.000169728	0	-0.00033314	0.000168915	9.62249e-07	-6.68511	0.00566936	0.00563082	0.000659985	-15.2544	28.2272	27.2327	7.42671	0.0341852	0.00932386	0.0354339	15.2561	4.69717e+07	1.72218e+08	1.78509e+08	-74.7439	0.0000000E+000	0.0000000E+000	0.0000000E+000	74.7439	0.0000000E+000	0.0000000E+000	0.0000000E+000	-74.7439	0.0000000E+000	0.0000000E+000	0.0000000E+000	-15.2561	0.0000000E+000	0.0000000E+000	0.0000000E+000	15.2561	3.66642	74.7439	-0.000149898	-9.58381e-08	-6.00632e-11	-9.5778e-08	0.269355	757976	475.035	757501
0.0100092	31.9919	16.5652	36.0262	-27.3749	673.428	0.269529	-0.00106718	959896	202947	1	12	0.00478855	0.000132918	0	-0.000760295	-7.92663e-05	1.43128e-06	2.17664	0.0107681	0.0107603	-0.000408977	-27.3665	36.0356	32.0026	16.5648	0.0246492	0.0127632	0.0277576	27.3749	2.02947e+08	3.91945e+08	4.41371e+08	-62.6251	0.0000000E+000	0.0000000E+000	0.0000000E+000	62.6251	0.0000000E+000	0.0000000E+000	0.0000000E+000	-62.6251	0.0000000E+000	0.0000000E+000	0.0000000E+000	-27.3749	0.0000000E+000	0.0000000E+000	0.0000000E+000	27.3749	1.93127	62.6251	1.60006e-06	-2.87635e-07	8.45911e-11	-2.8772e-07	0.269609	252563	74.2767	252637