File: txt/19137_R306_UA703_SOC00_C01.mpt
EC-Lab ASCII FILE
Nb header lines : 66

Potentio Electrochemical Impedance Spectroscopy

Run on channel : 1 (SN 66354)
Grouped channel(s) : 1, 2, 3, 4, 5
User :
CE vs. WE compliance from -10 V to 10 V
Electrode connection : standard
Potential control : Ewe
Ewe ctrl range : min = -10.00 V, max = 10.00 V
Safety Limits :
	Do not start on E overload
Acquisition started on : 11/12/2025 11:20:24.450
Loaded Setting File :  C:\Users\Celltest\OneDrive - store-dot.com\Documents\EC-Lab\Data\@Biologic Test Protocols\anode half cell EIS SOC00.mps
Saved on :
	File : 19137_R306_UA703_SOC00_C01.mpr
	Directory : C:\Users\Celltest\OneDrive - store-dot.com\Documents\EC-Lab\Data\Charmaine\
	Host : 169.254.61.224
Device : VMP-3e (SN .003165)
Address : USB
EC-LAB for windows v11.62 (software)
Internet server v27.00 (firmware)
Command interpretor v12.03 (firmware)
Electrode material :
Initial state :
Electrolyte :
Comments :
Electrode surface area : 0.001 cm²
Characteristic mass : 0.001 g
Equivalent Weight : 0.000 g/eq.
Density : 0.000 g/cm3
Volume (V) : 0.001 cm³
Record Ece
Cycle Definition : Charge/Discharge alternance
Mode                Single sine
E (V)               0.0000
vs.                 Eoc
tE (h:m:s)          0:00:0.0000
record              0
dI                  0.000
unit dI             mA
dt (s)              0.000
fi                  100.000
unit fi             kHz
ff                  10.000
unit ff             mHz
Nd                  6
Points              per decade
spacing             Logarithmic
Va (mV)             5.0
pw                  0.10
Na                  2
corr                0
E range min (V)     -10.000
E range max (V)     10.000
I Range             Auto
Bandwidth           5
nc cycles           0
goto Ns'            0
nr cycles           0
inc. cycle          0

freq/Hz	Re(Z)/Ohm	-Im(Z)/Ohm	|Z|/Ohm	Phase(Z)/deg	time/s	<Ewe>/V	<I>/mA	Cs/µF	Cp/µF	cycle number	I Range	|Ewe|/V	|I|/A	Ns	(Q-Qo)/mA.h	<Ece>/V	|Ece|/V	Phase(Zce)/deg	|Zce|/Ohm	Re(Zce)/Ohm	-Im(Zce)/Ohm	Phase(Zwe-ce)/deg	|Zwe-ce|/Ohm	Re(Zwe-ce)/Ohm	-Im(Zwe-ce)/Ohm	Re(Y)/Ohm-1	Im(Y)/Ohm-1	|Y|/Ohm-1	Phase(Y)/deg	Re(C)/nF	Im(C)/nF	|C|/nF	Phase(C)/deg	Re(M)	Im(M)	|M|	Phase(M)/deg	Re(Permittivity)	Im(Permittivity)	|Permittivity|	Phase(Permittivity)/deg	Re(Resistivity)/Ohm.cm	Im(Resistivity)/Ohm.cm	|Resistivity|/Ohm.cm	Phase(Resistivity)/deg	Re(Conductivity)/mS/cm	Im(Conductivity)/mS/cm	|Conductivity|/mS/cm	Phase(Conductivity)/deg	Tan(Delta)	Loss Angle(Delta)/deg	dq/mA.h	Pwe/W	Pce/W	Pwe-ce/W	<Ewe-Ece>/V	Rwe/Ohm	Rce/Ohm	Rwe-ce/Ohm		Ewe-Ece/V
100004	1.30737	0.551154	1.4188	-22.859	1.91056	0.268015	0.0692885	2.88756	0.435746	1	9	0.00455995	0.00321394	0	8.04822e-06	0.000152383	4.32582e-05	97.2772	0.0134595	-0.00170491	-0.0133511	-22.3866	1.41209	1.30567	0.537802	0.649466	0.273797	0.70482	22.859	435.746	1033.62	1121.71	-67.141	0.0000000E+000	0.0000000E+000	0.0000000E+000	67.141	0.0000000E+000	0.0000000E+000	0.0000000E+000	-67.141	0.0000000E+000	0.0000000E+000	0.0000000E+000	-22.859	0.0000000E+000	0.0000000E+000	0.0000000E+000	22.859	2.37207	67.141	8.04822e-06	1.85704e-05	1.05584e-08	1.85598e-05	0.267863	3868.1	2.19925	3865.9
31621.1	1.80563	0.754116	1.95678	-22.6678	3.43156	0.268038	0.0764413	6.67428	0.991283	1	9	0.00513113	0.00262224	0	3.81207e-05	-3.83903e-05	1.4454e-05	35.2238	0.00551208	0.00450284	-0.00317921	-22.5312	1.95971	1.81013	0.750937	0.471569	0.19695	0.511044	22.6678	991.283	2373.49	2572.18	-67.3322	0.0000000E+000	0.0000000E+000	0.0000000E+000	67.3322	0.0000000E+000	0.0000000E+000	0.0000000E+000	-67.3322	0.0000000E+000	0.0000000E+000	0.0000000E+000	-22.6678	0.0000000E+000	0.0000000E+000	0.0000000E+000	22.6678	2.39436	67.3322	8.27518e-06	2.04892e-05	-2.93461e-09	2.04921e-05	0.268076	3506.45	0.502219	3506.96
10002.2	2.40174	0.954433	2.58444	-21.6725	4.58254	0.268037	0.0705551	16.6716	2.27372	1	9	0.00502375	0.00194385	0	5.59608e-05	0.000114228	6.81086e-06	-84.9694	0.00350381	0.000307244	0.00349031	-21.7418	2.58601	2.40205	0.957923	0.359579	0.142894	0.386931	21.6725	2273.72	5721.61	6156.83	-68.3275	0.0000000E+000	0.0000000E+000	0.0000000E+000	68.3275	0.0000000E+000	0.0000000E+000	0.0000000E+000	-68.3275	0.0000000E+000	0.0000000E+000	0.0000000E+000	-21.6725	0.0000000E+000	0.0000000E+000	0.0000000E+000	21.6725	2.51641	68.3275	6.20175e-06	1.89114e-05	8.05938e-09	1.89033e-05	0.267923	3798.98	1.61899	3797.36
3163.08	3.11649	1.33128	3.38893	-23.1309	5.47969	0.267807	0.0448496	37.7954	5.83251	1	9	0.00462664	0.00136522	0	6.90438e-05	0.000247769	4.80679e-06	-74.4821	0.00352089	0.000941973	0.00339254	-23.1774	3.39113	3.11743	1.33468	0.271357	0.115917	0.295078	23.1309	5832.51	13653.7	14847.3	-66.8691	0.0000000E+000	0.0000000E+000	0.0000000E+000	66.8691	0.0000000E+000	0.0000000E+000	0.0000000E+000	-66.8691	0.0000000E+000	0.0000000E+000	0.0000000E+000	-23.1309	0.0000000E+000	0.0000000E+000	0.0000000E+000	23.1309	2.34097	66.8691	4.72439e-06	1.2011e-05	1.11124e-08	1.19999e-05	0.267559	5971.22	5.52445	5965.69
1000.32	4.07765	2.02096	4.55099	-26.3639	7.0778	0.267939	-0.0103911	78.7268	15.5249	1	10	0.00465389	0.00102261	0	7.65594e-05	0.000305001	5.26362e-06	-56.8196	0.00514724	0.00281696	0.00430799	-26.3967	4.55543	4.08047	2.02527	0.196878	0.0975768	0.219732	26.3639	15524.9	31324.1	34960.3	-63.6361	0.0000000E+000	0.0000000E+000	0.0000000E+000	63.6361	0.0000000E+000	0.0000000E+000	0.0000000E+000	-63.6361	0.0000000E+000	0.0000000E+000	0.0000000E+000	-26.3639	0.0000000E+000	0.0000000E+000	0.0000000E+000	26.3639	2.01768	63.6361	-8.13545e-07	-2.7842e-06	-3.16931e-09	-2.78103e-06	0.267634	25785.3	29.352	25756
316.316	5.55714	3.56102	6.60021	-32.6518	8.42709	0.267932	-0.0117142	141.294	41.13	1	10	0.00458236	0.000694276	0	7.32607e-05	0.000114228	6.95471e-06	57.616	0.0100172	0.00536512	-0.00845932	-32.5648	6.60017	5.56251	3.55256	0.127566	0.0817447	0.15151	32.6518	41130	64185.3	76232.8	-57.3482	0.0000000E+000	0.0000000E+000	0.0000000E+000	57.3482	0.0000000E+000	0.0000000E+000	0.0000000E+000	-57.3482	0.0000000E+000	0.0000000E+000	0.0000000E+000	-32.6518	0.0000000E+000	0.0000000E+000	0.0000000E+000	32.6518	1.56055	57.3482	-1.27221e-06	-3.13862e-06	-1.33809e-09	-3.13728e-06	0.267818	22872.4	9.75124	22862.7
100.032	9.1017	6.05075	10.9294	-33.6157	9.77277	0.267932	-0.01098	262.949	80.5926	1	10	0.00456012	0.000417233	0	6.84595e-05	0.000133305	8.46483e-06	-64.4073	0.020288	0.00876382	0.0182975	-33.67	10.9469	9.11046	6.06905	0.0761951	0.050654	0.091496	33.6157	80592.5	121230	145574	-56.3843	0.0000000E+000	0.0000000E+000	0.0000000E+000	56.3843	0.0000000E+000	0.0000000E+000	0.0000000E+000	-56.3843	0.0000000E+000	0.0000000E+000	0.0000000E+000	-33.6157	0.0000000E+000	0.0000000E+000	0.0000000E+000	33.6157	1.50423	56.3843	-7.76069e-07	-2.9419e-06	-1.4637e-09	-2.94043e-06	0.267798	24401.8	12.1407	24389.6
31.6296	15.1637	7.02965	16.7138	-24.8718	11.1016	0.267936	-0.0148523	715.803	126.622	1	10	0.00456221	0.00027296	0	6.51328e-05	0.000228692	7.24146e-06	16.6257	0.0265294	0.0254203	-0.00759053	-24.8116	16.7337	15.1891	7.02206	0.0542815	0.0251641	0.0598307	24.8718	126622	273136	301058	-65.1282	0.0000000E+000	0.0000000E+000	0.0000000E+000	65.1282	0.0000000E+000	0.0000000E+000	0.0000000E+000	-65.1282	0.0000000E+000	0.0000000E+000	0.0000000E+000	-24.8718	0.0000000E+000	0.0000000E+000	0.0000000E+000	24.8718	2.1571	65.1282	-1.28784e-06	-3.97947e-06	-3.3966e-09	-3.97608e-06	0.267708	18040.1	15.3977	18024.7
10.0032	20.5272	5.68139	21.2989	-15.4707	12.6648	0.267984	-0.00122297	2800.44	199.261	1	11	0.00455753	0.000213979	0	6.42258e-05	7.60735e-05	4.31554e-06	53.3143	0.020168	0.0120489	-0.0161732	-15.4202	21.3062	20.5392	5.66522	0.0452496	0.0125239	0.0469508	15.4707	199261	719939	747006	-74.5293	0.0000000E+000	0.0000000E+000	0.0000000E+000	74.5293	0.0000000E+000	0.0000000E+000	0.0000000E+000	-74.5293	0.0000000E+000	0.0000000E+000	0.0000000E+000	-15.4707	0.0000000E+000	0.0000000E+000	0.0000000E+000	15.4707	3.61305	74.5293	-1.48243e-06	-3.27737e-07	-9.30359e-11	-3.27644e-07	0.267908	219125	62.2038	219063
3.1604	24.0286	4.03909	24.3657	-9.54194	14.1815	0.268001	0.00026175	12468	342.613	1	11	0.00455692	0.000187022	0	6.25257e-05	0.000228692	9.43725e-06	-12.9532	0.0504606	0.0491766	0.011311	-9.54898	24.4161	24.0778	4.0504	0.0404735	0.00680339	0.0410413	9.54194	342613	2.03821e+06	2.06681e+06	-80.4581	0.0000000E+000	0.0000000E+000	0.0000000E+000	80.4581	0.0000000E+000	0.0000000E+000	0.0000000E+000	-80.4581	0.0000000E+000	0.0000000E+000	0.0000000E+000	-9.54194	0.0000000E+000	0.0000000E+000	0.0000000E+000	9.54194	5.94901	80.4581	-2.41072e-06	7.01494e-08	5.98602e-11	7.00896e-08	0.267773	1.02388e+06	873.702	1.02301e+06
1.00006	26.2769	2.82319	26.4281	-6.13234	19.82	0.268001	-0.00013214	56370.6	643.281	1	12	0.00456834	0.000172859	0	7.19882e-05	9.51508e-05	3.61212e-06	-23.9109	0.0208963	0.0191029	0.00846956	-6.14616	26.448	26.296	2.83166	0.037622	0.00404211	0.0378385	6.13234	643281	5.98735e+06	6.02181e+06	-83.8677	0.0000000E+000	0.0000000E+000	0.0000000E+000	83.8677	0.0000000E+000	0.0000000E+000	0.0000000E+000	-83.8677	0.0000000E+000	0.0000000E+000	0.0000000E+000	-6.13234	0.0000000E+000	0.0000000E+000	0.0000000E+000	6.13234	9.30752	83.8677	5.90788e-06	-3.54137e-08	-1.25732e-11	-3.54012e-08	0.267906	2.02816e+06	720.075	2.02744e+06
0.316193	27.6309	2.57124	27.7503	-5.31645	34.1628	0.267998	0.00101034	195760	1680.64	1	12	0.00456592	0.000164536	0	5.99925e-05	-0.000191009	2.46712e-06	-49.0628	0.0149944	0.00982481	0.0113272	-5.33785	27.7611	27.6407	2.58257	0.0358806	0.00333893	0.0360357	5.31645	1.68064e+06	1.80604e+07	1.81385e+07	-84.6836	0.0000000E+000	0.0000000E+000	0.0000000E+000	84.6836	0.0000000E+000	0.0000000E+000	0.0000000E+000	-84.6836	0.0000000E+000	0.0000000E+000	0.0000000E+000	-5.31645	0.0000000E+000	0.0000000E+000	0.0000000E+000	5.31645	10.7461	84.6836	-1.16846e-05	2.7077e-07	-1.92985e-10	2.70963e-07	0.268189	265254	189.053	265443
0.0999041	29.0761	3.87629	29.3333	-7.59364	79.3704	0.267998	-0.00126859	410980	7176.8	1	12	0.00456657	0.000155679	0	1.65592e-05	5.69962e-05	1.42038e-06	-23.3367	0.00912379	0.0083774	0.00361424	-7.59847	29.3421	29.0845	3.87991	0.0337919	0.00450499	0.0340909	7.59364	7.1768e+06	5.38332e+07	5.43095e+07	-82.4064	0.0000000E+000	0.0000000E+000	0.0000000E+000	82.4064	0.0000000E+000	0.0000000E+000	0.0000000E+000	-82.4064	0.0000000E+000	0.0000000E+000	0.0000000E+000	-7.59364	0.0000000E+000	0.0000000E+000	0.0000000E+000	7.59364	7.501	82.4064	-5.25774e-06	-3.3998e-07	-7.23051e-11	-3.39908e-07	0.267941	211256	44.9287	211211
0.0315922	31.4817	7.61042	32.3886	-13.59	222.253	0.267999	7.13689e-05	661960	36548.2	1	12	0.00456541	0.000140958	0	0.000227336	-7.65449e-05	2.57815e-06	-8.726	0.0182903	0.0180785	0.0027748	-13.5873	32.4068	31.4998	7.61319	0.0300107	0.0072548	0.0308751	13.59	3.65482e+07	1.51187e+08	1.55542e+08	-76.41	0.0000000E+000	0.0000000E+000	0.0000000E+000	76.41	0.0000000E+000	0.0000000E+000	0.0000000E+000	-76.41	0.0000000E+000	0.0000000E+000	0.0000000E+000	-13.59	0.0000000E+000	0.0000000E+000	0.0000000E+000	13.59	4.13666	76.41	0.00011421	1.91268e-08	-5.46292e-12	1.91323e-08	0.268076	3.75513e+06	1072.53	3.7562e+06
0.0146812	34.3104	13.1991	36.7616	-21.0416	463.293	0.267996	0.000812007	821326	105880	1	12	0.00456374	0.000124144	0	0.000277624	0.000114228	2.69718e-06	46.4748	0.0217262	0.0149622	-0.015753	-21.0103	36.7699	34.3253	13.1833	0.0253884	0.00976685	0.0272023	21.0416	1.0588e+08	2.7523e+08	2.94893e+08	-68.9584	0.0000000E+000	0.0000000E+000	0.0000000E+000	68.9584	0.0000000E+000	0.0000000E+000	0.0000000E+000	-68.9584	0.0000000E+000	0.0000000E+000	0.0000000E+000	-21.0416	0.0000000E+000	0.0000000E+000	0.0000000E+000	21.0416	2.59945	68.9584	-3.8675e-05	2.17615e-07	9.27541e-11	2.17522e-07	0.267882	330041	140.674	329900

0.0100092	36.0848	17.0953	39.9295	-25.3494	673.475	0.267992	0.000472533	930134	170495	1	12	0.0045661	0.000114354	0	2.2495e-05	0.000190537	3.07892e-06	14.0834	0.0269245	0.0261152	-0.00655163	-25.3249	39.9503	36.1109	17.0887	0.0226327	0.0107223	0.0250442	25.3494	1.70495e+08	3.59881e+08	3.98225e+08	-64.6506	0.0000000E+000	0.0000000E+000	0.0000000E+000	64.6506	0.0000000E+000	0.0000000E+000	0.0000000E+000	-64.6506	0.0000000E+000	0.0000000E+000	0.0000000E+000	-25.3494	0.0000000E+000	0.0000000E+000	0.0000000E+000	25.3494	2.1108	64.6506	-0.000255129	1.26635e-07	9.00352e-11	1.26545e-07	0.267801	567139	403.226	566736