File: txt/19146_R306_UA710_SOC00_C02.mpt
EC-Lab ASCII FILE
Nb header lines : 65

Potentio Electrochemical Impedance Spectroscopy

Run on channel : 2 (SN 66139)
Grouped channel(s) : 1, 2
User :
CE vs. WE compliance from -10 V to 10 V
Electrode connection : standard
Potential control : Ewe
Ewe ctrl range : min = -10.00 V, max = 10.00 V
Safety Limits :
	Do not start on E overload
Acquisition started on : 11/12/2025 11:39:57.970
Loaded Setting File :  C:\Users\Celltest\OneDrive - store-dot.com\Documents\EC-Lab\Data\@Biologic Test Protocols\anode half cell EIS SOC00.mps
Saved on :
	File : 19145_R306_UA710_SOC00_C02.mpr
	Directory : C:\Users\Celltest\OneDrive - store-dot.com\Documents\EC-Lab\Data\Charmaine\
	Host : 169.254.61.224
Device : VMP-3e (SN .003165)
Address : USB
EC-LAB for windows v11.62 (software)
Internet server v27.00 (firmware)
Command interpretor v12.03 (firmware)
Electrode material :
Initial state :
Electrolyte :
Comments :
Electrode surface area : 0.001 cm²
Characteristic mass : 0.001 g
Equivalent Weight : 0.000 g/eq.
Density : 0.000 g/cm3
Volume (V) : 0.001 cm³
Record Ece
Cycle Definition : Charge/Discharge alternance
Mode                Single sine
E (V)               0.0000
vs.                 Eoc
tE (h:m:s)          0:00:0.0000
record              0
dI                  0.000
unit dI             mA
dt (s)              0.000
fi                  100.000
unit fi             kHz
ff                  10.000
unit ff             mHz
Nd                  6
Points              per decade
spacing             Logarithmic
Va (mV)             5.0
pw                  0.10
Na                  2
corr                0
E range min (V)     -10.000
E range max (V)     10.000
I Range             Auto
Bandwidth           5
nc cycles           0
goto Ns'            0
nr cycles           0
inc. cycle          0

freq/Hz	Re(Z)/Ohm	-Im(Z)/Ohm	|Z|/Ohm	Phase(Z)/deg	time/s	<Ewe>/V	<I>/mA	Cs/µF	Cp/µF	cycle number	I Range	|Ewe|/V	|I|/A	Ns	(Q-Qo)/mA.h	<Ece>/V	|Ece|/V	Phase(Zce)/deg	|Zce|/Ohm	Re(Zce)/Ohm	-Im(Zce)/Ohm	Phase(Zwe-ce)/deg	|Zwe-ce|/Ohm	Re(Zwe-ce)/Ohm	-Im(Zwe-ce)/Ohm	Re(Y)/Ohm-1	Im(Y)/Ohm-1	|Y|/Ohm-1	Phase(Y)/deg	Re(C)/nF	Im(C)/nF	|C|/nF	Phase(C)/deg	Re(M)	Im(M)	|M|	Phase(M)/deg	Re(Permittivity)	Im(Permittivity)	|Permittivity|	Phase(Permittivity)/deg	Re(Resistivity)/Ohm.cm	Im(Resistivity)/Ohm.cm	|Resistivity|/Ohm.cm	Phase(Resistivity)/deg	Re(Conductivity)/mS/cm	Im(Conductivity)/mS/cm	|Conductivity|/mS/cm	Phase(Conductivity)/deg	Tan(Delta)	Loss Angle(Delta)/deg	dq/mA.h	Pwe/W	Pce/W	Pwe-ce/W	<Ewe-Ece>/V	Rwe/Ohm	Rce/Ohm	Rwe-ce/Ohm		Ewe-Ece/V
100004	1.74145	1.13073	2.07634	-32.9957	1.72553	0.185471	-0.0403723	1.40749	0.41741	1	9	0.00458021	0.0022059	0	-9.92709e-06	8.62513e-05	2.97062e-05	93.6271	0.0134667	-0.000851926	-0.0134397	-32.6963	2.06834	1.7406	1.11729	0.403937	0.262276	0.481616	32.9957	417.41	642.862	766.487	-57.0043	0.0000000E+000	0.0000000E+000	0.0000000E+000	57.0043	0.0000000E+000	0.0000000E+000	0.0000000E+000	-57.0043	0.0000000E+000	0.0000000E+000	0.0000000E+000	-32.9957	0.0000000E+000	0.0000000E+000	0.0000000E+000	32.9957	1.54012	57.0043	-9.92709e-06	-7.48788e-06	-3.48216e-09	-7.4844e-06	0.185384	4594.01	2.1364	4591.87
31621.1	2.87371	1.69181	3.33473	-30.4862	3.12255	0.185455	-0.0419739	2.97502	0.765724	1	9	0.00518831	0.00155584	0	-7.90655e-06	0.00027716	1.04879e-05	-115.619	0.00674097	-0.00291472	0.00607824	-30.6016	3.33531	2.8708	1.69789	0.258417	0.152135	0.299874	30.4862	765.724	1300.66	1509.32	-59.5138	0.0000000E+000	0.0000000E+000	0.0000000E+000	59.5138	0.0000000E+000	0.0000000E+000	0.0000000E+000	-59.5138	0.0000000E+000	0.0000000E+000	0.0000000E+000	-30.4862	0.0000000E+000	0.0000000E+000	0.0000000E+000	30.4862	1.6986	59.5138	-3.84847e-06	-7.78427e-06	-1.16335e-08	-7.77264e-06	0.185178	4418.34	6.60315	4411.74
10002.2	4.30137	1.97306	4.73231	-24.6411	4.30753	0.185488	-0.0250369	8.06462	1.4019	1	10	0.00467853	0.000988636	0	-1.89941e-05	0.000372614	6.05444e-06	-101.222	0.00612403	-0.00119176	0.00600695	-24.7132	4.73373	4.30018	1.97906	0.192071	0.0881036	0.211313	24.6411	1401.9	3056.22	3362.41	-65.3589	0.0000000E+000	0.0000000E+000	0.0000000E+000	65.3589	0.0000000E+000	0.0000000E+000	0.0000000E+000	-65.3589	0.0000000E+000	0.0000000E+000	0.0000000E+000	-24.6411	0.0000000E+000	0.0000000E+000	0.0000000E+000	24.6411	2.18005	65.3589	-3.43433e-06	-4.64406e-06	-9.32911e-09	-4.63473e-06	0.185116	7408.58	14.8826	7393.7
3163.08	5.61162	2.3734	6.09289	-22.9256	5.20567	0.185382	-0.0245378	21.2002	3.21687	1	10	0.00457297	0.000750542	0	-2.5686e-05	0.000315341	6.81268e-06	13.5473	0.00907702	0.00882447	-0.00212628	-22.8749	6.10019	5.62045	2.37127	0.151162	0.0639328	0.164126	22.9256	3216.87	7605.92	8258.22	-67.0744	0.0000000E+000	0.0000000E+000	0.0000000E+000	67.0744	0.0000000E+000	0.0000000E+000	0.0000000E+000	-67.0744	0.0000000E+000	0.0000000E+000	0.0000000E+000	-22.9256	0.0000000E+000	0.0000000E+000	0.0000000E+000	22.9256	2.36438	67.0744	-1.84777e-06	-4.54885e-06	-7.73778e-09	-4.54112e-06	0.185066	7554.95	12.8513	7542.1
1000.32	7.04313	3.80247	8.00402	-28.3639	6.77278	0.185413	-0.0112313	41.8423	9.44343	1	10	0.00484202	0.000604948	0	-3.00023e-05	-8.55663e-05	8.7747e-06	24.3974	0.0145049	0.0132096	-0.00599144	-28.2813	8.01281	7.05634	3.79647	0.109938	0.0593538	0.124937	28.3639	9443.43	17491.6	19878	-61.6361	0.0000000E+000	0.0000000E+000	0.0000000E+000	61.6361	0.0000000E+000	0.0000000E+000	0.0000000E+000	-61.6361	0.0000000E+000	0.0000000E+000	0.0000000E+000	-28.3639	0.0000000E+000	0.0000000E+000	0.0000000E+000	28.3639	1.85225	61.6361	-1.36381e-06	-2.08243e-06	9.6102e-10	-2.08339e-06	0.185499	16508.6	7.61856	16516.2
316.316	9.89821	7.57497	12.4641	-37.4263	8.12301	0.185422	-0.0095624	66.423	24.5333	1	10	0.00480638	0.000385616	0	-3.41128e-05	-0.000104657	6.07976e-06	87.1827	0.0157663	0.000774932	-0.0157473	-37.3667	12.4552	9.89899	7.55922	0.0637136	0.0487592	0.0802302	37.4263	24533.3	32057.6	40368	-52.5737	0.0000000E+000	0.0000000E+000	0.0000000E+000	52.5737	0.0000000E+000	0.0000000E+000	0.0000000E+000	-52.5737	0.0000000E+000	0.0000000E+000	0.0000000E+000	-37.4263	0.0000000E+000	0.0000000E+000	0.0000000E+000	37.4263	1.3067	52.5737	-1.476e-06	-1.77308e-06	1.00077e-09	-1.77408e-06	0.185526	19390.7	10.9446	19401.6
100.032	18.433	13.2516	22.702	-35.7126	9.71477	0.185474	-0.0095625	120.064	40.9093	1	11	0.00480491	0.000211651	0	-3.91059e-05	4.80696e-05	1.2613e-05	-93.89	0.0595932	-0.00404289	0.0594559	-35.8402	22.7335	18.4289	13.3111	0.0357658	0.0257123	0.044049	35.7126	40909.3	56904.8	70083.8	-54.2874	0.0000000E+000	0.0000000E+000	0.0000000E+000	54.2874	0.0000000E+000	0.0000000E+000	0.0000000E+000	-54.2874	0.0000000E+000	0.0000000E+000	0.0000000E+000	-35.7126	0.0000000E+000	0.0000000E+000	0.0000000E+000	35.7126	1.391	54.2874	-1.70766e-06	-1.7736e-06	-4.59666e-10	-1.77314e-06	0.185426	19396	5.02689	19391
31.6296	31.9301	12.1335	34.1578	-20.8068	11.0435	0.18545	-0.00942716	414.708	52.3279	1	11	0.0047877	0.000140164	0	-4.2504e-05	-2.82938e-05	7.60539e-06	25.7543	0.0542606	0.0488706	-0.0235769	-20.7408	34.1951	31.979	12.1099	0.0273666	0.0103994	0.0292759	20.8068	52327.9	137705	147312	-69.1932	0.0000000E+000	0.0000000E+000	0.0000000E+000	69.1932	0.0000000E+000	0.0000000E+000	0.0000000E+000	-69.1932	0.0000000E+000	0.0000000E+000	0.0000000E+000	-20.8068	0.0000000E+000	0.0000000E+000	0.0000000E+000	20.8068	2.63157	69.1932	-1.03116e-06	-1.74827e-06	2.6673e-10	-1.74854e-06	0.185479	19671.9	3.00131	19674.9
10.0032	38.5131	6.02801	38.982	-8.89568	12.3758	0.18546	-0.00888913	2639.41	63.1143	1	11	0.00478285	0.000122694	0	-4.64896e-05	-4.73846e-05	5.17677e-06	54.9292	0.0421925	0.0242433	-0.0345322	-8.84006	39.0006	38.5373	5.99348	0.0253443	0.00396686	0.0256529	8.89568	63114.3	403238	408148	-81.1043	0.0000000E+000	0.0000000E+000	0.0000000E+000	81.1043	0.0000000E+000	0.0000000E+000	0.0000000E+000	-81.1043	0.0000000E+000	0.0000000E+000	0.0000000E+000	-8.89568	0.0000000E+000	0.0000000E+000	0.0000000E+000	8.89568	6.38901	81.1043	-1.26814e-06	-1.64858e-06	4.21208e-10	-1.649e-06	0.185508	20863.7	5.33062	20869.1
3.1604	40.3456	2.989	40.4562	-4.237	13.8924	0.185463	-0.00720962	16848.2	91.9673	1	11	0.00478696	0.000118325	0	-4.846e-05	-9.20294e-06	8.19111e-06	-94.7667	0.0692258	-0.00575261	0.0689863	-4.33504	40.4556	40.3399	3.05798	0.0246505	0.00182623	0.0247181	4.237	91967.3	1.24138e+06	1.24478e+06	-85.763	0.0000000E+000	0.0000000E+000	0.0000000E+000	85.763	0.0000000E+000	0.0000000E+000	0.0000000E+000	-85.763	0.0000000E+000	0.0000000E+000	0.0000000E+000	-4.237	0.0000000E+000	0.0000000E+000	0.0000000E+000	4.237	13.4981	85.763	-1.15351e-06	-1.33712e-06	6.63497e-11	-1.33718e-06	0.185472	25724.4	1.27648	25725.7
1.00006	41.395	2.39934	41.4645	-3.31728	19.2116	0.185474	-0.00601514	66328.5	222.092	1	12	0.00479061	0.000115535	0	-6.12865e-05	0.000200796	1.88928e-06	65.2419	0.0163524	0.0068482	-0.0148494	-3.29625	41.4704	41.4018	2.38449	0.0240766	0.00139553	0.024117	3.31728	222092	3.83167e+06	3.8381e+06	-86.6827	0.0000000E+000	0.0000000E+000	0.0000000E+000	86.6827	0.0000000E+000	0.0000000E+000	0.0000000E+000	-86.6827	0.0000000E+000	0.0000000E+000	0.0000000E+000	-3.31728	0.0000000E+000	0.0000000E+000	0.0000000E+000	3.31728	17.2526	86.6827	-2.97306e-06	-1.11565e-06	-1.20782e-09	-1.11444e-06	0.185273	30834.5	33.3818	30801.1
0.316193	42.7122	3.08616	42.8235	-4.13272	33.5568	0.185463	-0.00420385	163098	847.075	1	12	0.00478954	0.000111844	0	-6.32535e-05	0.000372614	1.66292e-06	82.203	0.0148683	0.00201709	-0.0147308	-4.11287	42.8245	42.7142	3.07143	0.0232909	0.00168288	0.0233517	4.13272	847076	1.17234e+07	1.1754e+07	-85.8673	0.0000000E+000	0.0000000E+000	0.0000000E+000	85.8673	0.0000000E+000	0.0000000E+000	0.0000000E+000	-85.8673	0.0000000E+000	0.0000000E+000	0.0000000E+000	-4.13272	0.0000000E+000	0.0000000E+000	0.0000000E+000	4.13272	13.8399	85.8673	-1.25276e-06	-7.7966e-07	-1.56641e-09	-7.78093e-07	0.185091	44117.4	88.6363	44028.8
0.0999041	44.425	5.30458	44.7406	-6.80917	78.7647	0.185463	-0.00152769	300321	4221.67	1	12	0.00479027	0.000107068	0	-0.000131432	9.88791e-06	2.2183e-06	11.1791	0.0207186	0.0203255	-0.00401685	-6.80098	44.7603	44.4454	5.30056	0.0221934	0.00265001	0.0223511	6.80917	4.22167e+06	3.53558e+07	3.5607e+07	-83.1908	0.0000000E+000	0.0000000E+000	0.0000000E+000	83.1908	0.0000000E+000	0.0000000E+000	0.0000000E+000	-83.1908	0.0000000E+000	0.0000000E+000	0.0000000E+000	-6.80917	0.0000000E+000	0.0000000E+000	0.0000000E+000	6.80917	8.37484	83.1908	-3.86832e-05	-2.83328e-07	-1.51056e-11	-2.83313e-07	0.185453	121401	6.47247	121394
0.0315922	47.458	11.8524	48.9157	-14.0225	221.647	0.185464	-0.00152408	425044	24954.6	1	12	0.00478989	9.79214e-05	0	-0.000252728	0.000487159	1.34986e-06	-18.682	0.0137851	0.0130588	0.0044156	-14.0238	48.9294	47.4711	11.8568	0.0198341	0.00495348	0.0204433	14.0225	2.49546e+07	9.99203e+07	1.02989e+08	-75.9775	0.0000000E+000	0.0000000E+000	0.0000000E+000	75.9775	0.0000000E+000	0.0000000E+000	0.0000000E+000	-75.9775	0.0000000E+000	0.0000000E+000	0.0000000E+000	-14.0225	0.0000000E+000	0.0000000E+000	0.0000000E+000	14.0225	4.00408	75.9775	-1.63961e-05	-2.82662e-07	-7.42468e-10	-2.8192e-07	0.184977	121690	319.642	121370
0.0100092	54.6011	27.2116	61.0062	-26.4903	672.87	0.185464	-8.02825e-05	584343	116260	1	12	0.00478877	7.84965e-05	0	0.000128739	0.000410796	1.90178e-06	-44.8203	0.0242276	0.0171851	0.0170777	-26.4975	61.0292	54.6183	27.2287	0.0146708	0.0073115	0.0163918	26.4903	1.1626e+08	2.33279e+08	2.60644e+08	-63.5097	0.0000000E+000	0.0000000E+000	0.0000000E+000	63.5097	0.0000000E+000	0.0000000E+000	0.0000000E+000	-63.5097	0.0000000E+000	0.0000000E+000	0.0000000E+000	-26.4903	0.0000000E+000	0.0000000E+000	0.0000000E+000	26.4903	2.00654	63.5097	0.000164811	-1.48895e-08	-3.29797e-11	-1.48565e-08	0.185053	2.31014e+06	5116.87	2.30502e+06