File: txt/19145_R306_UA710_SOC00_C01.mpt
EC-Lab ASCII FILE
Nb header lines : 66

Potentio Electrochemical Impedance Spectroscopy

Run on channel : 1 (SN 66354)
Grouped channel(s) : 1, 2
User :
CE vs. WE compliance from -10 V to 10 V
Electrode connection : standard
Potential control : Ewe
Ewe ctrl range : min = -10.00 V, max = 10.00 V
Safety Limits :
	Do not start on E overload
Acquisition started on : 11/12/2025 11:39:57.970
Technique started on : 11/12/2025 11:39:59.881
Loaded Setting File :  C:\Users\Celltest\OneDrive - store-dot.com\Documents\EC-Lab\Data\@Biologic Test Protocols\anode half cell EIS SOC00.mps
Saved on :
	File : 19145_R306_UA710_SOC00_C01.mpr
	Directory : C:\Users\Celltest\OneDrive - store-dot.com\Documents\EC-Lab\Data\Charmaine\
	Host : 169.254.61.224
Device : VMP-3e (SN .003165)
Address : USB
EC-LAB for windows v11.62 (software)
Internet server v27.00 (firmware)
Command interpretor v12.03 (firmware)
Electrode material :
Initial state :
Electrolyte :
Comments :
Electrode surface area : 0.001 cm²
Characteristic mass : 0.001 g
Equivalent Weight : 0.000 g/eq.
Density : 0.000 g/cm3
Volume (V) : 0.001 cm³
Record Ece
Cycle Definition : Charge/Discharge alternance
Mode                Single sine
E (V)               0.0000
vs.                 Eoc
tE (h:m:s)          0:00:0.0000
record              0
dI                  0.000
unit dI             mA
dt (s)              0.000
fi                  100.000
unit fi             kHz
ff                  10.000
unit ff             mHz
Nd                  6
Points              per decade
spacing             Logarithmic
Va (mV)             5.0
pw                  0.10
Na                  2
corr                0
E range min (V)     -10.000
E range max (V)     10.000
I Range             Auto
Bandwidth           5
nc cycles           0
goto Ns'            0
nr cycles           0
inc. cycle          0

freq/Hz	Re(Z)/Ohm	-Im(Z)/Ohm	|Z|/Ohm	Phase(Z)/deg	time/s	<Ewe>/V	<I>/mA	Cs/µF	Cp/µF	cycle number	I Range	|Ewe|/V	|I|/A	Ns	(Q-Qo)/mA.h	<Ece>/V	|Ece|/V	Phase(Zce)/deg	|Zce|/Ohm	Re(Zce)/Ohm	-Im(Zce)/Ohm	Phase(Zwe-ce)/deg	|Zwe-ce|/Ohm	Re(Zwe-ce)/Ohm	-Im(Zwe-ce)/Ohm	Re(Y)/Ohm-1	Im(Y)/Ohm-1	|Y|/Ohm-1	Phase(Y)/deg	Re(C)/nF	Im(C)/nF	|C|/nF	Phase(C)/deg	Re(M)	Im(M)	|M|	Phase(M)/deg	Re(Permittivity)	Im(Permittivity)	|Permittivity|	Phase(Permittivity)/deg	Re(Resistivity)/Ohm.cm	Im(Resistivity)/Ohm.cm	|Resistivity|/Ohm.cm	Phase(Resistivity)/deg	Re(Conductivity)/mS/cm	Im(Conductivity)/mS/cm	|Conductivity|/mS/cm	Phase(Conductivity)/deg	Tan(Delta)	Loss Angle(Delta)/deg	dq/mA.h	Pwe/W	Pce/W	Pwe-ce/W	<Ewe-Ece>/V	Rwe/Ohm	Rce/Ohm	Rwe-ce/Ohm		Ewe-Ece/V
100004	1.92032	1.16346	2.24527	-31.2103	1.91053	0.189724	0.0463398	1.3679	0.367296	1	9	0.00458936	0.00204401	0	1.07659e-06	0.000268993	3.68774e-05	96.6715	0.0180417	-0.00209601	-0.0179195	-30.8451	2.23424	1.91822	1.14554	0.380921	0.230787	0.44538	31.2103	367.296	606.232	708.818	-58.7897	0.0000000E+000	0.0000000E+000	0.0000000E+000	58.7897	0.0000000E+000	0.0000000E+000	0.0000000E+000	-58.7897	0.0000000E+000	0.0000000E+000	0.0000000E+000	-31.2103	0.0000000E+000	0.0000000E+000	0.0000000E+000	31.2103	1.65053	58.7897	1.07659e-06	8.79177e-06	1.24651e-08	8.7793e-06	0.189455	4094.19	5.80478	4088.38
31621.1	3.03967	1.66181	3.46427	-28.6657	3.30755	0.189721	0.0499162	3.02874	0.696945	1	9	0.00522701	0.00150883	0	2.31941e-05	-0.000322404	1.3829e-05	2.55867	0.00916535	0.00915621	-0.000409163	-28.5873	3.47211	3.04882	1.6614	0.253281	0.13847	0.288661	28.6657	696.946	1274.81	1452.88	-61.3343	0.0000000E+000	0.0000000E+000	0.0000000E+000	61.3343	0.0000000E+000	0.0000000E+000	0.0000000E+000	-61.3343	0.0000000E+000	0.0000000E+000	0.0000000E+000	-28.6657	0.0000000E+000	0.0000000E+000	0.0000000E+000	28.6657	1.82914	61.3343	2.54156e-06	9.47017e-06	-1.60932e-08	9.48626e-06	0.190044	3800.8	6.4589	3807.25
10002.2	4.41005	1.91234	4.80682	-23.4432	4.49252	0.189766	-0.0122509	8.32066	1.31696	1	10	0.00461086	0.000959231	0	3.22162e-05	0.000192683	7.41109e-06	-59.831	0.00772607	0.00388275	0.00667955	-23.4977	4.81305	4.41393	1.91902	0.190865	0.0827655	0.208038	23.4432	1316.96	3037.04	3310.28	-66.5568	0.0000000E+000	0.0000000E+000	0.0000000E+000	66.5568	0.0000000E+000	0.0000000E+000	0.0000000E+000	-66.5568	0.0000000E+000	0.0000000E+000	0.0000000E+000	-23.4432	0.0000000E+000	0.0000000E+000	0.0000000E+000	23.4432	2.30609	66.5568	1.20267e-06	-2.3248e-06	-2.36054e-09	-2.32244e-06	0.189573	15489.9	15.7281	15474.2
3163.08	5.66518	2.33941	6.1292	-22.438	5.39269	0.189659	-0.0128547	21.5082	3.13335	1	10	0.0045964	0.000749919	0	2.88514e-05	0.000364379	7.25912e-06	-66.6288	0.00967988	0.00383988	0.00888569	-22.501	6.13615	5.66902	2.3483	0.150802	0.0622729	0.163153	22.438	3133.35	7587.8	8209.3	-67.562	0.0000000E+000	0.0000000E+000	0.0000000E+000	67.562	0.0000000E+000	0.0000000E+000	0.0000000E+000	-67.562	0.0000000E+000	0.0000000E+000	0.0000000E+000	-22.438	0.0000000E+000	0.0000000E+000	0.0000000E+000	22.438	2.42162	67.562	-1.00884e-06	-2.438e-06	-4.68397e-09	-2.43331e-06	0.189294	14754.1	28.3461	14725.7
1000.32	7.07078	3.81751	8.03551	-28.3646	6.74577	0.189684	-0.000995542	41.6775	9.40664	1	10	0.00449546	0.000559449	0	2.80651e-05	-0.000112554	4.35834e-06	-113.481	0.00779042	-0.00310408	0.0071453	-28.4199	8.03617	7.06768	3.82465	0.109507	0.0591226	0.124448	28.3646	9406.64	17423	19800.1	-61.6354	0.0000000E+000	0.0000000E+000	0.0000000E+000	61.6354	0.0000000E+000	0.0000000E+000	0.0000000E+000	-61.6354	0.0000000E+000	0.0000000E+000	0.0000000E+000	-28.3646	0.0000000E+000	0.0000000E+000	0.0000000E+000	28.3646	1.8522	61.6354	-1.17402e-07	-1.88838e-07	1.12052e-10	-1.8895e-07	0.189796	190533	113.058	190646
316.316	10.0088	7.74202	12.6536	-37.7227	8.30901	0.18968	-0.00241551	64.9897	24.3289	1	10	0.00495319	0.000391444	0	2.80499e-05	0.000173606	7.32789e-06	-35.0364	0.0187202	0.0153278	0.0107472	-37.7188	12.6723	10.0241	7.75277	0.0625101	0.0483529	0.0790286	37.7227	24328.9	31452.1	39763.4	-52.2773	0.0000000E+000	0.0000000E+000	0.0000000E+000	52.2773	0.0000000E+000	0.0000000E+000	0.0000000E+000	-52.2773	0.0000000E+000	0.0000000E+000	0.0000000E+000	-37.7227	0.0000000E+000	0.0000000E+000	0.0000000E+000	37.7227	1.29279	52.2773	9.28229e-08	-4.58173e-07	-4.19347e-10	-4.57754e-07	0.189506	78525.6	71.8714	78453.8
100.032	18.7605	13.4784	23.1003	-35.6951	9.89985	0.18973	-0.0060581	118.044	40.1869	1	11	0.00494577	0.0002141	0	2.63814e-05	0.000116374	8.78421e-06	-43.049	0.0410285	0.0299824	0.028007	-35.7081	23.141	18.7905	13.5064	0.0351569	0.0252582	0.0432896	35.6951	40186.9	55936	68875.4	-54.3049	0.0000000E+000	0.0000000E+000	0.0000000E+000	54.3049	0.0000000E+000	0.0000000E+000	0.0000000E+000	-54.3049	0.0000000E+000	0.0000000E+000	0.0000000E+000	-35.6951	0.0000000E+000	0.0000000E+000	0.0000000E+000	35.6951	1.3919	54.3049	-8.85037e-07	-1.1494e-06	-7.05006e-10	-1.1487e-06	0.189613	31318.3	19.2097	31299.1
31.6296	32.1842	12.2413	34.4336	-20.8244	11.2286	0.18973	-0.00606332	411.053	51.9506	1	11	0.00493279	0.000143255	0	2.39486e-05	0.000249915	1.06548e-05	50.0517	0.0743762	0.0477567	-0.0570186	-20.7076	34.4581	32.232	12.1843	0.0271442	0.0103244	0.0290414	20.8244	51950.6	136585	146132	-69.1756	0.0000000E+000	0.0000000E+000	0.0000000E+000	69.1756	0.0000000E+000	0.0000000E+000	0.0000000E+000	-69.1756	0.0000000E+000	0.0000000E+000	0.0000000E+000	-20.8244	0.0000000E+000	0.0000000E+000	0.0000000E+000	20.8244	2.62914	69.1756	-9.93903e-07	-1.15039e-06	-1.51532e-09	-1.14888e-06	0.18948	31291.4	41.2176	31250.2
10.0032	38.8187	6.98018	39.4413	-10.1937	12.5618	0.189721	-0.00586223	2279.37	71.3914	1	11	0.00493643	0.000125159	0	2.21818e-05	7.82195e-05	9.74581e-06	-25.5794	0.0778675	0.0702355	0.0336202	-10.2237	39.5164	38.8889	7.0138	0.0249539	0.00448709	0.0253542	10.1937	71391.4	397027	403395	-79.8063	0.0000000E+000	0.0000000E+000	0.0000000E+000	79.8063	0.0000000E+000	0.0000000E+000	0.0000000E+000	-79.8063	0.0000000E+000	0.0000000E+000	0.0000000E+000	-10.1937	0.0000000E+000	0.0000000E+000	0.0000000E+000	10.1937	5.56127	79.8063	2.42692e-07	-1.11219e-06	-4.58541e-10	-1.11173e-06	0.189643	32363.3	13.343	32349.9
3.1604	41.9782	4.88326	42.2613	-6.63531	14.0784	0.189744	-0.00416375	10312.6	137.69	1	11	0.00493251	0.000116715	0	2.10933e-05	0.000135451	1.7051e-05	22.5896	0.146091	0.134883	-0.0561177	-6.5389	42.3888	42.1131	4.82714	0.0235038	0.00273417	0.0236623	6.63531	137690	1.18363e+06	1.19162e+06	-83.3647	0.0000000E+000	0.0000000E+000	0.0000000E+000	83.3647	0.0000000E+000	0.0000000E+000	0.0000000E+000	-83.3647	0.0000000E+000	0.0000000E+000	0.0000000E+000	-6.63531	0.0000000E+000	0.0000000E+000	0.0000000E+000	6.63531	8.59634	83.3647	8.24184e-07	-7.90048e-07	-5.63986e-10	-7.89484e-07	0.189609	45570.5	32.5311	45538
1.00006	44.8085	4.04647	44.9908	-5.16015	19.4	0.189743	-0.00351724	39329.3	318.142	1	12	0.00493404	0.000109668	0	1.13757e-05	5.91422e-05	3.62374e-06	5.82612	0.033043	0.0328723	-0.00335419	-5.15213	45.0233	44.8414	4.04311	0.0221367	0.00199907	0.0222267	5.16015	318142	3.52294e+06	3.53727e+06	-84.8399	0.0000000E+000	0.0000000E+000	0.0000000E+000	84.8399	0.0000000E+000	0.0000000E+000	0.0000000E+000	-84.8399	0.0000000E+000	0.0000000E+000	0.0000000E+000	-5.16015	0.0000000E+000	0.0000000E+000	0.0000000E+000	5.16015	11.0735	84.8399	-5.3718e-06	-6.67373e-07	-2.08018e-10	-6.67165e-07	0.189684	53946.6	16.8149	53929.8
0.316193	47.2774	4.12049	47.4566	-4.98106	33.742	0.189739	-0.00329627	122157	920.923	1	12	0.00493491	0.000103988	0	5.84672e-06	2.09876e-05	3.33155e-06	-23.801	0.0320378	0.0293131	0.0129292	-4.99353	47.4869	47.3067	4.13341	0.0209923	0.0018296	0.0210719	4.98106	920922	1.05664e+07	1.06065e+07	-85.0189	0.0000000E+000	0.0000000E+000	0.0000000E+000	85.0189	0.0000000E+000	0.0000000E+000	0.0000000E+000	-85.0189	0.0000000E+000	0.0000000E+000	0.0000000E+000	-4.98106	0.0000000E+000	0.0000000E+000	0.0000000E+000	4.98106	11.4737	85.0189	2.01804e-06	-6.25431e-07	-6.91808e-11	-6.25362e-07	0.189718	57561.8	6.36708	57555.4
0.0999041	49.5889	5.58098	49.902	-6.42132	78.95	0.189735	-0.000848544	285448	3570.35	1	12	0.00493522	9.88982e-05	0	1.09609e-05	-5.53216e-05	2.98718e-06	15.0851	0.0302046	0.0291637	-0.00786085	-6.40861	49.9301	49.6181	5.57311	0.0199136	0.00224117	0.0200393	6.42132	3.57035e+06	3.17238e+07	3.19241e+07	-83.5787	0.0000000E+000	0.0000000E+000	0.0000000E+000	83.5787	0.0000000E+000	0.0000000E+000	0.0000000E+000	-83.5787	0.0000000E+000	0.0000000E+000	0.0000000E+000	-6.42132	0.0000000E+000	0.0000000E+000	0.0000000E+000	6.42132	8.88535	83.5787	-4.86352e-06	-1.60999e-07	4.69428e-11	-1.61046e-07	0.18979	223601	65.1959	223666
0.0315922	52.4974	10.9546	53.6281	-11.7867	221.833	0.189737	-0.000443169	459881	19188.9	1	12	0.00493257	9.19772e-05	0	-0.000153929	0.000268993	2.26528e-06	-14.0821	0.0246287	0.0238885	0.00599243	-11.7878	53.6527	52.5212	10.9606	0.0182538	0.00380899	0.0186469	11.7867	1.91889e+07	9.19586e+07	9.39394e+07	-78.2133	0.0000000E+000	0.0000000E+000	0.0000000E+000	78.2133	0.0000000E+000	0.0000000E+000	0.0000000E+000	-78.2133	0.0000000E+000	0.0000000E+000	0.0000000E+000	-11.7867	0.0000000E+000	0.0000000E+000	0.0000000E+000	11.7867	4.79228	78.2133	-8.60494e-05	-8.40855e-08	-1.19209e-10	-8.39663e-08	0.189468	428136	606.975	427529
0.0100092	59.2184	25.2443	64.3746	-23.0881	673.055	0.189732	-0.000512285	629881	96862.5	1	12	0.00493404	7.66456e-05	0	-9.17237e-05	-7.43989e-05	1.79429e-06	23.5321	0.0234102	0.0214634	-0.00934684	-23.073	64.3907	59.2399	25.235	0.0142898	0.00609163	0.0155341	23.0881	9.68625e+07	2.27221e+08	2.47006e+08	-66.9119	0.0000000E+000	0.0000000E+000	0.0000000E+000	66.9119	0.0000000E+000	0.0000000E+000	0.0000000E+000	-66.9119	0.0000000E+000	0.0000000E+000	0.0000000E+000	-23.0881	0.0000000E+000	0.0000000E+000	0.0000000E+000	23.0881	2.34581	66.9119	0.000143289	-9.71968e-08	3.81135e-11	-9.7235e-08	0.189806	370363	145.229	370509