File: txt/19140_R306_UA703_SOC00_C04.mpt
EC-Lab ASCII FILE
Nb header lines : 65

Potentio Electrochemical Impedance Spectroscopy

Run on channel : 4 (SN 66756)
Grouped channel(s) : 1, 2, 3, 4, 5
User :
CE vs. WE compliance from -10 V to 10 V
Electrode connection : standard
Potential control : Ewe
Ewe ctrl range : min = -10.00 V, max = 10.00 V
Safety Limits :
	Do not start on E overload
Acquisition started on : 11/12/2025 11:20:24.450
Loaded Setting File :  C:\Users\Celltest\OneDrive - store-dot.com\Documents\EC-Lab\Data\@Biologic Test Protocols\anode half cell EIS SOC00.mps
Saved on :
	File : 19137_R306_UA703_SOC00_C04.mpr
	Directory : C:\Users\Celltest\OneDrive - store-dot.com\Documents\EC-Lab\Data\Charmaine\
	Host : 169.254.61.224
Device : VMP-3e (SN .003165)
Address : USB
EC-LAB for windows v11.62 (software)
Internet server v27.00 (firmware)
Command interpretor v12.03 (firmware)
Electrode material :
Initial state :
Electrolyte :
Comments :
Electrode surface area : 0.001 cm²
Characteristic mass : 0.001 g
Equivalent Weight : 0.000 g/eq.
Density : 0.000 g/cm3
Volume (V) : 0.001 cm³
Record Ece
Cycle Definition : Charge/Discharge alternance
Mode                Single sine
E (V)               0.0000
vs.                 Eoc
tE (h:m:s)          0:00:0.0000
record              0
dI                  0.000
unit dI             mA
dt (s)              0.000
fi                  100.000
unit fi             kHz
ff                  10.000
unit ff             mHz
Nd                  6
Points              per decade
spacing             Logarithmic
Va (mV)             5.0
pw                  0.10
Na                  2
corr                0
E range min (V)     -10.000
E range max (V)     10.000
I Range             Auto
Bandwidth           5
nc cycles           0
goto Ns'            0
nr cycles           0
inc. cycle          0

freq/Hz	Re(Z)/Ohm	-Im(Z)/Ohm	|Z|/Ohm	Phase(Z)/deg	time/s	<Ewe>/V	<I>/mA	Cs/µF	Cp/µF	cycle number	I Range	|Ewe|/V	|I|/A	Ns	(Q-Qo)/mA.h	<Ece>/V	|Ece|/V	Phase(Zce)/deg	|Zce|/Ohm	Re(Zce)/Ohm	-Im(Zce)/Ohm	Phase(Zwe-ce)/deg	|Zwe-ce|/Ohm	Re(Zwe-ce)/Ohm	-Im(Zwe-ce)/Ohm	Re(Y)/Ohm-1	Im(Y)/Ohm-1	|Y|/Ohm-1	Phase(Y)/deg	Re(C)/nF	Im(C)/nF	|C|/nF	Phase(C)/deg	Re(M)	Im(M)	|M|	Phase(M)/deg	Re(Permittivity)	Im(Permittivity)	|Permittivity|	Phase(Permittivity)/deg	Re(Resistivity)/Ohm.cm	Im(Resistivity)/Ohm.cm	|Resistivity|/Ohm.cm	Phase(Resistivity)/deg	Re(Conductivity)/mS/cm	Im(Conductivity)/mS/cm	|Conductivity|/mS/cm	Phase(Conductivity)/deg	Tan(Delta)	Loss Angle(Delta)/deg	dq/mA.h	Pwe/W	Pce/W	Pwe-ce/W	<Ewe-Ece>/V	Rwe/Ohm	Rce/Ohm	Rwe-ce/Ohm		Ewe-Ece/V
100004	1.20809	0.49528	1.30567	-22.2921	1.91052	0.26543	-0.0279956	3.21331	0.462365	1	9	0.00478891	0.00366777	0	-4.70581e-06	-0.00017163	3.07849e-05	96.4435	0.00839334	-0.000941922	-0.00834032	-21.9682	1.30166	1.20715	0.48694	0.708647	0.290523	0.765888	22.2921	462.365	1127.8	1218.9	-67.7079	0.0000000E+000	0.0000000E+000	0.0000000E+000	67.7079	0.0000000E+000	0.0000000E+000	0.0000000E+000	-67.7079	0.0000000E+000	0.0000000E+000	0.0000000E+000	-22.2921	0.0000000E+000	0.0000000E+000	0.0000000E+000	22.2921	2.43921	67.7079	-4.70581e-06	-7.43086e-06	4.80488e-09	-7.43566e-06	0.265602	9481.14	6.13061	9487.27
31621.1	1.64966	0.646819	1.77194	-21.4097	3.43352	0.265437	-0.0310539	7.78144	1.03688	1	9	0.00521078	0.00294073	0	-2.36845e-05	-0.00024807	1.36105e-05	62.6266	0.00462827	0.00212802	-0.00411004	-21.2609	1.77242	1.65179	0.642709	0.52541	0.206009	0.564354	21.4097	1036.88	2644.48	2840.5	-68.5903	0.0000000E+000	0.0000000E+000	0.0000000E+000	68.5903	0.0000000E+000	0.0000000E+000	0.0000000E+000	-68.5903	0.0000000E+000	0.0000000E+000	0.0000000E+000	-21.4097	0.0000000E+000	0.0000000E+000	0.0000000E+000	21.4097	2.55042	68.5903	-1.41621e-05	-8.24288e-06	7.70354e-09	-8.25058e-06	0.265686	8547.63	7.98835	8555.61
10002.2	2.14569	0.814153	2.29496	-20.7786	4.45855	0.265451	-0.031688	19.5442	2.45968	1	9	0.00498348	0.00217149	0	-3.30683e-05	7.67995e-05	5.39396e-06	4.91489	0.00248399	0.00247486	-0.000212818	-20.7517	2.2972	2.14817	0.81394	0.407397	0.154581	0.435738	20.7786	2459.68	6482.48	6933.44	-69.2215	0.0000000E+000	0.0000000E+000	0.0000000E+000	69.2215	0.0000000E+000	0.0000000E+000	0.0000000E+000	-69.2215	0.0000000E+000	0.0000000E+000	0.0000000E+000	-20.7786	0.0000000E+000	0.0000000E+000	0.0000000E+000	20.7786	2.63549	69.2215	-4.49037e-06	-8.41163e-06	-2.43362e-09	-8.40919e-06	0.265375	8377.03	2.42361	8374.6
3163.08	2.74167	1.14812	2.97236	-22.7223	5.35662	0.26523	-0.085247	43.825	6.53874	1	9	0.00456547	0.00153597	0	-4.78129e-05	-0.00017163	1.2356e-05	-100.542	0.00804441	-0.00147184	0.00790862	-22.8738	2.97407	2.7402	1.15603	0.310321	0.129952	0.336433	22.7223	6538.74	15614.3	16928.1	-67.2777	0.0000000E+000	0.0000000E+000	0.0000000E+000	67.2777	0.0000000E+000	0.0000000E+000	0.0000000E+000	-67.2777	0.0000000E+000	0.0000000E+000	0.0000000E+000	-22.7223	0.0000000E+000	0.0000000E+000	0.0000000E+000	22.7223	2.38796	67.2777	-9.19441e-06	-2.261e-05	1.46309e-08	-2.26247e-05	0.265401	3111.31	2.01333	3113.32
1000.32	3.57117	1.75538	3.97927	-26.1761	6.95677	0.265365	-0.0191418	90.6377	17.6379	1	10	0.0045815	0.00115134	0	-4.6841e-05	-0.00036273	9.38163e-06	3.53799	0.00814844	0.00813291	-0.000502842	-26.1181	3.98635	3.5793	1.75488	0.225529	0.110857	0.251302	26.1761	17637.9	35882.6	39983.2	-63.8239	0.0000000E+000	0.0000000E+000	0.0000000E+000	63.8239	0.0000000E+000	0.0000000E+000	0.0000000E+000	-63.8239	0.0000000E+000	0.0000000E+000	0.0000000E+000	-26.1761	0.0000000E+000	0.0000000E+000	0.0000000E+000	26.1761	2.03441	63.8239	-1.91207e-06	-5.07956e-06	6.94328e-09	-5.0865e-06	0.265728	13863.2	18.9496	13882.1
316.316	4.91911	3.11722	5.82364	-32.3623	8.30709	0.265359	-0.0214806	161.41	46.2465	1	10	0.00450979	0.000774394	0	-5.34251e-05	0.000229679	1.20914e-05	-5.73336	0.0156141	0.0155359	0.00155983	-32.2936	5.8376	4.93465	3.11878	0.145043	0.0919135	0.171714	32.3623	46246.5	72978.9	86398.2	-57.6377	0.0000000E+000	0.0000000E+000	0.0000000E+000	57.6377	0.0000000E+000	0.0000000E+000	0.0000000E+000	-57.6377	0.0000000E+000	0.0000000E+000	0.0000000E+000	-32.3623	0.0000000E+000	0.0000000E+000	0.0000000E+000	32.3623	1.57804	57.6377	-2.04364e-06	-5.70008e-06	-4.93365e-09	-5.69515e-06	0.26513	12353.4	10.6924	12342.7
100.032	8.1324	5.1101	9.60464	-32.1437	9.65377	0.265363	-0.0198468	311.352	88.135	1	10	0.00449711	0.000468222	0	-5.95732e-05	-1.87503e-05	4.24372e-06	-27.8565	0.00906348	0.00801322	0.00423499	-32.1397	9.61368	8.14042	5.11433	0.088157	0.0553946	0.104116	32.1437	88135	140261	165653	-57.8563	0.0000000E+000	0.0000000E+000	0.0000000E+000	57.8563	0.0000000E+000	0.0000000E+000	0.0000000E+000	-57.8563	0.0000000E+000	0.0000000E+000	0.0000000E+000	-32.1437	0.0000000E+000	0.0000000E+000	0.0000000E+000	32.1437	1.59144	57.8563	-2.95682e-06	-5.2666e-06	3.72134e-10	-5.26697e-06	0.265381	13370.6	0.944753	13371.5
31.6296	13.0717	5.447	14.1612	-22.6216	11.2016	0.265361	-0.0239761	923.782	136.674	1	10	0.00498577	0.000352073	0	-6.77841e-05	-7.60802e-05	6.0602e-06	-67.4238	0.0172129	0.00660824	0.0158939	-22.6706	14.1734	13.0783	5.46289	0.0651828	0.0271618	0.0706155	22.6216	136674	327989	355326	-67.3784	0.0000000E+000	0.0000000E+000	0.0000000E+000	67.3784	0.0000000E+000	0.0000000E+000	0.0000000E+000	-67.3784	0.0000000E+000	0.0000000E+000	0.0000000E+000	-22.6216	0.0000000E+000	0.0000000E+000	0.0000000E+000	22.6216	2.3998	67.3784	-2.77929e-06	-6.36233e-06	1.82411e-09	-6.36415e-06	0.265437	11067.7	3.17317	11070.9
10.0032	17.0447	4.20257	17.5551	-13.8507	12.7668	0.265402	-0.00358923	3785.88	216.964	1	11	0.00498629	0.000284036	0	-7.22772e-05	-0.00032451	1.26611e-05	82.5393	0.0445756	0.00578799	-0.0441982	-13.7061	17.5502	17.0505	4.15837	0.0553071	0.0136366	0.0569634	13.8507	216964	879958	906311	-76.1493	0.0000000E+000	0.0000000E+000	0.0000000E+000	76.1493	0.0000000E+000	0.0000000E+000	0.0000000E+000	-76.1493	0.0000000E+000	0.0000000E+000	0.0000000E+000	-13.8507	0.0000000E+000	0.0000000E+000	0.0000000E+000	13.8507	4.05577	76.1493	-3.92677e-07	-9.5259e-07	1.16474e-09	-9.53754e-07	0.265727	73944	90.412	74034.4
3.1604	19.5705	2.91143	19.7858	-8.46164	14.2834	0.265417	-0.00191393	17297	374.521	1	11	0.00498292	0.000251843	0	-7.05015e-05	-3.78603e-05	4.18682e-06	-5.86627	0.0166247	0.0165377	0.00169917	-8.45946	19.8024	19.587	2.91313	0.049991	0.007437	0.0505412	8.46164	374521	2.51751e+06	2.54521e+06	-81.5384	0.0000000E+000	0.0000000E+000	0.0000000E+000	81.5384	0.0000000E+000	0.0000000E+000	0.0000000E+000	-81.5384	0.0000000E+000	0.0000000E+000	0.0000000E+000	-8.46164	0.0000000E+000	0.0000000E+000	0.0000000E+000	8.46164	6.72194	81.5384	7.50927e-07	-5.07988e-07	7.24617e-11	-5.0806e-07	0.265454	138677	19.7815	138696
1.00006	21.0314	1.99431	21.1257	-5.41691	19.922	0.265418	-0.00137724	79799.3	711.152	1	12	0.00498923	0.000236168	0	-8.45603e-05	1.94696e-05	3.28038e-06	-24.1514	0.01389	0.0126742	0.0056831	-5.429	21.1389	21.0441	2	0.0471243	0.00446858	0.0473357	5.41691	711152	7.49958e+06	7.53322e+06	-84.5831	0.0000000E+000	0.0000000E+000	0.0000000E+000	84.5831	0.0000000E+000	0.0000000E+000	0.0000000E+000	-84.5831	0.0000000E+000	0.0000000E+000	0.0000000E+000	-5.41691	0.0000000E+000	0.0000000E+000	0.0000000E+000	5.41691	10.5457	84.5831	-4.51279e-06	-3.65543e-07	-2.68142e-11	-3.65516e-07	0.265398	192718	14.1367	192704
0.316193	21.9164	1.96985	22.0047	-5.13596	34.2668	0.265419	-0.00115153	255526	2047.71	1	12	0.0049829	0.000226447	0	-5.29981e-05	9.59094e-05	2.69438e-06	-6.95875	0.0118985	0.0118108	0.00144156	-5.13694	22.0166	21.9282	1.97129	0.0452623	0.00406819	0.0454448	5.13596	2.04771e+06	2.27827e+07	2.28745e+07	-84.864	0.0000000E+000	0.0000000E+000	0.0000000E+000	84.864	0.0000000E+000	0.0000000E+000	0.0000000E+000	-84.864	0.0000000E+000	0.0000000E+000	0.0000000E+000	-5.13596	0.0000000E+000	0.0000000E+000	0.0000000E+000	5.13596	11.1259	84.864	1.61584e-05	-3.05638e-07	-1.10443e-10	-3.05527e-07	0.265323	230493	83.2887	230409
0.0999041	23.0161	3.41893	23.2686	-8.44924	79.4739	0.265415	0.00122105	465958	10059.7	1	12	0.00498805	0.000214368	0	-9.09759e-05	-0.00019074	3.2029e-06	3.82445	0.0149411	0.0149078	-0.000996567	-8.44142	23.2832	23.031	3.41794	0.0425099	0.00631464	0.0429763	8.44924	1.00597e+07	6.77215e+07	6.84646e+07	-81.5508	0.0000000E+000	0.0000000E+000	0.0000000E+000	81.5508	0.0000000E+000	0.0000000E+000	0.0000000E+000	-81.5508	0.0000000E+000	0.0000000E+000	0.0000000E+000	-8.44924	0.0000000E+000	0.0000000E+000	0.0000000E+000	8.44924	6.73195	81.5508	-4.1906e-05	3.24084e-07	-2.32902e-10	3.24317e-07	0.265606	217367	156.21	217524
0.0315922	25.3053	7.03058	26.2638	-15.5269	222.357	0.265417	-0.00151776	716554	51347.2	1	12	0.00498636	0.000189857	0	-0.000331667	-0.00020985	3.10105e-06	27.9026	0.0163336	0.0144348	-0.00764366	-15.5024	26.2756	25.3197	7.02294	0.0366857	0.0101924	0.0380753	15.5269	5.13472e+07	1.84815e+08	1.91815e+08	-74.4731	0.0000000E+000	0.0000000E+000	0.0000000E+000	74.4731	0.0000000E+000	0.0000000E+000	0.0000000E+000	-74.4731	0.0000000E+000	0.0000000E+000	0.0000000E+000	-15.5269	0.0000000E+000	0.0000000E+000	0.0000000E+000	15.5269	3.59931	74.4731	-6.19915e-05	-4.02838e-07	3.18501e-10	-4.03157e-07	0.265627	174874	138.263	175013
0.0100092	29.428	15.4886	33.2551	-27.7588	673.579	0.265411	-8.15007e-05	1.02662e+06	222698	1	12	0.00498472	0.000149893	0	0.000432382	0.000172349	3.37622e-06	-0.0969938	0.0225241	0.0225241	3.81302e-05	-27.7408	33.2751	29.4505	15.4886	0.0266099	0.0140054	0.0300705	27.7588	2.22698e+08	4.23122e+08	4.78149e+08	-62.2412	0.0000000E+000	0.0000000E+000	0.0000000E+000	62.2412	0.0000000E+000	0.0000000E+000	0.0000000E+000	-62.2412	0.0000000E+000	0.0000000E+000	0.0000000E+000	-27.7588	0.0000000E+000	0.0000000E+000	0.0000000E+000	27.7588	1.89998	62.2412	0.000405128	-2.16312e-08	-1.40466e-11	-2.16172e-08	0.265239	3.25656e+06	2114.7	3.25444e+06