File: txt/19143_R306_UA710_SOC00_C07.mpt
EC-Lab ASCII FILE
Nb header lines : 65

Potentio Electrochemical Impedance Spectroscopy

Run on channel : 7 (SN 66126)
Grouped channel(s) : 6, 7, 8
User :
CE vs. WE compliance from -10 V to 10 V
Electrode connection : standard
Potential control : Ewe
Ewe ctrl range : min = -10.00 V, max = 10.00 V
Safety Limits :
	Do not start on E overload
Acquisition started on : 11/12/2025 11:20:50.497
Loaded Setting File :  C:\Users\Celltest\OneDrive - store-dot.com\Documents\EC-Lab\Data\@Biologic Test Protocols\anode half cell EIS SOC00.mps
Saved on :
	File : 19142_R306_UA710_SOC00_C07.mpr
	Directory : C:\Users\Celltest\OneDrive - store-dot.com\Documents\EC-Lab\Data\Charmaine\
	Host : 169.254.61.224
Device : VMP-3e (SN .003165)
Address : USB
EC-LAB for windows v11.62 (software)
Internet server v27.00 (firmware)
Command interpretor v12.03 (firmware)
Electrode material :
Initial state :
Electrolyte :
Comments :
Electrode surface area : 0.001 cm²
Characteristic mass : 0.001 g
Equivalent Weight : 0.000 g/eq.
Density : 0.000 g/cm3
Volume (V) : 0.001 cm³
Record Ece
Cycle Definition : Charge/Discharge alternance
Mode                Single sine
E (V)               0.0000
vs.                 Eoc
tE (h:m:s)          0:00:0.0000
record              0
dI                  0.000
unit dI             mA
dt (s)              0.000
fi                  100.000
unit fi             kHz
ff                  10.000
unit ff             mHz
Nd                  6
Points              per decade
spacing             Logarithmic
Va (mV)             5.0
pw                  0.10
Na                  2
corr                0
E range min (V)     -10.000
E range max (V)     10.000
I Range             Auto
Bandwidth           5
nc cycles           0
goto Ns'            0
nr cycles           0
inc. cycle          0

freq/Hz	Re(Z)/Ohm	-Im(Z)/Ohm	|Z|/Ohm	Phase(Z)/deg	time/s	<Ewe>/V	<I>/mA	Cs/µF	Cp/µF	cycle number	I Range	|Ewe|/V	|I|/A	Ns	(Q-Qo)/mA.h	<Ece>/V	|Ece|/V	Phase(Zce)/deg	|Zce|/Ohm	Re(Zce)/Ohm	-Im(Zce)/Ohm	Phase(Zwe-ce)/deg	|Zwe-ce|/Ohm	Re(Zwe-ce)/Ohm	-Im(Zwe-ce)/Ohm	Re(Y)/Ohm-1	Im(Y)/Ohm-1	|Y|/Ohm-1	Phase(Y)/deg	Re(C)/nF	Im(C)/nF	|C|/nF	Phase(C)/deg	Re(M)	Im(M)	|M|	Phase(M)/deg	Re(Permittivity)	Im(Permittivity)	|Permittivity|	Phase(Permittivity)/deg	Re(Resistivity)/Ohm.cm	Im(Resistivity)/Ohm.cm	|Resistivity|/Ohm.cm	Phase(Resistivity)/deg	Re(Conductivity)/mS/cm	Im(Conductivity)/mS/cm	|Conductivity|/mS/cm	Phase(Conductivity)/deg	Tan(Delta)	Loss Angle(Delta)/deg	dq/mA.h	Pwe/W	Pce/W	Pwe-ce/W	<Ewe-Ece>/V	Rwe/Ohm	Rce/Ohm	Rwe-ce/Ohm		Ewe-Ece/V
100004	1.69792	1.16877	2.0613	-34.5418	1.76852	0.184755	0.0499409	1.36168	0.437776	1	9	0.00474555	0.00230221	0	7.57992e-06	-0.000234939	4.41781e-05	92.4107	0.0191894	-0.000807162	-0.0191724	-34.1131	2.04982	1.69711	1.1496	0.399609	0.275073	0.485131	34.5418	437.776	635.974	772.082	-55.4582	0.0000000E+000	0.0000000E+000	0.0000000E+000	55.4582	0.0000000E+000	0.0000000E+000	0.0000000E+000	-55.4582	0.0000000E+000	0.0000000E+000	0.0000000E+000	-34.5418	0.0000000E+000	0.0000000E+000	0.0000000E+000	34.5418	1.45274	55.4582	7.57992e-06	9.22683e-06	-1.1733e-08	9.23857e-06	0.18499	3699.48	4.70434	3704.18
31621.1	2.87755	1.74348	3.36452	-31.2112	3.16552	0.184779	0.0545954	2.88686	0.775197	1	9	0.0053739	0.00159723	0	1.79808e-05	-0.000139562	1.22296e-05	-57.5752	0.00765677	0.0041055	0.00646305	-31.269	3.37139	2.88166	1.74994	0.2542	0.154017	0.297219	31.2112	775.197	1279.44	1495.96	-58.7888	0.0000000E+000	0.0000000E+000	0.0000000E+000	58.7888	0.0000000E+000	0.0000000E+000	0.0000000E+000	-58.7888	0.0000000E+000	0.0000000E+000	0.0000000E+000	-31.2112	0.0000000E+000	0.0000000E+000	0.0000000E+000	31.2112	1.65047	58.7888	5.85371e-06	1.00881e-05	-7.61942e-09	1.00957e-05	0.184919	3384.52	2.55629	3387.08
10002.2	4.34708	2.02188	4.79428	-24.9438	4.34652	0.184771	-0.0110223	7.86986	1.3997	1	10	0.00462172	0.000964007	0	2.62441e-05	-0.000158637	5.24632e-06	-108.467	0.0054422	-0.00172388	0.00516196	-25.0084	4.79489	4.34535	2.02705	0.189126	0.0879651	0.208582	24.9438	1399.7	3009.36	3318.95	-65.0562	0.0000000E+000	0.0000000E+000	0.0000000E+000	65.0562	0.0000000E+000	0.0000000E+000	0.0000000E+000	-65.0562	0.0000000E+000	0.0000000E+000	0.0000000E+000	-24.9438	0.0000000E+000	0.0000000E+000	0.0000000E+000	24.9438	2.15001	65.0562	1.66674e-06	-2.0366e-06	1.74855e-09	-2.03835e-06	0.184929	16763.3	14.3923	16777.7
3163.08	5.6989	2.41427	6.1892	-22.9594	5.24361	0.184626	-0.0135575	20.8413	3.17123	1	10	0.00450551	0.000727963	0	2.29768e-05	-4.41845e-05	5.4175e-06	0.307242	0.007442	0.00744189	-3.99067e-05	-22.9322	6.19604	5.70634	2.41423	0.148772	0.0630256	0.161572	22.9594	3171.23	7485.7	8129.72	-67.0406	0.0000000E+000	0.0000000E+000	0.0000000E+000	67.0406	0.0000000E+000	0.0000000E+000	0.0000000E+000	-67.0406	0.0000000E+000	0.0000000E+000	0.0000000E+000	-22.9594	0.0000000E+000	0.0000000E+000	0.0000000E+000	22.9594	2.36051	67.0406	-1.26868e-06	-2.50308e-06	5.99033e-10	-2.50368e-06	0.184671	13618	3.25904	13621.2
1000.32	7.16098	3.84319	8.1271	-28.2218	6.81178	0.184646	-0.00158515	41.3989	9.25768	1	10	0.00489671	0.000602516	0	2.15586e-05	3.21172e-05	8.24298e-06	11.9237	0.0136809	0.0133857	-0.0028266	-28.1597	8.13756	7.17436	3.84036	0.108418	0.0581864	0.123045	28.2218	9257.68	17249.7	19577	-61.7782	0.0000000E+000	0.0000000E+000	0.0000000E+000	61.7782	0.0000000E+000	0.0000000E+000	0.0000000E+000	-61.7782	0.0000000E+000	0.0000000E+000	0.0000000E+000	-28.2218	0.0000000E+000	0.0000000E+000	0.0000000E+000	28.2218	1.86329	61.7782	-6.65459e-07	-2.92693e-07	-5.09106e-11	-2.92642e-07	0.184614	116485	20.2612	116465
316.316	10.1069	7.6134	12.6536	-36.9903	8.16107	0.184649	-0.00152187	66.0877	23.925	1	10	0.00486477	0.000384458	0	2.13159e-05	-0.000196788	6.1462e-06	56.2395	0.0159867	0.00888414	-0.0132908	-36.9181	12.6527	10.1158	7.60011	0.0631235	0.0475503	0.0790291	36.9903	23925	31760.7	39763.6	-53.0097	0.0000000E+000	0.0000000E+000	0.0000000E+000	53.0097	0.0000000E+000	0.0000000E+000	0.0000000E+000	-53.0097	0.0000000E+000	0.0000000E+000	0.0000000E+000	-36.9903	0.0000000E+000	0.0000000E+000	0.0000000E+000	36.9903	1.32751	53.0097	-4.61313e-07	-2.81013e-07	2.99486e-10	-2.81312e-07	0.184846	121330	129.306	121460
100.032	18.6738	13.3009	22.9265	-35.4613	9.75286	0.184699	-0.00479593	119.619	40.2611	1	11	0.00486498	0.000212199	0	1.96393e-05	-0.000215863	5.29038e-06	59.8303	0.0249313	0.0125295	-0.0215541	-35.3992	22.9242	18.6864	13.2793	0.0355269	0.0253049	0.0436176	35.4613	40261.1	56524.7	69397.4	-54.5387	0.0000000E+000	0.0000000E+000	0.0000000E+000	54.5387	0.0000000E+000	0.0000000E+000	0.0000000E+000	-54.5387	0.0000000E+000	0.0000000E+000	0.0000000E+000	-35.4613	0.0000000E+000	0.0000000E+000	0.0000000E+000	35.4613	1.40395	54.5387	-5.96503e-07	-8.85802e-07	1.03526e-09	-8.86837e-07	0.184915	38511.6	45.0097	38556.6
31.6296	32.1361	12.0075	34.3061	-20.488	11.0816	0.184697	-0.00488725	419.058	51.3378	1	11	0.0048448	0.000141223	0	1.80223e-05	-0.000139562	7.49692e-06	67.8474	0.0530857	0.0200173	-0.0491671	-20.3994	34.3077	32.1561	11.9583	0.0273055	0.0102026	0.0291494	20.488	51337.8	137397	146675	-69.512	0.0000000E+000	0.0000000E+000	0.0000000E+000	69.512	0.0000000E+000	0.0000000E+000	0.0000000E+000	-69.512	0.0000000E+000	0.0000000E+000	0.0000000E+000	-20.488	0.0000000E+000	0.0000000E+000	0.0000000E+000	20.488	2.67633	69.512	-3.94139e-07	-9.02659e-07	6.82072e-10	-9.03341e-07	0.184836	37791.5	28.5563	37820.1
10.0032	38.5474	5.98644	39.0095	-8.82756	12.4138	0.184694	-0.00429422	2657.74	62.5906	1	11	0.00484458	0.00012419	0	1.55766e-05	-0.00031124	5.00575e-06	22.1351	0.0403072	0.0373365	-0.0151874	-8.79713	39.0441	38.5847	5.97125	0.0253311	0.00393394	0.0256348	8.82756	62590.6	403029	407860	-81.1724	0.0000000E+000	0.0000000E+000	0.0000000E+000	81.1724	0.0000000E+000	0.0000000E+000	0.0000000E+000	-81.1724	0.0000000E+000	0.0000000E+000	0.0000000E+000	-8.82756	0.0000000E+000	0.0000000E+000	0.0000000E+000	8.82756	6.43912	81.1724	-1.0411e-06	-7.93116e-07	1.33654e-09	-7.94452e-07	0.185005	43009.8	72.4788	43082.2
3.1604	40.3674	2.90446	40.4718	-4.11537	13.9304	0.184711	-0.00279638	17338.6	89.2976	1	11	0.00484131	0.000119622	0	1.52722e-05	-0.00031124	1.14213e-05	-4.87296	0.0954779	0.0951328	0.00811054	-4.11716	40.5672	40.4625	2.91257	0.0246449	0.00177321	0.0247086	4.11537	89297.5	1.2411e+06	1.2443e+06	-85.8846	0.0000000E+000	0.0000000E+000	0.0000000E+000	85.8846	0.0000000E+000	0.0000000E+000	0.0000000E+000	-85.8846	0.0000000E+000	0.0000000E+000	0.0000000E+000	-4.11537	0.0000000E+000	0.0000000E+000	0.0000000E+000	4.11537	13.8984	85.8846	-8.30866e-07	-5.16524e-07	8.70347e-10	-5.17394e-07	0.185023	66053.7	111.301	66165
1.00006	41.3636	2.39019	41.4326	-3.30715	19.2516	0.184719	-0.0025074	66582.5	221.585	1	12	0.00484546	0.000116948	0	9.59938e-06	1.30418e-05	1.99692e-06	-69.3164	0.0170752	0.0060311	0.0159746	-3.32872	41.4395	41.3696	2.40616	0.0240954	0.00139235	0.0241356	3.30715	221585	3.83466e+06	3.84105e+06	-86.6928	0.0000000E+000	0.0000000E+000	0.0000000E+000	86.6928	0.0000000E+000	0.0000000E+000	0.0000000E+000	-86.6928	0.0000000E+000	0.0000000E+000	0.0000000E+000	-3.30715	0.0000000E+000	0.0000000E+000	0.0000000E+000	3.30715	17.3056	86.6928	3.57247e-07	-4.63165e-07	-3.27009e-11	-4.63132e-07	0.184706	73669.6	5.2013	73664.4
0.316193	42.7369	3.11406	42.8502	-4.16754	33.597	0.184717	-0.00134095	161637	853.668	1	12	0.00484734	0.000113123	0	1.72721e-05	-0.000215863	2.59396e-06	-30.8507	0.0229304	0.0196859	0.0117588	-4.1813	42.8707	42.7566	3.12581	0.0232754	0.00169598	0.0233371	4.16754	853667	1.17156e+07	1.17467e+07	-85.8325	0.0000000E+000	0.0000000E+000	0.0000000E+000	85.8325	0.0000000E+000	0.0000000E+000	0.0000000E+000	-85.8325	0.0000000E+000	0.0000000E+000	0.0000000E+000	-4.16754	0.0000000E+000	0.0000000E+000	0.0000000E+000	4.16754	13.7239	85.8325	1.35709e-06	-2.47696e-07	2.89462e-10	-2.47986e-07	0.184933	137750	160.978	137911
0.0999041	44.4936	5.45825	44.8271	-6.99381	78.8062	0.184725	-0.000317149	291866	4327.21	1	12	0.00484851	0.00010816	0	-3.94326e-05	-0.00027309	1.97059e-06	-39.283	0.0182192	0.0141022	0.0115355	-7.00625	44.8425	44.5077	5.46979	0.0221419	0.00271626	0.0223079	6.99381	4.32721e+06	3.52738e+07	3.55382e+07	-83.0062	0.0000000E+000	0.0000000E+000	0.0000000E+000	83.0062	0.0000000E+000	0.0000000E+000	0.0000000E+000	-83.0062	0.0000000E+000	0.0000000E+000	0.0000000E+000	-6.99381	0.0000000E+000	0.0000000E+000	0.0000000E+000	6.99381	8.15162	83.0062	-3.19253e-05	-5.85854e-08	8.66101e-11	-5.86721e-08	0.184998	582455	861.076	583316
0.0315922	47.5527	12.1943	49.0913	-14.3829	221.69	0.184727	-0.000979427	413126	25491	1	12	0.00484584	9.87107e-05	0	-8.00436e-05	-4.41845e-05	2.44552e-06	19.1631	0.0247746	0.0234018	-0.00813246	-14.3669	49.112	47.5761	12.1862	0.0197317	0.00505996	0.0203702	14.3829	2.5491e+07	9.94044e+07	1.02621e+08	-75.6171	0.0000000E+000	0.0000000E+000	0.0000000E+000	75.6171	0.0000000E+000	0.0000000E+000	0.0000000E+000	-75.6171	0.0000000E+000	0.0000000E+000	0.0000000E+000	-14.3829	0.0000000E+000	0.0000000E+000	0.0000000E+000	14.3829	3.89958	75.6171	2.38141e-05	-1.80927e-07	4.32755e-11	-1.8097e-07	0.184772	188608	45.1126	188653
0.0100092	55.1853	28.1302	61.9413	-27.0098	672.913	0.184728	0.000179403	565261	116583	1	12	0.00484737	7.82575e-05	0	0.000296725	-0.000139562	3.33601e-06	-14.9388	0.0426286	0.0411879	0.0109891	-27.0016	61.983	55.2264	28.1412	0.0143834	0.00733184	0.0161443	27.0098	1.16583e+08	2.2871e+08	2.5671e+08	-62.9902	0.0000000E+000	0.0000000E+000	0.0000000E+000	62.9902	0.0000000E+000	0.0000000E+000	0.0000000E+000	-62.9902	0.0000000E+000	0.0000000E+000	0.0000000E+000	-27.0098	0.0000000E+000	0.0000000E+000	0.0000000E+000	27.0098	1.96178	62.9902	0.000115837	3.31408e-08	-2.50377e-11	3.31658e-08	0.184868	1.02969e+06	777.924	1.03046e+06