File: txt/19147_R306_UA711_SOC00_C03.mpt
EC-Lab ASCII FILE
Nb header lines : 66

Potentio Electrochemical Impedance Spectroscopy

Run on channel : 3 (SN 65921)
Grouped channel(s) : 3, 4, 5, 6, 7
User :
CE vs. WE compliance from -10 V to 10 V
Electrode connection : standard
Potential control : Ewe
Ewe ctrl range : min = -10.00 V, max = 10.00 V
Safety Limits :
	Do not start on E overload
Acquisition started on : 11/12/2025 11:40:22.150
Loaded Setting File :  C:\Users\Celltest\OneDrive - store-dot.com\Documents\EC-Lab\Data\@Biologic Test Protocols\anode half cell EIS SOC00.mps
Saved on :
	File : 19147_R306_UA711_SOC00_C03.mpr
	Directory : C:\Users\Celltest\OneDrive - store-dot.com\Documents\EC-Lab\Data\Charmaine\
	Host : 169.254.61.224
Device : VMP-3e (SN .003165)
Address : USB
EC-LAB for windows v11.62 (software)
Internet server v27.00 (firmware)
Command interpretor v12.03 (firmware)
Electrode material :
Initial state :
Electrolyte :
Comments :
Electrode surface area : 0.001 cm²
Characteristic mass : 0.001 g
Equivalent Weight : 0.000 g/eq.
Density : 0.000 g/cm3
Volume (V) : 0.001 cm³
Record Ece
Cycle Definition : Charge/Discharge alternance
Mode                Single sine
E (V)               0.0000
vs.                 Eoc
tE (h:m:s)          0:00:0.0000
record              0
dI                  0.000
unit dI             mA
dt (s)              0.000
fi                  100.000
unit fi             kHz
ff                  10.000
unit ff             mHz
Nd                  6
Points              per decade
spacing             Logarithmic
Va (mV)             5.0
pw                  0.10
Na                  2
corr                0
E range min (V)     -10.000
E range max (V)     10.000
I Range             Auto
Bandwidth           5
nc cycles           0
goto Ns'            0
nr cycles           0
inc. cycle          0

freq/Hz	Re(Z)/Ohm	-Im(Z)/Ohm	|Z|/Ohm	Phase(Z)/deg	time/s	<Ewe>/V	<I>/mA	Cs/µF	Cp/µF	cycle number	I Range	|Ewe|/V	|I|/A	Ns	(Q-Qo)/mA.h	<Ece>/V	|Ece|/V	Phase(Zce)/deg	|Zce|/Ohm	Re(Zce)/Ohm	-Im(Zce)/Ohm	Phase(Zwe-ce)/deg	|Zwe-ce|/Ohm	Re(Zwe-ce)/Ohm	-Im(Zwe-ce)/Ohm	Re(Y)/Ohm-1	Im(Y)/Ohm-1	|Y|/Ohm-1	Phase(Y)/deg	Re(C)/nF	Im(C)/nF	|C|/nF	Phase(C)/deg	Re(M)	Im(M)	|M|	Phase(M)/deg	Re(Permittivity)	Im(Permittivity)	|Permittivity|	Phase(Permittivity)/deg	Re(Resistivity)/Ohm.cm	Im(Resistivity)/Ohm.cm	|Resistivity|/Ohm.cm	Phase(Resistivity)/deg	Re(Conductivity)/mS/cm	Im(Conductivity)/mS/cm	|Conductivity|/mS/cm	Phase(Conductivity)/deg	Tan(Delta)	Loss Angle(Delta)/deg	dq/mA.h	Pwe/W	Pce/W	Pwe-ce/W	<Ewe-Ece>/V	Rwe/Ohm	Rce/Ohm	Rwe-ce/Ohm		Ewe-Ece/V
100004	3.13673	1.08583	3.31935	-19.0941	1.77853	0.197677	0.0428439	1.46569	0.156841	1	9	0.00551305	0.00166088	0	4.59451e-06	-0.000243339	2.97269e-05	46.8356	0.0178982	0.0122441	-0.0130549	-18.8126	3.32669	3.14897	1.07277	0.284689	0.0985496	0.301264	19.0941	156.841	453.08	479.459	-70.9059	0.0000000E+000	0.0000000E+000	0.0000000E+000	70.9059	0.0000000E+000	0.0000000E+000	0.0000000E+000	-70.9059	0.0000000E+000	0.0000000E+000	0.0000000E+000	-19.0941	0.0000000E+000	0.0000000E+000	0.0000000E+000	19.0941	2.88879	70.9059	4.59451e-06	8.46926e-06	-1.04256e-08	8.47969e-06	0.197921	4613.9	5.67968	4619.58
31621.1	4.23713	2.43237	4.88566	-29.8584	3.33052	0.197645	-0.0036512	2.06925	0.512891	1	10	0.00464071	0.000949864	0	3.30673e-05	0.000100354	1.28713e-05	22.3024	0.0135507	0.012537	-0.00514241	-29.7331	4.89399	4.24967	2.42723	0.177511	0.101902	0.204681	29.8584	512.891	893.445	1030.19	-60.1416	0.0000000E+000	0.0000000E+000	0.0000000E+000	60.1416	0.0000000E+000	0.0000000E+000	0.0000000E+000	-60.1416	0.0000000E+000	0.0000000E+000	0.0000000E+000	-29.8584	0.0000000E+000	0.0000000E+000	0.0000000E+000	29.8584	1.74198	60.1416	4.65618e-06	-7.2164e-07	-3.66411e-10	-7.21274e-07	0.197544	54131.5	27.4852	54104.1
10002.2	6.46825	3.01742	7.13744	-25.0089	4.97752	0.197619	-0.0021522	5.27336	0.942485	1	10	0.00456271	0.000639264	0	3.22625e-05	-0.000147869	1.32951e-05	-12.1445	0.0207975	0.020332	0.00437532	-24.9719	7.15772	6.48858	3.0218	0.12697	0.0592313	0.140106	25.0089	942.485	2020.34	2229.36	-64.9911	0.0000000E+000	0.0000000E+000	0.0000000E+000	64.9911	0.0000000E+000	0.0000000E+000	0.0000000E+000	-64.9911	0.0000000E+000	0.0000000E+000	0.0000000E+000	-25.0089	0.0000000E+000	0.0000000E+000	0.0000000E+000	25.0089	2.14363	64.9911	-1.13505e-06	-4.25315e-07	3.18244e-10	-4.25633e-07	0.197767	91822	68.7061	91890.7
3163.08	8.67811	3.33879	9.29823	-21.0436	6.55263	0.197599	-0.00331188	15.0702	1.94312	1	10	0.00507317	0.000545606	0	3.19252e-05	0.000119448	5.29572e-06	26.5119	0.00970613	0.00868545	-0.00433266	-20.9995	9.30479	8.6868	3.33446	0.100375	0.0386179	0.107547	21.0436	1943.12	5050.5	5411.4	-68.9564	0.0000000E+000	0.0000000E+000	0.0000000E+000	68.9564	0.0000000E+000	0.0000000E+000	0.0000000E+000	-68.9564	0.0000000E+000	0.0000000E+000	0.0000000E+000	-21.0436	0.0000000E+000	0.0000000E+000	0.0000000E+000	21.0436	2.59917	68.9564	-1.2342e-06	-6.54427e-07	-3.95597e-10	-6.54031e-07	0.19748	59663.8	36.0664	59627.7
1000.32	10.7764	4.42909	11.6511	-22.3426	7.90578	0.197607	-0.00266306	35.9225	5.19116	1	10	0.00528287	0.000453424	0	3.11582e-05	-9.0587e-05	7.00518e-06	-132.687	0.0154495	-0.0104746	0.0113565	-22.4139	11.6457	10.7659	4.44045	0.0793856	0.0326275	0.085829	22.3426	5191.16	12630.6	13655.7	-67.6573	0.0000000E+000	0.0000000E+000	0.0000000E+000	67.6573	0.0000000E+000	0.0000000E+000	0.0000000E+000	-67.6573	0.0000000E+000	0.0000000E+000	0.0000000E+000	-22.3426	0.0000000E+000	0.0000000E+000	0.0000000E+000	22.3426	2.43309	67.6573	9.69949e-08	-5.2624e-07	2.41238e-10	-5.26481e-07	0.197698	74203.1	34.0161	74237.1
316.316	13.9161	7.67974	15.8946	-28.8925	9.25505	0.197605	-0.00284205	65.5168	15.295	1	10	0.00515032	0.000324031	0	2.99253e-05	-0.000166963	6.12458e-06	110.672	0.0189013	-0.00667261	-0.0176843	-28.8483	15.8802	13.9094	7.66206	0.0550835	0.0303983	0.0629146	28.8925	15295	27715.4	31655.6	-61.1075	0.0000000E+000	0.0000000E+000	0.0000000E+000	61.1075	0.0000000E+000	0.0000000E+000	0.0000000E+000	-61.1075	0.0000000E+000	0.0000000E+000	0.0000000E+000	-28.8925	0.0000000E+000	0.0000000E+000	0.0000000E+000	28.8925	1.81206	61.1075	-9.12054e-08	-5.61602e-07	4.74517e-10	-5.62077e-07	0.197772	69529	58.7475	69587.7
100.032	21.9962	13.1986	25.6522	-30.9654	10.8478	0.197616	-0.00579011	120.546	31.9124	1	11	0.00512812	0.00019991	0	2.8594e-05	8.12596e-05	1.06175e-05	77.7015	0.0531114	0.011313	-0.0518926	-30.853	25.6352	22.0075	13.1467	0.0334271	0.0200576	0.038983	30.9654	31912.4	53183.8	62023.6	-59.0346	0.0000000E+000	0.0000000E+000	0.0000000E+000	59.0346	0.0000000E+000	0.0000000E+000	0.0000000E+000	-59.0346	0.0000000E+000	0.0000000E+000	0.0000000E+000	-30.9654	0.0000000E+000	0.0000000E+000	0.0000000E+000	30.9654	1.66656	59.0346	-8.88453e-07	-1.14422e-06	-4.70502e-10	-1.14375e-06	0.197535	34129.9	14.0342	34115.9
31.6296	35.7123	13.2021	38.0744	-20.2882	12.1765	0.197632	-0.00488247	381.141	45.8249	1	11	0.00510689	0.000134129	0	2.63765e-05	-5.23988e-05	1.15017e-05	38.1036	0.0857507	0.0674768	-0.0529155	-20.1785	38.1194	35.7798	13.1491	0.0246349	0.00910699	0.0262643	20.2882	45824.9	123959	132158	-69.7118	0.0000000E+000	0.0000000E+000	0.0000000E+000	69.7118	0.0000000E+000	0.0000000E+000	0.0000000E+000	-69.7118	0.0000000E+000	0.0000000E+000	0.0000000E+000	-20.2882	0.0000000E+000	0.0000000E+000	0.0000000E+000	20.2882	2.70506	69.7118	-8.80303e-07	-9.64931e-07	2.55836e-10	-9.65187e-07	0.197684	40477.8	10.732	40488.6
10.0032	43.6251	7.06892	44.1941	-9.2041	13.5088	0.197638	-0.00472548	2250.75	57.5845	1	11	0.00509365	0.000115256	0	2.51375e-05	-0.000453374	6.30311e-06	-2.1408	0.0546878	0.0546496	0.00204288	-9.19539	44.2484	43.6797	7.07096	0.0223361	0.0036193	0.0226275	9.2041	57584.5	355377	360012	-80.7959	0.0000000E+000	0.0000000E+000	0.0000000E+000	80.7959	0.0000000E+000	0.0000000E+000	0.0000000E+000	-80.7959	0.0000000E+000	0.0000000E+000	0.0000000E+000	-9.2041	0.0000000E+000	0.0000000E+000	0.0000000E+000	9.2041	6.17139	80.7959	3.66177e-07	-9.33935e-07	2.14241e-09	-9.36077e-07	0.198092	41824	95.9426	41919.9
3.1604	45.9089	3.28707	46.0264	-4.09538	15.0255	0.19764	-0.0044939	15320.4	78.14	1	11	0.00509663	0.000110733	0	2.37864e-05	-3.33048e-05	8.31683e-06	51.7934	0.0751072	0.0464537	-0.0590182	-4.01804	46.0686	45.9554	3.22805	0.0216712	0.00155165	0.0217266	4.09538	78140	1.09134e+06	1.09414e+06	-85.9046	0.0000000E+000	0.0000000E+000	0.0000000E+000	85.9046	0.0000000E+000	0.0000000E+000	0.0000000E+000	-85.9046	0.0000000E+000	0.0000000E+000	0.0000000E+000	-4.09538	0.0000000E+000	0.0000000E+000	0.0000000E+000	4.09538	13.9665	85.9046	6.53134e-07	-8.88175e-07	1.49668e-10	-8.88325e-07	0.197673	43979.6	7.4111	43987
1.00006	46.9247	2.27107	46.9796	-2.77085	20.3446	0.197642	-0.00377929	70074.7	163.759	1	12	0.00510432	0.00010865	0	1.41446e-05	-9.0587e-05	3.51618e-06	16.9832	0.0323625	0.0309512	-0.00945282	-2.75752	47.0101	46.9557	2.26162	0.0212609	0.00102899	0.0212858	2.77085	163759	3.38357e+06	3.38753e+06	-87.2291	0.0000000E+000	0.0000000E+000	0.0000000E+000	87.2291	0.0000000E+000	0.0000000E+000	0.0000000E+000	-87.2291	0.0000000E+000	0.0000000E+000	0.0000000E+000	-2.77085	0.0000000E+000	0.0000000E+000	0.0000000E+000	2.77085	20.6619	87.2291	-5.72363e-06	-7.46948e-07	3.42354e-10	-7.4729e-07	0.197733	52296.1	23.9693	52320.1
0.316193	48.1088	2.95347	48.1994	-3.51307	34.6869	0.197639	-0.00370799	170426	639.909	1	12	0.00510459	0.000105906	0	4.05195e-06	0.000214918	1.52173e-06	-52.0753	0.0143687	0.00883135	0.0113343	-3.52587	48.2089	48.1176	2.96481	0.0207082	0.00127131	0.0207472	3.51307	639909	1.04234e+07	1.0443e+07	-86.4869	0.0000000E+000	0.0000000E+000	0.0000000E+000	86.4869	0.0000000E+000	0.0000000E+000	0.0000000E+000	-86.4869	0.0000000E+000	0.0000000E+000	0.0000000E+000	-3.51307	0.0000000E+000	0.0000000E+000	0.0000000E+000	3.51307	16.2889	86.4869	2.55616e-07	-7.32842e-07	-7.96914e-10	-7.32045e-07	0.197424	53300.8	57.9608	53242.8
0.0999041	49.8386	5.11007	50.0999	-5.85422	79.8949	0.19763	-0.00122442	311752	3243.32	1	12	0.00510429	0.000101882	0	1.27819e-05	4.88337e-06	2.58297e-06	-15.5106	0.0253525	0.0244292	0.00677968	-5.85908	50.1249	49.863	5.11685	0.019856	0.00203589	0.0199601	5.85422	3.24332e+06	3.16322e+07	3.1798e+07	-84.1458	0.0000000E+000	0.0000000E+000	0.0000000E+000	84.1458	0.0000000E+000	0.0000000E+000	0.0000000E+000	-84.1458	0.0000000E+000	0.0000000E+000	0.0000000E+000	-5.85422	0.0000000E+000	0.0000000E+000	0.0000000E+000	5.85422	9.75301	84.1458	-1.75283e-06	-2.41982e-07	-5.97928e-12	-2.41976e-07	0.197625	161408	3.98833	161404
0.0315922	52.556	10.9247	53.6794	-11.7428	222.779	0.197627	-0.000747509	461136	19100.1	1	12	0.00510291	9.50627e-05	0	-0.00016019	-1.42107e-05	1.85199e-06	30.7623	0.0194817	0.0167406	-0.00996448	-11.7287	53.6938	52.5727	10.9148	0.0182392	0.00379136	0.0186291	11.7428	1.91001e+07	9.18854e+07	9.38496e+07	-78.2572	0.0000000E+000	0.0000000E+000	0.0000000E+000	78.2572	0.0000000E+000	0.0000000E+000	0.0000000E+000	-78.2572	0.0000000E+000	0.0000000E+000	0.0000000E+000	-11.7428	0.0000000E+000	0.0000000E+000	0.0000000E+000	11.7428	4.81073	78.2572	-9.7711e-05	-1.47728e-07	1.06226e-11	-1.47739e-07	0.197642	264381	19.0107	264400
0.0146812	56.508	19.965	59.9312	-19.4589	463.818	0.197626	-0.000993438	542989	60258.9	1	12	0.00510423	8.51681e-05	0	-0.000304858	2.39774e-05	2.0536e-06	4.03111	0.0241124	0.0240527	-0.00169505	-19.4497	59.9533	56.532	19.9633	0.0157327	0.00555856	0.0166858	19.4589	6.02589e+07	1.70554e+08	1.80887e+08	-70.5411	0.0000000E+000	0.0000000E+000	0.0000000E+000	70.5411	0.0000000E+000	0.0000000E+000	0.0000000E+000	-70.5411	0.0000000E+000	0.0000000E+000	0.0000000E+000	-19.4589	0.0000000E+000	0.0000000E+000	0.0000000E+000	19.4589	2.83036	70.5411	-3.86586e-05	-1.96329e-07	-2.38201e-11	-1.96305e-07	0.197602	198931	24.1358	198907

0.0100092	59.0142	26.6704	64.761	-24.3197	673.998	0.197635	-0.000720989	596201	101117	1	12	0.00510433	7.88179e-05	0	-0.000190832	0.000157636	2.20227e-06	4.88375	0.0279412	0.0278398	-0.00237876	-24.3077	64.7854	59.0421	26.668	0.0140711	0.00635919	0.0154414	24.3197	1.01117e+08	2.23744e+08	2.45532e+08	-65.6803	0.0000000E+000	0.0000000E+000	0.0000000E+000	65.6803	0.0000000E+000	0.0000000E+000	0.0000000E+000	-65.6803	0.0000000E+000	0.0000000E+000	0.0000000E+000	-24.3197	0.0000000E+000	0.0000000E+000	0.0000000E+000	24.3197	2.21272	65.6803	0.000114026	-1.42492e-07	-1.13654e-10	-1.42379e-07	0.197477	274116	218.638	273897