File: txt/19142_R306_UA710_SOC00_C06.mpt
EC-Lab ASCII FILE
Nb header lines : 66

Potentio Electrochemical Impedance Spectroscopy

Run on channel : 6 (SN 65795)
Grouped channel(s) : 6, 7, 8
User :
CE vs. WE compliance from -10 V to 10 V
Electrode connection : standard
Potential control : Ewe
Ewe ctrl range : min = -10.00 V, max = 10.00 V
Safety Limits :
	Do not start on E overload
Acquisition started on : 11/12/2025 11:20:50.497
Technique started on : 11/12/2025 11:20:52.551
Loaded Setting File :  C:\Users\Celltest\OneDrive - store-dot.com\Documents\EC-Lab\Data\@Biologic Test Protocols\anode half cell EIS SOC00.mps
Saved on :
	File : 19142_R306_UA710_SOC00_C06.mpr
	Directory : C:\Users\Celltest\OneDrive - store-dot.com\Documents\EC-Lab\Data\Charmaine\
	Host : 169.254.61.224
Device : VMP-3e (SN .003165)
Address : USB
EC-LAB for windows v11.62 (software)
Internet server v27.00 (firmware)
Command interpretor v12.03 (firmware)
Electrode material :
Initial state :
Electrolyte :
Comments :
Electrode surface area : 0.001 cm²
Characteristic mass : 0.001 g
Equivalent Weight : 0.000 g/eq.
Density : 0.000 g/cm3
Volume (V) : 0.001 cm³
Record Ece
Cycle Definition : Charge/Discharge alternance
Mode                Single sine
E (V)               0.0000
vs.                 Eoc
tE (h:m:s)          0:00:0.0000
record              0
dI                  0.000
unit dI             mA
dt (s)              0.000
fi                  100.000
unit fi             kHz
ff                  10.000
unit ff             mHz
Nd                  6
Points              per decade
spacing             Logarithmic
Va (mV)             5.0
pw                  0.10
Na                  2
corr                0
E range min (V)     -10.000
E range max (V)     10.000
I Range             Auto
Bandwidth           5
nc cycles           0
goto Ns'            0
nr cycles           0
inc. cycle          0

freq/Hz	Re(Z)/Ohm	-Im(Z)/Ohm	|Z|/Ohm	Phase(Z)/deg	time/s	<Ewe>/V	<I>/mA	Cs/µF	Cp/µF	cycle number	I Range	|Ewe|/V	|I|/A	Ns	(Q-Qo)/mA.h	<Ece>/V	|Ece|/V	Phase(Zce)/deg	|Zce|/Ohm	Re(Zce)/Ohm	-Im(Zce)/Ohm	Phase(Zwe-ce)/deg	|Zwe-ce|/Ohm	Re(Zwe-ce)/Ohm	-Im(Zwe-ce)/Ohm	Re(Y)/Ohm-1	Im(Y)/Ohm-1	|Y|/Ohm-1	Phase(Y)/deg	Re(C)/nF	Im(C)/nF	|C|/nF	Phase(C)/deg	Re(M)	Im(M)	|M|	Phase(M)/deg	Re(Permittivity)	Im(Permittivity)	|Permittivity|	Phase(Permittivity)/deg	Re(Resistivity)/Ohm.cm	Im(Resistivity)/Ohm.cm	|Resistivity|/Ohm.cm	Phase(Resistivity)/deg	Re(Conductivity)/mS/cm	Im(Conductivity)/mS/cm	|Conductivity|/mS/cm	Phase(Conductivity)/deg	Tan(Delta)	Loss Angle(Delta)/deg	dq/mA.h	Pwe/W	Pce/W	Pwe-ce/W	<Ewe-Ece>/V	Rwe/Ohm	Rce/Ohm	Rwe-ce/Ohm		Ewe-Ece/V
100004	1.82541	1.04049	2.10113	-29.6833	2.05353	0.193805	0.0461459	1.52956	0.375091	1	9	0.00493698	0.00234968	0	-2.03932e-06	-0.000126979	3.70297e-05	55.2695	0.0157595	0.00897844	-0.0129518	-29.2555	2.10258	1.83439	1.02754	0.41348	0.235685	0.475934	29.6833	375.091	658.05	757.445	-60.3167	0.0000000E+000	0.0000000E+000	0.0000000E+000	60.3167	0.0000000E+000	0.0000000E+000	0.0000000E+000	-60.3167	0.0000000E+000	0.0000000E+000	0.0000000E+000	-29.6833	0.0000000E+000	0.0000000E+000	0.0000000E+000	29.6833	1.75437	60.3167	-2.03932e-06	8.94329e-06	-5.85954e-09	8.94915e-06	0.193932	4199.83	2.75168	4202.58
31621.1	2.89045	1.72401	3.36555	-30.8139	3.20454	0.19377	0.0335181	2.91947	0.766073	1	9	0.00546514	0.00162385	0	1.32374e-05	8.30997e-05	1.80189e-05	-0.509157	0.0110964	0.0110959	9.86064e-05	-30.7189	3.37513	2.90155	1.7241	0.255184	0.152204	0.297128	30.8139	766.073	1284.39	1495.5	-59.1861	0.0000000E+000	0.0000000E+000	0.0000000E+000	59.1861	0.0000000E+000	0.0000000E+000	0.0000000E+000	-59.1861	0.0000000E+000	0.0000000E+000	0.0000000E+000	-30.8139	0.0000000E+000	0.0000000E+000	0.0000000E+000	30.8139	1.67659	59.1861	2.44338e-06	6.49479e-06	2.78534e-09	6.49201e-06	0.193687	5781.05	2.47925	5778.57
10002.2	4.3771	2.11002	4.85914	-25.7368	4.63252	0.193753	-0.00581782	7.54114	1.42197	1	10	0.00491515	0.00101153	0	2.12741e-05	0.000350472	7.63673e-06	13.7592	0.00754969	0.00733304	-0.00179564	-25.6802	4.86497	4.38444	2.10822	0.185382	0.0893651	0.205798	25.7368	1421.97	2949.8	3274.65	-64.2632	0.0000000E+000	0.0000000E+000	0.0000000E+000	64.2632	0.0000000E+000	0.0000000E+000	0.0000000E+000	-64.2632	0.0000000E+000	0.0000000E+000	0.0000000E+000	-25.7368	0.0000000E+000	0.0000000E+000	0.0000000E+000	25.7368	2.07444	64.2632	1.70048e-06	-1.12722e-06	-2.03899e-09	-1.12518e-06	0.193402	33303.3	60.2411	33243.1
3163.08	5.82086	2.55951	6.35873	-23.7358	5.78067	0.193714	-0.0086351	19.6586	3.18512	1	10	0.0052944	0.000832619	0	2.02023e-05	0.000254982	4.25034e-06	-160.554	0.00510478	-0.00481357	0.00169951	-23.7673	6.35501	5.81604	2.56121	0.143961	0.0633018	0.157264	23.7358	3185.12	7243.62	7912.97	-66.2642	0.0000000E+000	0.0000000E+000	0.0000000E+000	66.2642	0.0000000E+000	0.0000000E+000	0.0000000E+000	-66.2642	0.0000000E+000	0.0000000E+000	0.0000000E+000	-23.7358	0.0000000E+000	0.0000000E+000	0.0000000E+000	23.7358	2.2742	66.2642	-1.91504e-07	-1.67274e-06	-2.2018e-09	-1.67054e-06	0.193459	22433.3	29.5285	22403.8
1000.32	7.35888	4.09112	8.41964	-29.0716	7.1338	0.193709	-0.0049719	38.8901	9.18198	1	10	0.00512672	0.0006089	0	1.8563e-05	-1.23905e-05	7.84899e-06	67.7475	0.0128904	0.00488147	-0.0119304	-28.9845	8.41812	7.36376	4.07919	0.103806	0.0577106	0.11877	29.0716	9181.98	16516	18896.8	-60.9284	0.0000000E+000	0.0000000E+000	0.0000000E+000	60.9284	0.0000000E+000	0.0000000E+000	0.0000000E+000	-60.9284	0.0000000E+000	0.0000000E+000	0.0000000E+000	-29.0716	0.0000000E+000	0.0000000E+000	0.0000000E+000	29.0716	1.79874	60.9284	-5.80557e-07	-9.631e-07	6.16042e-11	-9.63161e-07	0.193721	38960.7	2.4921	38963.1
316.316	10.3618	8.17244	13.1968	-38.2632	8.48401	0.193699	-0.00499427	61.5669	23.611	1	10	0.00498005	0.000377368	0	1.7254e-05	6.40017e-05	9.62747e-06	3.44803	0.0255122	0.025466	-0.00153438	-38.1896	13.2158	10.3872	8.17091	0.0594974	0.0469262	0.075776	38.2632	23611	29936.2	38126.8	-51.7368	0.0000000E+000	0.0000000E+000	0.0000000E+000	51.7368	0.0000000E+000	0.0000000E+000	0.0000000E+000	-51.7368	0.0000000E+000	0.0000000E+000	0.0000000E+000	-38.2632	0.0000000E+000	0.0000000E+000	0.0000000E+000	38.2632	1.26789	51.7368	-2.97739e-07	-9.67385e-07	-3.19642e-10	-9.67065e-07	0.193635	38784.3	12.815	38771.4
100.032	19.6282	14.5352	24.4241	-36.521	10.0768	0.193728	-0.00590114	109.461	38.7672	1	11	0.00496336	0.000203216	0	1.4895e-05	0.00017859	4.59833e-06	-113.49	0.0226278	-0.0090193	0.0207526	-36.5727	24.4292	19.6191	14.556	0.0329035	0.024366	0.0409432	36.521	38767.2	52350.8	65142.2	-53.479	0.0000000E+000	0.0000000E+000	0.0000000E+000	53.479	0.0000000E+000	0.0000000E+000	0.0000000E+000	-53.479	0.0000000E+000	0.0000000E+000	0.0000000E+000	-36.521	0.0000000E+000	0.0000000E+000	0.0000000E+000	36.521	1.35039	53.479	-1.00946e-06	-1.14322e-06	-1.05388e-09	-1.14216e-06	0.19355	32829	30.2636	32798.7
31.6296	34.44	13.6232	37.0365	-21.5819	11.4056	0.193721	-0.00603022	369.358	49.9742	1	11	0.00493677	0.000133295	0	1.24745e-05	0.000235884	1.26658e-05	112.299	0.0950211	-0.0360549	-0.087915	-21.4758	36.9707	34.4039	13.5353	0.0251074	0.00993159	0.0270004	21.5819	49974.2	126337	135862	-68.4181	0.0000000E+000	0.0000000E+000	0.0000000E+000	68.4181	0.0000000E+000	0.0000000E+000	0.0000000E+000	-68.4181	0.0000000E+000	0.0000000E+000	0.0000000E+000	-21.5819	0.0000000E+000	0.0000000E+000	0.0000000E+000	21.5819	2.52804	68.4181	-9.82664e-07	-1.16818e-06	-1.42243e-09	-1.16676e-06	0.193485	32125	39.117	32085.9
10.0032	41.9719	7.37114	42.6142	-9.96076	12.7378	0.193715	-0.00567581	2158.47	64.5813	1	11	0.004938	0.000115877	0	1.07445e-05	0.000235884	7.405e-06	45.79	0.063904	0.0445596	-0.0458056	-9.8898	42.6502	42.0164	7.32533	0.0231126	0.00405906	0.0234663	9.96076	64581.2	367731	373359	-80.0392	0.0000000E+000	0.0000000E+000	0.0000000E+000	80.0392	0.0000000E+000	0.0000000E+000	0.0000000E+000	-80.0392	0.0000000E+000	0.0000000E+000	0.0000000E+000	-9.96076	0.0000000E+000	0.0000000E+000	0.0000000E+000	9.96076	5.69408	80.0392	2.13209e-07	-1.09949e-06	-1.33883e-09	-1.09815e-06	0.193479	34129.9	41.5595	34088.3
3.1604	44.682	4.46198	44.9043	-5.70268	14.2555	0.193709	-0.00541989	11286.3	111.437	1	11	0.00493969	0.000110005	0	9.09282e-06	-1.23905e-05	7.52415e-06	-78.0585	0.0683983	0.0141525	0.0669181	-5.78581	44.9251	44.6962	4.52889	0.0221594	0.00221285	0.0222696	5.70268	111437	1.11593e+06	1.12148e+06	-84.2973	0.0000000E+000	0.0000000E+000	0.0000000E+000	84.2973	0.0000000E+000	0.0000000E+000	0.0000000E+000	-84.2973	0.0000000E+000	0.0000000E+000	0.0000000E+000	-5.70268	0.0000000E+000	0.0000000E+000	0.0000000E+000	5.70268	10.014	84.2973	5.11029e-07	-1.04988e-06	6.7155e-11	-1.04995e-06	0.193721	35740.3	2.28611	35742.6
1.00006	46.9614	3.7398	47.1101	-4.55318	19.577	0.193717	-0.00403301	42554.3	268.172	1	12	0.00493619	0.00010478	0	-1.21555e-06	0.000159492	2.60735e-06	5.00152	0.0248841	0.0247893	-0.00216945	-4.54816	47.1346	46.9862	3.73763	0.0211599	0.00168508	0.0212269	4.55318	268172	3.36749e+06	3.37815e+06	-85.4468	0.0000000E+000	0.0000000E+000	0.0000000E+000	85.4468	0.0000000E+000	0.0000000E+000	0.0000000E+000	-85.4468	0.0000000E+000	0.0000000E+000	0.0000000E+000	-4.55318	0.0000000E+000	0.0000000E+000	0.0000000E+000	4.55318	12.5572	85.4468	-5.67491e-06	-7.81263e-07	-6.43233e-10	-7.8062e-07	0.193557	48032.8	39.5466	47993.2
0.316193	49.2576	4.11459	49.4292	-4.77495	33.919	0.193721	-0.00357799	122332	847.672	1	12	0.00493548	9.98495e-05	0	-1.01288e-05	0.00017859	3.19084e-06	-13.0736	0.0319565	0.0311282	0.00722863	-4.78029	49.4608	49.2887	4.12182	0.0201608	0.00168407	0.020231	4.77495	847672	1.01479e+07	1.01832e+07	-85.2251	0.0000000E+000	0.0000000E+000	0.0000000E+000	85.2251	0.0000000E+000	0.0000000E+000	0.0000000E+000	-85.2251	0.0000000E+000	0.0000000E+000	0.0000000E+000	-4.77495	0.0000000E+000	0.0000000E+000	0.0000000E+000	4.77495	11.9715	85.2251	5.88856e-07	-6.9313e-07	-6.38993e-10	-6.92491e-07	0.193542	54142.3	49.9135	54092.4
0.0999041	51.5811	5.93508	51.9215	-6.56376	79.1266	0.193735	-0.000849021	268417	3507.27	1	12	0.00493752	9.5096e-05	0	-3.53278e-06	0.00027408	1.90999e-06	-39.1558	0.0200849	0.0155745	0.0126823	-6.5757	51.9384	51.5967	5.94776	0.0191336	0.00220157	0.0192599	6.56376	3.50727e+06	3.04813e+07	3.06824e+07	-83.4362	0.0000000E+000	0.0000000E+000	0.0000000E+000	83.4362	0.0000000E+000	0.0000000E+000	0.0000000E+000	-83.4362	0.0000000E+000	0.0000000E+000	0.0000000E+000	-6.56376	0.0000000E+000	0.0000000E+000	0.0000000E+000	6.56376	8.69089	83.4362	-3.04128e-06	-1.64485e-07	-2.327e-10	-1.64252e-07	0.19346	228186	322.819	227863
0.0315922	54.6414	12.1636	55.9789	-12.5499	222.011	0.193723	-0.000519249	414169	19554.9	1	12	0.00493328	8.81276e-05	0	-0.000162785	6.40017e-05	1.34131e-06	-22.7373	0.0152201	0.0140373	0.00588265	-12.5526	55.9939	54.6554	12.1695	0.0174371	0.00388164	0.0178639	12.5499	1.95549e+07	8.78443e+07	8.99945e+07	-77.4501	0.0000000E+000	0.0000000E+000	0.0000000E+000	77.4501	0.0000000E+000	0.0000000E+000	0.0000000E+000	-77.4501	0.0000000E+000	0.0000000E+000	0.0000000E+000	-12.5499	0.0000000E+000	0.0000000E+000	0.0000000E+000	12.5499	4.49219	77.4501	-8.63836e-05	-1.00591e-07	-3.32328e-11	-1.00557e-07	0.193659	373083	123.258	372960
0.0100092	61.9362	29.0842	68.425	-25.154	673.233	0.193722	-0.000494761	546720	98775.5	1	12	0.00493463	7.21174e-05	0	-0.000133674	0.000312276	2.80883e-06	25.3164	0.0389481	0.0352075	-0.0166548	-25.1288	68.4498	61.9714	29.0675	0.0132286	0.00621194	0.0146145	25.154	9.87755e+07	2.10347e+08	2.32385e+08	-64.846	0.0000000E+000	0.0000000E+000	0.0000000E+000	64.846	0.0000000E+000	0.0000000E+000	0.0000000E+000	-64.846	0.0000000E+000	0.0000000E+000	0.0000000E+000	-25.154	0.0000000E+000	0.0000000E+000	0.0000000E+000	25.154	2.12955	64.846	0.000128766	-9.58462e-08	-1.54502e-10	-9.56917e-08	0.19341	391548	631.166	390916