File: txt/19141_R306_UA703_SOC00_C05.mpt
EC-Lab ASCII FILE
Nb header lines : 65

Potentio Electrochemical Impedance Spectroscopy

Run on channel : 5 (SN 65912)
Grouped channel(s) : 1, 2, 3, 4, 5
User :
CE vs. WE compliance from -10 V to 10 V
Electrode connection : standard
Potential control : Ewe
Ewe ctrl range : min = -10.00 V, max = 10.00 V
Safety Limits :
	Do not start on E overload
Acquisition started on : 11/12/2025 11:20:24.450
Loaded Setting File :  C:\Users\Celltest\OneDrive - store-dot.com\Documents\EC-Lab\Data\@Biologic Test Protocols\anode half cell EIS SOC00.mps
Saved on :
	File : 19137_R306_UA703_SOC00_C05.mpr
	Directory : C:\Users\Celltest\OneDrive - store-dot.com\Documents\EC-Lab\Data\Charmaine\
	Host : 169.254.61.224
Device : VMP-3e (SN .003165)
Address : USB
EC-LAB for windows v11.62 (software)
Internet server v27.00 (firmware)
Command interpretor v12.03 (firmware)
Electrode material :
Initial state :
Electrolyte :
Comments :
Electrode surface area : 0.001 cm²
Characteristic mass : 0.001 g
Equivalent Weight : 0.000 g/eq.
Density : 0.000 g/cm3
Volume (V) : 0.001 cm³
Record Ece
Cycle Definition : Charge/Discharge alternance
Mode                Single sine
E (V)               0.0000
vs.                 Eoc
tE (h:m:s)          0:00:0.0000
record              0
dI                  0.000
unit dI             mA
dt (s)              0.000
fi                  100.000
unit fi             kHz
ff                  10.000
unit ff             mHz
Nd                  6
Points              per decade
spacing             Logarithmic
Va (mV)             5.0
pw                  0.10
Na                  2
corr                0
E range min (V)     -10.000
E range max (V)     10.000
I Range             Auto
Bandwidth           5
nc cycles           0
goto Ns'            0
nr cycles           0
inc. cycle          0

freq/Hz	Re(Z)/Ohm	-Im(Z)/Ohm	|Z|/Ohm	Phase(Z)/deg	time/s	<Ewe>/V	<I>/mA	Cs/µF	Cp/µF	cycle number	I Range	|Ewe|/V	|I|/A	Ns	(Q-Qo)/mA.h	<Ece>/V	|Ece|/V	Phase(Zce)/deg	|Zce|/Ohm	Re(Zce)/Ohm	-Im(Zce)/Ohm	Phase(Zwe-ce)/deg	|Zwe-ce|/Ohm	Re(Zwe-ce)/Ohm	-Im(Zwe-ce)/Ohm	Re(Y)/Ohm-1	Im(Y)/Ohm-1	|Y|/Ohm-1	Phase(Y)/deg	Re(C)/nF	Im(C)/nF	|C|/nF	Phase(C)/deg	Re(M)	Im(M)	|M|	Phase(M)/deg	Re(Permittivity)	Im(Permittivity)	|Permittivity|	Phase(Permittivity)/deg	Re(Resistivity)/Ohm.cm	Im(Resistivity)/Ohm.cm	|Resistivity|/Ohm.cm	Phase(Resistivity)/deg	Re(Conductivity)/mS/cm	Im(Conductivity)/mS/cm	|Conductivity|/mS/cm	Phase(Conductivity)/deg	Tan(Delta)	Loss Angle(Delta)/deg	dq/mA.h	Pwe/W	Pce/W	Pwe-ce/W	<Ewe-Ece>/V	Rwe/Ohm	Rce/Ohm	Rwe-ce/Ohm		Ewe-Ece/V
100004	1.1601	0.465212	1.2499	-21.8513	1.72556	0.264301	-0.0267224	3.421	0.47392	1	9	0.00481735	0.00385418	0	-5.33333e-06	-0.000119398	4.49104e-05	109.441	0.0116524	-0.00387826	-0.010988	-21.4475	1.24224	1.15622	0.454224	0.742581	0.297783	0.800064	21.8513	473.92	1181.81	1273.29	-68.1487	0.0000000E+000	0.0000000E+000	0.0000000E+000	68.1487	0.0000000E+000	0.0000000E+000	0.0000000E+000	-68.1487	0.0000000E+000	0.0000000E+000	0.0000000E+000	-21.8513	0.0000000E+000	0.0000000E+000	0.0000000E+000	21.8513	2.4937	68.1487	-5.33333e-06	-7.06277e-06	3.1906e-09	-7.06596e-06	0.264421	9890.61	4.46807	9895.08
31621.1	1.57498	0.625288	1.69456	-21.6538	3.24652	0.264272	-0.0298506	8.04938	1.096	1	9	0.00504543	0.00297743	0	-4.39744e-05	-2.39417e-05	1.12354e-05	23.9439	0.00377352	0.00344879	-0.00153145	-21.5628	1.6972	1.57842	0.623757	0.548479	0.217754	0.590124	21.6538	1096	2760.59	2970.2	-68.3462	0.0000000E+000	0.0000000E+000	0.0000000E+000	68.3462	0.0000000E+000	0.0000000E+000	0.0000000E+000	-68.3462	0.0000000E+000	0.0000000E+000	0.0000000E+000	-21.6538	0.0000000E+000	0.0000000E+000	0.0000000E+000	21.6538	2.5188	68.3462	-1.88053e-05	-7.88869e-06	7.14674e-10	-7.88941e-06	0.264296	8853.17	0.802051	8853.97
10002.2	2.0576	0.791042	2.20442	-21.0292	4.27554	0.264266	-0.0218068	20.1152	2.59021	1	9	0.00503656	0.00228475	0	-4.62255e-05	9.06056e-05	5.22022e-06	-117.942	0.00228481	-0.00107063	0.00201844	-21.0882	2.20415	2.05653	0.79306	0.423421	0.162784	0.453634	21.0292	2590.21	6737.46	7218.21	-68.9708	0.0000000E+000	0.0000000E+000	0.0000000E+000	68.9708	0.0000000E+000	0.0000000E+000	0.0000000E+000	-68.9708	0.0000000E+000	0.0000000E+000	0.0000000E+000	-21.0292	0.0000000E+000	0.0000000E+000	0.0000000E+000	21.0292	2.60113	68.9708	-2.19378e-06	-5.7628e-06	-1.97582e-09	-5.76083e-06	0.264175	12118.5	4.15492	12114.3
3163.08	2.65226	1.11235	2.87607	-22.7531	5.17362	0.264062	-0.0945734	45.2343	6.76632	1	9	0.00460974	0.00160279	0	-6.00683e-05	0.000205153	9.26537e-06	-111.876	0.00578078	-0.00215393	0.00536451	-22.8682	2.87617	2.6501	1.11772	0.320639	0.134475	0.347696	22.7531	6766.32	16133.4	17494.8	-67.2469	0.0000000E+000	0.0000000E+000	0.0000000E+000	67.2469	0.0000000E+000	0.0000000E+000	0.0000000E+000	-67.2469	0.0000000E+000	0.0000000E+000	0.0000000E+000	-22.7531	0.0000000E+000	0.0000000E+000	0.0000000E+000	22.7531	2.38437	67.2469	-7.57969e-06	-2.49732e-05	-1.9402e-08	-2.49538e-05	0.263856	2792.13	2.16924	2789.96
1000.32	3.45471	1.70912	3.85436	-26.3225	6.77385	0.264199	-0.0257607	93.0914	18.3041	1	10	0.0046207	0.00119882	0	-6.34661e-05	0.000186062	5.06156e-06	76.5269	0.00422211	0.000983706	-0.00410591	-26.2613	3.85343	3.4557	1.70501	0.232545	0.115045	0.259446	26.3225	18304.1	36998.8	41278.9	-63.6775	0.0000000E+000	0.0000000E+000	0.0000000E+000	63.6775	0.0000000E+000	0.0000000E+000	0.0000000E+000	-63.6775	0.0000000E+000	0.0000000E+000	0.0000000E+000	-26.3225	0.0000000E+000	0.0000000E+000	0.0000000E+000	26.3225	2.02134	63.6775	-4.02845e-06	-6.80593e-06	-4.79307e-09	-6.80114e-06	0.264013	10255.9	7.2227	10248.7
316.316	4.74938	3.00265	5.61895	-32.3019	8.12401	0.264205	-0.0265538	167.569	47.8514	1	10	0.00452833	0.000805903	0	-7.19512e-05	-0.000233945	6.5075e-06	-17.4163	0.00807479	0.00770461	0.00241689	-32.2808	5.62675	4.75709	3.00507	0.150427	0.0951032	0.177969	32.3019	47851.4	75687.9	89545.6	-57.6981	0.0000000E+000	0.0000000E+000	0.0000000E+000	57.6981	0.0000000E+000	0.0000000E+000	0.0000000E+000	-57.6981	0.0000000E+000	0.0000000E+000	0.0000000E+000	-32.3019	0.0000000E+000	0.0000000E+000	0.0000000E+000	32.3019	1.58173	57.6981	-2.78211e-06	-7.01564e-06	6.21213e-09	-7.02185e-06	0.264439	9949.81	8.81024	9958.62
100.032	7.82414	4.93082	9.24825	-32.2193	9.4718	0.264203	-0.0252841	322.673	91.7235	1	10	0.00451203	0.000487879	0	-8.14757e-05	-2.39417e-05	8.66622e-06	9.73983	0.0177631	0.017507	-0.00300506	-32.1459	9.26147	7.84165	4.92781	0.0914782	0.05765	0.108129	32.2193	91723.5	145545	172037	-57.7807	0.0000000E+000	0.0000000E+000	0.0000000E+000	57.7807	0.0000000E+000	0.0000000E+000	0.0000000E+000	-57.7807	0.0000000E+000	0.0000000E+000	0.0000000E+000	-32.2193	0.0000000E+000	0.0000000E+000	0.0000000E+000	32.2193	1.58678	57.7807	-2.31623e-06	-6.68014e-06	6.05344e-10	-6.68075e-06	0.264227	10449.4	0.946907	10450.3
31.6296	12.6029	5.21841	13.6406	-22.4926	10.7996	0.264189	-0.0292533	964.249	141.123	1	10	0.00450433	0.000330215	0	-9.04979e-05	0.00016697	9.18083e-06	-102.252	0.0278026	-0.00590019	0.0271693	-22.6075	13.6456	12.597	5.24558	0.0677338	0.028046	0.0733106	22.4926	141123	340826	368887	-67.5074	0.0000000E+000	0.0000000E+000	0.0000000E+000	67.5074	0.0000000E+000	0.0000000E+000	0.0000000E+000	-67.5074	0.0000000E+000	0.0000000E+000	0.0000000E+000	-22.4926	0.0000000E+000	0.0000000E+000	0.0000000E+000	22.4926	2.41509	67.5074	-3.43092e-06	-7.7284e-06	-4.88443e-09	-7.72352e-06	0.264022	9031.11	5.70775	9025.4
10.0032	16.3404	4.02042	16.8277	-13.8226	12.3818	0.264239	-0.0116334	3957.39	225.893	1	11	0.0045044	0.000267678	0	-9.72579e-05	0.000109697	9.52019e-06	62.0071	0.0355659	0.0166933	-0.0314049	-13.7053	16.8365	16.3571	3.98902	0.0577048	0.0141978	0.0594258	13.8226	225893	918107	945488	-76.1774	0.0000000E+000	0.0000000E+000	0.0000000E+000	76.1774	0.0000000E+000	0.0000000E+000	0.0000000E+000	-76.1774	0.0000000E+000	0.0000000E+000	0.0000000E+000	-13.8226	0.0000000E+000	0.0000000E+000	0.0000000E+000	13.8226	4.06434	76.1774	-3.55302e-06	-3.07398e-06	-1.27614e-09	-3.0727e-06	0.264129	22713.9	9.42951	22704.4
3.1604	18.7266	2.77479	18.9311	-8.4284	13.8995	0.26424	-0.0108949	18148.8	389.905	1	11	0.0045065	0.000238048	0	-0.000101522	3.3332e-05	8.41368e-06	84.6493	0.0353445	0.00329593	-0.0351905	-8.32157	18.9292	18.7299	2.7396	0.0522528	0.00774248	0.0528233	8.4284	389905	2.63141e+06	2.66014e+06	-81.5716	0.0000000E+000	0.0000000E+000	0.0000000E+000	81.5716	0.0000000E+000	0.0000000E+000	0.0000000E+000	-81.5716	0.0000000E+000	0.0000000E+000	0.0000000E+000	-8.4284	0.0000000E+000	0.0000000E+000	0.0000000E+000	8.4284	6.74884	81.5716	-4.65612e-06	-2.87885e-06	-3.63147e-10	-2.87849e-06	0.264206	24253.6	3.05942	24250.6
1.00006	20.1322	1.92333	20.2239	-5.45718	19.54	0.264241	-0.0095131	82744.5	748.371	1	12	0.00450914	0.000222961	0	-0.000115655	-0.000119398	3.28897e-06	73.7364	0.0147513	0.0041312	-0.014161	-5.41614	20.2266	20.1363	1.90917	0.0492224	0.00470245	0.0494465	5.45718	748371	7.83349e+06	7.86915e+06	-84.5428	0.0000000E+000	0.0000000E+000	0.0000000E+000	84.5428	0.0000000E+000	0.0000000E+000	0.0000000E+000	-84.5428	0.0000000E+000	0.0000000E+000	0.0000000E+000	-5.45718	0.0000000E+000	0.0000000E+000	0.0000000E+000	5.45718	10.4674	84.5428	-2.80398e-06	-2.51375e-06	1.13584e-09	-2.51488e-06	0.26436	27776.5	12.5509	27789.1
0.316193	20.9837	1.88259	21.068	-5.12667	33.8838	0.264243	-0.0052146	267369	2134.9	1	12	0.00450493	0.000213828	0	-0.000126997	0.000186062	1.60435e-06	-9.00635	0.007503	0.00741049	0.00117455	-5.12805	21.0755	20.9911	1.88377	0.0472755	0.00424141	0.0474654	5.12667	2.1349e+06	2.3796e+07	2.38916e+07	-84.8733	0.0000000E+000	0.0000000E+000	0.0000000E+000	84.8733	0.0000000E+000	0.0000000E+000	0.0000000E+000	-84.8733	0.0000000E+000	0.0000000E+000	0.0000000E+000	-5.12667	0.0000000E+000	0.0000000E+000	0.0000000E+000	5.12667	11.1462	84.8733	-1.23851e-05	-1.37792e-06	-9.70236e-10	-1.37695e-06	0.264057	50673.7	35.6809	50638
0.0999041	21.9912	3.10599	22.2094	-8.03919	79.0907	0.264237	-0.00347479	512904	10031.4	1	12	0.00450555	0.000202867	0	-0.000278833	-2.39417e-05	2.16069e-06	28.1571	0.0106508	0.00939035	-0.00502602	-8.02297	22.218	22.0005	3.10097	0.0445835	0.0062969	0.045026	8.03919	1.00314e+07	7.10249e+07	7.17298e+07	-81.9608	0.0000000E+000	0.0000000E+000	0.0000000E+000	81.9608	0.0000000E+000	0.0000000E+000	0.0000000E+000	-81.9608	0.0000000E+000	0.0000000E+000	0.0000000E+000	-8.03919	0.0000000E+000	0.0000000E+000	0.0000000E+000	8.03919	7.08023	81.9608	-6.65526e-05	-9.18168e-07	8.31924e-11	-9.18251e-07	0.264261	76043.9	6.89011	76050.7
0.0315922	23.7634	6.62047	24.6684	-15.5678	221.974	0.26424	-0.00200109	760942	54808.4	1	12	0.00450321	0.00018255	0	-0.000240365	-4.30329e-05	1.9889e-06	-18.138	0.0108951	0.0103538	0.00339172	-15.5689	24.6793	23.7738	6.62386	0.0390505	0.0108795	0.0405377	15.5678	5.48084e+07	1.96728e+08	2.0422e+08	-74.4322	0.0000000E+000	0.0000000E+000	0.0000000E+000	74.4322	0.0000000E+000	0.0000000E+000	0.0000000E+000	-74.4322	0.0000000E+000	0.0000000E+000	0.0000000E+000	-15.5678	0.0000000E+000	0.0000000E+000	0.0000000E+000	15.5678	3.58938	74.4322	0.0001011	-5.28769e-07	8.61127e-11	-5.28855e-07	0.264283	132048	21.5047	132070
0.0100092	27.829	15.0258	31.6264	-28.366	673.197	0.264231	0.000329789	1.05824e+06	238869	1	12	0.00450612	0.00014248	0	0.000163028	-2.39417e-05	1.24321e-06	2.78902	0.00872553	0.0087152	-0.00042457	-28.3578	31.6339	27.8377	15.0253	0.0278227	0.0150223	0.0316192	28.366	2.38869e+08	4.42406e+08	5.02774e+08	-61.634	0.0000000E+000	0.0000000E+000	0.0000000E+000	61.634	0.0000000E+000	0.0000000E+000	0.0000000E+000	-61.634	0.0000000E+000	0.0000000E+000	0.0000000E+000	-28.366	0.0000000E+000	0.0000000E+000	0.0000000E+000	28.366	1.85209	61.634	-3.00665e-06	8.71407e-08	-7.89571e-12	8.71486e-08	0.264255	801213	72.5969	801286