File: txt/19149_R306_UA711_SOC00_C05.mpt
EC-Lab ASCII FILE
Nb header lines : 65

Potentio Electrochemical Impedance Spectroscopy

Run on channel : 5 (SN 65912)
Grouped channel(s) : 3, 4, 5, 6, 7
User :
CE vs. WE compliance from -10 V to 10 V
Electrode connection : standard
Potential control : Ewe
Ewe ctrl range : min = -10.00 V, max = 10.00 V
Safety Limits :
	Do not start on E overload
Acquisition started on : 11/12/2025 11:40:22.150
Loaded Setting File :  C:\Users\Celltest\OneDrive - store-dot.com\Documents\EC-Lab\Data\@Biologic Test Protocols\anode half cell EIS SOC00.mps
Saved on :
	File : 19147_R306_UA711_SOC00_C05.mpr
	Directory : C:\Users\Celltest\OneDrive - store-dot.com\Documents\EC-Lab\Data\Charmaine\
	Host : 169.254.61.224
Device : VMP-3e (SN .003165)
Address : USB
EC-LAB for windows v11.62 (software)
Internet server v27.00 (firmware)
Command interpretor v12.03 (firmware)
Electrode material :
Initial state :
Electrolyte :
Comments :
Electrode surface area : 0.001 cm²
Characteristic mass : 0.001 g
Equivalent Weight : 0.000 g/eq.
Density : 0.000 g/cm3
Volume (V) : 0.001 cm³
Record Ece
Cycle Definition : Charge/Discharge alternance
Mode                Single sine
E (V)               0.0000
vs.                 Eoc
tE (h:m:s)          0:00:0.0000
record              0
dI                  0.000
unit dI             mA
dt (s)              0.000
fi                  100.000
unit fi             kHz
ff                  10.000
unit ff             mHz
Nd                  6
Points              per decade
spacing             Logarithmic
Va (mV)             5.0
pw                  0.10
Na                  2
corr                0
E range min (V)     -10.000
E range max (V)     10.000
I Range             Auto
Bandwidth           5
nc cycles           0
goto Ns'            0
nr cycles           0
inc. cycle          0

freq/Hz	Re(Z)/Ohm	-Im(Z)/Ohm	|Z|/Ohm	Phase(Z)/deg	time/s	<Ewe>/V	<I>/mA	Cs/µF	Cp/µF	cycle number	I Range	|Ewe|/V	|I|/A	Ns	(Q-Qo)/mA.h	<Ece>/V	|Ece|/V	Phase(Zce)/deg	|Zce|/Ohm	Re(Zce)/Ohm	-Im(Zce)/Ohm	Phase(Zwe-ce)/deg	|Zwe-ce|/Ohm	Re(Zwe-ce)/Ohm	-Im(Zwe-ce)/Ohm	Re(Y)/Ohm-1	Im(Y)/Ohm-1	|Y|/Ohm-1	Phase(Y)/deg	Re(C)/nF	Im(C)/nF	|C|/nF	Phase(C)/deg	Re(M)	Im(M)	|M|	Phase(M)/deg	Re(Permittivity)	Im(Permittivity)	|Permittivity|	Phase(Permittivity)/deg	Re(Resistivity)/Ohm.cm	Im(Resistivity)/Ohm.cm	|Resistivity|/Ohm.cm	Phase(Resistivity)/deg	Re(Conductivity)/mS/cm	Im(Conductivity)/mS/cm	|Conductivity|/mS/cm	Phase(Conductivity)/deg	Tan(Delta)	Loss Angle(Delta)/deg	dq/mA.h	Pwe/W	Pce/W	Pwe-ce/W	<Ewe-Ece>/V	Rwe/Ohm	Rce/Ohm	Rwe-ce/Ohm		Ewe-Ece/V
100004	1.8302	1.26288	2.22362	-34.6065	1.91157	0.189327	-0.0641113	1.26021	0.406484	1	9	0.00458005	0.00205973	0	-1.39004e-05	-4.91898e-05	3.73127e-05	88.0425	0.0181154	0.000618782	-0.0181048	-34.2117	2.2139	1.83082	1.24477	0.37015	0.255411	0.449717	34.6065	406.484	589.089	715.72	-55.3935	0.0000000E+000	0.0000000E+000	0.0000000E+000	55.3935	0.0000000E+000	0.0000000E+000	0.0000000E+000	-55.3935	0.0000000E+000	0.0000000E+000	0.0000000E+000	-34.6065	0.0000000E+000	0.0000000E+000	0.0000000E+000	34.6065	1.44923	55.3935	-1.39004e-05	-1.2138e-05	3.15362e-09	-1.21412e-05	0.189376	2953.1	0.767257	2953.87
31621.1	3.12527	2.06403	3.74533	-33.4421	3.18856	0.189311	-0.0635527	2.43852	0.74059	1	9	0.00469169	0.00125268	0	-3.57014e-05	-0.000221011	3.97559e-06	-86.0777	0.00317368	0.000217092	0.00316624	-33.4807	3.74726	3.12549	2.0672	0.222795	0.147141	0.266999	33.4421	740.59	1121.37	1343.85	-56.5579	0.0000000E+000	0.0000000E+000	0.0000000E+000	56.5579	0.0000000E+000	0.0000000E+000	0.0000000E+000	-56.5579	0.0000000E+000	0.0000000E+000	0.0000000E+000	-33.4421	0.0000000E+000	0.0000000E+000	0.0000000E+000	33.4421	1.51416	56.5579	-5.42097e-06	-1.20312e-05	1.40458e-08	-1.20452e-05	0.189532	2978.8	3.4776	2982.28
10002.2	4.94887	2.54266	5.56385	-27.1934	4.36754	0.189363	-0.0282554	6.25801	1.30695	1	10	0.00484238	0.000870329	0	-4.81712e-05	0.000160814	1.06169e-05	-0.147742	0.0121987	0.0121986	3.14553e-05	-27.1364	5.57471	4.96107	2.54269	0.159866	0.0821367	0.179732	27.1934	1306.95	2543.78	2859.88	-62.8066	0.0000000E+000	0.0000000E+000	0.0000000E+000	62.8066	0.0000000E+000	0.0000000E+000	0.0000000E+000	-62.8066	0.0000000E+000	0.0000000E+000	0.0000000E+000	-27.1934	0.0000000E+000	0.0000000E+000	0.0000000E+000	27.1934	1.94634	62.8066	-1.67832e-06	-5.35053e-06	-4.54385e-09	-5.34599e-06	0.189203	6701.85	5.69143	6696.16
3163.08	6.77314	2.94181	7.38442	-23.477	5.26566	0.189227	-0.020399	17.1039	2.71451	1	10	0.00463707	0.000627953	0	-5.38192e-05	0.000122631	7.99629e-06	-37.4743	0.0127339	0.010106	0.00774737	-23.5009	7.39677	6.78324	2.94956	0.12421	0.0539488	0.13542	23.477	2714.51	6249.82	6813.87	-66.523	0.0000000E+000	0.0000000E+000	0.0000000E+000	66.523	0.0000000E+000	0.0000000E+000	0.0000000E+000	-66.523	0.0000000E+000	0.0000000E+000	0.0000000E+000	-23.477	0.0000000E+000	0.0000000E+000	0.0000000E+000	23.477	2.30237	66.523	-1.46551e-06	-3.86004e-06	-2.50155e-09	-3.85754e-06	0.189104	9276.29	6.01163	9270.28
1000.32	8.57507	4.22254	9.55833	-26.2166	6.61884	0.189313	-8.03386e-05	37.6797	7.35344	1	10	0.00453569	0.000474527	0	-5.39492e-05	0.000198996	6.29313e-06	105.544	0.0132619	-0.00355394	-0.0127768	-26.1572	9.5495	8.57152	4.20976	0.0938585	0.0462178	0.104621	26.2166	7353.44	14933.3	16645.6	-63.7834	0.0000000E+000	0.0000000E+000	0.0000000E+000	63.7834	0.0000000E+000	0.0000000E+000	0.0000000E+000	-63.7834	0.0000000E+000	0.0000000E+000	0.0000000E+000	-26.2166	0.0000000E+000	0.0000000E+000	0.0000000E+000	26.2166	2.03079	63.7834	-4.38488e-07	-1.52091e-08	-1.59871e-11	-1.51931e-08	0.189114	2.35644e+06	2476.97	2.35396e+06
316.316	11.6413	7.93815	14.0902	-34.29	7.96805	0.189302	-0.000717046	63.384	20.118	1	10	0.00451523	0.000320452	0	-5.35875e-05	0.000122631	1.38808e-05	62.2386	0.0433164	0.0201764	-0.0383305	-34.1149	14.0853	11.6615	7.89982	0.0586363	0.0399839	0.0709713	34.29	20118	29503	35709.4	-55.71	0.0000000E+000	0.0000000E+000	0.0000000E+000	55.71	0.0000000E+000	0.0000000E+000	0.0000000E+000	-55.71	0.0000000E+000	0.0000000E+000	0.0000000E+000	-34.29	0.0000000E+000	0.0000000E+000	0.0000000E+000	34.29	1.4665	55.71	-3.31433e-07	-1.35738e-07	-8.79322e-11	-1.3565e-07	0.189179	264002	171.023	263831
100.032	20.1002	14.3248	24.6823	-35.4764	9.55977	0.189338	-0.0051211	111.069	37.4109	1	11	0.00451092	0.000182759	0	-5.43467e-05	0.000218087	7.20278e-06	8.00521	0.0394114	0.0390273	-0.00548855	-35.4135	24.7109	20.1392	14.3193	0.0329934	0.0235135	0.0405148	35.4764	37410.9	52493.9	64460.7	-54.5236	0.0000000E+000	0.0000000E+000	0.0000000E+000	54.5236	0.0000000E+000	0.0000000E+000	0.0000000E+000	-54.5236	0.0000000E+000	0.0000000E+000	0.0000000E+000	-35.4764	0.0000000E+000	0.0000000E+000	0.0000000E+000	35.4764	1.40317	54.5236	-4.76897e-07	-9.69621e-07	-1.11685e-09	-9.68504e-07	0.18912	36972.2	42.586	36929.6
31.6296	35.4354	14.5827	38.3187	-22.3686	11.0925	0.189334	-0.00536348	345.055	49.974	1	11	0.0050054	0.000130626	0	-5.64531e-05	0.000237178	8.19553e-06	3.30719	0.0627406	0.0626362	-0.00361946	-22.328	38.3753	35.498	14.5791	0.0241332	0.00993154	0.0260969	22.3686	49974	121435	131316	-67.6314	0.0000000E+000	0.0000000E+000	0.0000000E+000	67.6314	0.0000000E+000	0.0000000E+000	0.0000000E+000	-67.6314	0.0000000E+000	0.0000000E+000	0.0000000E+000	-22.3686	0.0000000E+000	0.0000000E+000	0.0000000E+000	22.3686	2.42996	67.6314	-8.24175e-07	-1.01549e-06	-1.2721e-09	-1.01422e-06	0.189097	35300.6	44.221	35256.4
10.0032	44.1735	7.75291	44.8487	-9.95462	12.4248	0.189342	-0.00469405	2052.19	61.3263	1	11	0.00500225	0.000111536	0	-5.74351e-05	-3.00986e-05	7.41098e-06	134.067	0.0664447	-0.0462119	-0.0477426	-9.90469	44.7949	44.1273	7.70516	0.0219615	0.00385448	0.0222972	9.95462	61326.3	349417	354757	-80.0454	0.0000000E+000	0.0000000E+000	0.0000000E+000	80.0454	0.0000000E+000	0.0000000E+000	0.0000000E+000	-80.0454	0.0000000E+000	0.0000000E+000	0.0000000E+000	-9.95462	0.0000000E+000	0.0000000E+000	0.0000000E+000	9.95462	5.69767	80.0454	-2.07298e-07	-8.88782e-07	1.41284e-10	-8.88924e-07	0.189372	40336.6	6.41207	40343
3.1604	46.7111	3.56133	46.8467	-4.35989	13.9415	0.189341	-0.00420929	14140.5	81.7209	1	11	0.00500187	0.000106771	0	-6.02785e-05	0.00025627	6.06235e-06	50.2254	0.056779	0.0363254	-0.0436384	-4.30333	46.8796	46.7474	3.51769	0.0212845	0.00162276	0.0213462	4.35989	81720.9	1.07187e+06	1.07498e+06	-85.6401	0.0000000E+000	0.0000000E+000	0.0000000E+000	85.6401	0.0000000E+000	0.0000000E+000	0.0000000E+000	-85.6401	0.0000000E+000	0.0000000E+000	0.0000000E+000	-4.35989	0.0000000E+000	0.0000000E+000	0.0000000E+000	4.35989	13.1162	85.6401	-7.29315e-07	-7.96991e-07	-1.07871e-09	-7.95912e-07	0.189085	44981.6	60.8819	44920.8
1.00006	47.7263	2.5505	47.7944	-3.05898	19.261	0.189342	-0.00257715	62397.6	177.69	1	12	0.00500203	0.000104657	0	-6.19679e-05	-0.000259193	4.10911e-06	7.80485	0.0392626	0.0388989	-0.00533183	-3.05012	47.833	47.7652	2.54516	0.0208931	0.00111653	0.020923	3.05898	177690	3.32503e+06	3.32978e+06	-86.941	0.0000000E+000	0.0000000E+000	0.0000000E+000	86.941	0.0000000E+000	0.0000000E+000	0.0000000E+000	-86.941	0.0000000E+000	0.0000000E+000	0.0000000E+000	-3.05898	0.0000000E+000	0.0000000E+000	0.0000000E+000	3.05898	18.7126	86.941	-2.66833e-06	-4.87963e-07	6.67979e-10	-4.88631e-07	0.189601	73469.8	100.574	73570.3
0.316193	49.1115	3.04123	49.2055	-3.54352	33.6031	0.189349	-0.00206616	165508	632.25	1	12	0.00500072	0.000101629	0	-8.6289e-05	-4.91898e-05	3.048e-06	-20.2533	0.0299914	0.0281371	0.0103822	-3.55355	49.2343	49.1396	3.05161	0.0202841	0.00125609	0.0203229	3.54352	632250	1.02099e+07	1.02295e+07	-86.4565	0.0000000E+000	0.0000000E+000	0.0000000E+000	86.4565	0.0000000E+000	0.0000000E+000	0.0000000E+000	-86.4565	0.0000000E+000	0.0000000E+000	0.0000000E+000	-3.54352	0.0000000E+000	0.0000000E+000	0.0000000E+000	3.54352	16.1486	86.4565	-9.10898e-06	-3.91227e-07	1.01634e-10	-3.91328e-07	0.189398	91642.9	23.8073	91666.7
0.0999041	50.7402	5.10459	50.9963	-5.74477	78.8101	0.189343	-0.00169612	312087	3126.95	1	12	0.00500423	9.81292e-05	0	-7.02851e-05	8.44487e-05	1.91803e-06	20.17	0.019546	0.0183473	-0.0067396	-5.73518	51.0139	50.7586	5.09786	0.0195108	0.00196283	0.0196093	5.74477	3.12695e+06	3.10822e+07	3.12391e+07	-84.2552	0.0000000E+000	0.0000000E+000	0.0000000E+000	84.2552	0.0000000E+000	0.0000000E+000	0.0000000E+000	-84.2552	0.0000000E+000	0.0000000E+000	0.0000000E+000	-5.74477	0.0000000E+000	0.0000000E+000	0.0000000E+000	5.74477	9.9401	84.2552	1.63497e-05	-3.21149e-07	-1.43235e-10	-3.21006e-07	0.189259	111633	49.7893	111583
0.0315922	53.5421	11.1353	54.6877	-11.7485	221.694	0.189343	0.000289128	452417	18756.9	1	12	0.00500086	9.14439e-05	0	-4.81333e-05	0.000179905	1.45771e-06	-22.5288	0.015941	0.0147245	0.00610776	-11.7516	54.7034	53.5568	11.1414	0.0179026	0.00372324	0.0182856	11.7485	1.87569e+07	9.01894e+07	9.21192e+07	-78.2515	0.0000000E+000	0.0000000E+000	0.0000000E+000	78.2515	0.0000000E+000	0.0000000E+000	0.0000000E+000	-78.2515	0.0000000E+000	0.0000000E+000	0.0000000E+000	-11.7485	0.0000000E+000	0.0000000E+000	0.0000000E+000	11.7485	4.80833	78.2515	-2.00304e-05	5.47446e-08	5.20156e-11	5.46925e-08	0.189163	654876	622.231	654254
0.0100092	60.7044	25.784	65.9533	-23.0132	672.917	0.189337	-0.000466668	616696	94254	1	12	0.00500223	7.5845e-05	0	-0.000482222	2.71751e-05	2.27878e-06	5.24121	0.0300453	0.0299197	-0.0027446	-23.0009	65.9798	60.7343	25.7813	0.0139555	0.00592758	0.0151622	23.0132	9.4254e+07	2.21906e+08	2.41094e+08	-66.9868	0.0000000E+000	0.0000000E+000	0.0000000E+000	66.9868	0.0000000E+000	0.0000000E+000	0.0000000E+000	-66.9868	0.0000000E+000	0.0000000E+000	0.0000000E+000	-23.0132	0.0000000E+000	0.0000000E+000	0.0000000E+000	23.0132	2.35434	66.9868	-0.000169186	-8.83573e-08	-1.26817e-11	-8.83447e-08	0.18931	405720	58.2321	405662