File: txt/19148_R306_UA711_SOC00_C04.mpt
EC-Lab ASCII FILE
Nb header lines : 65

Potentio Electrochemical Impedance Spectroscopy

Run on channel : 4 (SN 66756)
Grouped channel(s) : 3, 4, 5, 6, 7
User :
CE vs. WE compliance from -10 V to 10 V
Electrode connection : standard
Potential control : Ewe
Ewe ctrl range : min = -10.00 V, max = 10.00 V
Safety Limits :
	Do not start on E overload
Acquisition started on : 11/12/2025 11:40:22.150
Loaded Setting File :  C:\Users\Celltest\OneDrive - store-dot.com\Documents\EC-Lab\Data\@Biologic Test Protocols\anode half cell EIS SOC00.mps
Saved on :
	File : 19147_R306_UA711_SOC00_C04.mpr
	Directory : C:\Users\Celltest\OneDrive - store-dot.com\Documents\EC-Lab\Data\Charmaine\
	Host : 169.254.61.224
Device : VMP-3e (SN .003165)
Address : USB
EC-LAB for windows v11.62 (software)
Internet server v27.00 (firmware)
Command interpretor v12.03 (firmware)
Electrode material :
Initial state :
Electrolyte :
Comments :
Electrode surface area : 0.001 cm²
Characteristic mass : 0.001 g
Equivalent Weight : 0.000 g/eq.
Density : 0.000 g/cm3
Volume (V) : 0.001 cm³
Record Ece
Cycle Definition : Charge/Discharge alternance
Mode                Single sine
E (V)               0.0000
vs.                 Eoc
tE (h:m:s)          0:00:0.0000
record              0
dI                  0.000
unit dI             mA
dt (s)              0.000
fi                  100.000
unit fi             kHz
ff                  10.000
unit ff             mHz
Nd                  6
Points              per decade
spacing             Logarithmic
Va (mV)             5.0
pw                  0.10
Na                  2
corr                0
E range min (V)     -10.000
E range max (V)     10.000
I Range             Auto
Bandwidth           5
nc cycles           0
goto Ns'            0
nr cycles           0
inc. cycle          0

freq/Hz	Re(Z)/Ohm	-Im(Z)/Ohm	|Z|/Ohm	Phase(Z)/deg	time/s	<Ewe>/V	<I>/mA	Cs/µF	Cp/µF	cycle number	I Range	|Ewe|/V	|I|/A	Ns	(Q-Qo)/mA.h	<Ece>/V	|Ece|/V	Phase(Zce)/deg	|Zce|/Ohm	Re(Zce)/Ohm	-Im(Zce)/Ohm	Phase(Zwe-ce)/deg	|Zwe-ce|/Ohm	Re(Zwe-ce)/Ohm	-Im(Zwe-ce)/Ohm	Re(Y)/Ohm-1	Im(Y)/Ohm-1	|Y|/Ohm-1	Phase(Y)/deg	Re(C)/nF	Im(C)/nF	|C|/nF	Phase(C)/deg	Re(M)	Im(M)	|M|	Phase(M)/deg	Re(Permittivity)	Im(Permittivity)	|Permittivity|	Phase(Permittivity)/deg	Re(Resistivity)/Ohm.cm	Im(Resistivity)/Ohm.cm	|Resistivity|/Ohm.cm	Phase(Resistivity)/deg	Re(Conductivity)/mS/cm	Im(Conductivity)/mS/cm	|Conductivity|/mS/cm	Phase(Conductivity)/deg	Tan(Delta)	Loss Angle(Delta)/deg	dq/mA.h	Pwe/W	Pce/W	Pwe-ce/W	<Ewe-Ece>/V	Rwe/Ohm	Rce/Ohm	Rwe-ce/Ohm		Ewe-Ece/V
100004	1.96746	1.23051	2.32057	-32.0231	1.91154	0.192663	-0.0719691	1.29336	0.363663	1	9	0.00466667	0.002011	0	-1.0162e-05	-0.000125432	3.40825e-05	99.0417	0.016948	-0.00266344	-0.0167374	-31.7061	2.30947	1.96479	1.21377	0.365356	0.228505	0.430929	32.0231	363.663	581.461	685.819	-57.9769	0.0000000E+000	0.0000000E+000	0.0000000E+000	57.9769	0.0000000E+000	0.0000000E+000	0.0000000E+000	-57.9769	0.0000000E+000	0.0000000E+000	0.0000000E+000	-32.0231	0.0000000E+000	0.0000000E+000	0.0000000E+000	32.0231	1.5989	57.9769	-1.0162e-05	-1.38658e-05	9.02721e-09	-1.38748e-05	0.192789	2677.03	1.74285	2678.77
31621.1	3.23522	1.95671	3.78092	-31.1662	3.31054	0.192665	-0.0702535	2.57227	0.68893	1	9	0.00515497	0.00136342	0	-4.74203e-05	-8.72118e-05	1.62355e-05	3.31762	0.011908	0.011888	-0.000689126	-31.0643	3.79074	3.2471	1.95602	0.226313	0.136878	0.264486	31.1662	688.93	1139.07	1331.21	-58.8338	0.0000000E+000	0.0000000E+000	0.0000000E+000	58.8338	0.0000000E+000	0.0000000E+000	0.0000000E+000	-58.8338	0.0000000E+000	0.0000000E+000	0.0000000E+000	-31.1662	0.0000000E+000	0.0000000E+000	0.0000000E+000	31.1662	1.65339	58.8338	-6.18381e-06	-1.35354e-05	6.12693e-09	-1.35415e-05	0.192752	2742.43	1.24139	2743.67
10002.2	4.95867	2.32802	5.47796	-25.1493	4.49053	0.19273	-0.0231144	6.83498	1.23445	1	10	0.00475056	0.000867214	0	-6.32814e-05	-0.000106322	1.24528e-05	-93.2822	0.0143595	-0.000822126	0.014336	-25.2886	5.48333	4.95785	2.34235	0.165245	0.0775797	0.18255	25.1493	1234.45	2629.36	2904.72	-64.8507	0.0000000E+000	0.0000000E+000	0.0000000E+000	64.8507	0.0000000E+000	0.0000000E+000	0.0000000E+000	-64.8507	0.0000000E+000	0.0000000E+000	0.0000000E+000	-25.1493	0.0000000E+000	0.0000000E+000	0.0000000E+000	25.1493	2.13	64.8507	-8.56336e-07	-4.45485e-06	2.45756e-09	-4.4573e-06	0.192837	8338.1	4.5998	8342.7
3163.08	6.58946	2.66623	7.10843	-22.0293	5.38964	0.192622	-0.0161875	18.8717	2.65498	1	10	0.00462667	0.000650871	0	-6.76325e-05	0.000180328	6.38226e-06	-38.4539	0.00980572	0.00767895	0.00609803	-22.0516	7.11784	6.59714	2.67233	0.130407	0.0527656	0.140678	22.0293	2654.98	6561.64	7078.42	-67.9707	0.0000000E+000	0.0000000E+000	0.0000000E+000	67.9707	0.0000000E+000	0.0000000E+000	0.0000000E+000	-67.9707	0.0000000E+000	0.0000000E+000	0.0000000E+000	-22.0293	0.0000000E+000	0.0000000E+000	0.0000000E+000	22.0293	2.47145	67.9707	-1.81552e-06	-3.11806e-06	-2.91905e-09	-3.11515e-06	0.192442	11899.4	11.1399	11888.3
1000.32	8.20911	3.86509	9.0735	-25.2124	6.74282	0.19266	-0.00541847	41.1644	7.46949	1	10	0.0045286	0.000499102	0	-6.94974e-05	-0.000259201	8.45229e-06	5.6471	0.016935	0.0168528	-0.00166642	-25.1577	9.08804	8.22596	3.86342	0.0997118	0.0469472	0.110211	25.2124	7469.49	15864.5	17535	-64.7876	0.0000000E+000	0.0000000E+000	0.0000000E+000	64.7876	0.0000000E+000	0.0000000E+000	0.0000000E+000	-64.7876	0.0000000E+000	0.0000000E+000	0.0000000E+000	-25.2124	0.0000000E+000	0.0000000E+000	0.0000000E+000	25.2124	2.12391	64.7876	-9.1772e-07	-1.04392e-06	1.40447e-09	-1.04533e-06	0.192919	35556.1	47.8366	35604
316.316	11.0155	7.31577	13.2235	-33.5896	8.09301	0.192648	-0.00577657	68.7763	21.0507	1	10	0.00450048	0.00034034	0	-7.12007e-05	2.7448e-05	1.01727e-05	-20.2711	0.0298897	0.0280385	0.0103557	-33.5598	13.2526	11.0435	7.32613	0.0629956	0.0418377	0.075623	33.5896	21050.7	31696.3	38049.8	-56.4104	0.0000000E+000	0.0000000E+000	0.0000000E+000	56.4104	0.0000000E+000	0.0000000E+000	0.0000000E+000	-56.4104	0.0000000E+000	0.0000000E+000	0.0000000E+000	-33.5896	0.0000000E+000	0.0000000E+000	0.0000000E+000	33.5896	1.50571	56.4104	-6.7069e-07	-1.11285e-06	-1.58555e-10	-1.11269e-06	0.192621	33349.9	4.7516	33345.2
100.032	19.0087	13.0292	23.0454	-34.428	9.89979	0.192696	-0.00238158	122.113	39.0327	1	11	0.00500239	0.000217066	0	-7.31147e-05	-0.000106322	3.50451e-06	-43.6397	0.0161449	0.011684	0.0111419	-34.4344	23.0614	19.0204	13.0404	0.0357918	0.0245328	0.0433925	34.428	39032.7	56946.1	69039.2	-55.572	0.0000000E+000	0.0000000E+000	0.0000000E+000	55.572	0.0000000E+000	0.0000000E+000	0.0000000E+000	-55.572	0.0000000E+000	0.0000000E+000	0.0000000E+000	-34.428	0.0000000E+000	0.0000000E+000	0.0000000E+000	34.428	1.45893	55.572	-5.1266e-07	-4.58921e-07	2.53213e-10	-4.59174e-07	0.192802	80911.1	44.6434	80955.7
31.6296	32.637	12.8063	35.0596	-21.4244	11.2285	0.192701	-0.00258155	392.919	52.4249	1	11	0.00498029	0.000142052	0	-7.37441e-05	-0.000240091	2.11134e-06	-50.685	0.0148631	0.00941704	0.0114992	-21.4362	35.0725	32.6464	12.8178	0.026552	0.0104186	0.0285229	21.4244	52424.9	133605	143523	-68.5756	0.0000000E+000	0.0000000E+000	0.0000000E+000	68.5756	0.0000000E+000	0.0000000E+000	0.0000000E+000	-68.5756	0.0000000E+000	0.0000000E+000	0.0000000E+000	-21.4244	0.0000000E+000	0.0000000E+000	0.0000000E+000	21.4244	2.54851	68.5756	1.86146e-08	-4.97468e-07	6.19808e-10	-4.98088e-07	0.192941	74645.6	93.0028	74738.6
10.0032	40.1439	6.75506	40.7083	-9.55174	12.5618	0.192719	-0.0021402	2355.33	64.8552	1	11	0.00498405	0.000122433	0	-7.5291e-05	-0.000182762	6.12845e-06	5.69523	0.0500554	0.0498083	-0.00496734	-9.53324	40.7566	40.1937	6.75009	0.0242245	0.00407628	0.024565	9.55174	64855.2	385421	390839	-80.4483	0.0000000E+000	0.0000000E+000	0.0000000E+000	80.4483	0.0000000E+000	0.0000000E+000	0.0000000E+000	-80.4483	0.0000000E+000	0.0000000E+000	0.0000000E+000	-9.55174	0.0000000E+000	0.0000000E+000	0.0000000E+000	9.55174	5.94279	80.4483	-1.20685e-06	-4.12456e-07	3.91146e-10	-4.12847e-07	0.192901	90047	85.3946	90132.4
3.1604	42.2941	3.17732	42.4133	-4.29623	14.0785	0.192726	-0.00101481	15849.6	88.9476	1	11	0.00498348	0.000117498	0	-7.56277e-05	0.000161218	6.38283e-06	-29.9166	0.0543229	0.0470845	0.027093	-4.32793	42.4623	42.3412	3.20441	0.0235112	0.00176626	0.0235775	4.29623	88947.7	1.18401e+06	1.18734e+06	-85.7038	0.0000000E+000	0.0000000E+000	0.0000000E+000	85.7038	0.0000000E+000	0.0000000E+000	0.0000000E+000	-85.7038	0.0000000E+000	0.0000000E+000	0.0000000E+000	-4.29623	0.0000000E+000	0.0000000E+000	0.0000000E+000	4.29623	13.3113	85.7038	-1.46325e-06	-1.9558e-07	-1.63605e-10	-1.95416e-07	0.192564	189913	158.865	189754
1.00006	43.2658	2.3193	43.328	-3.06845	19.3967	0.192718	-0.000508767	68617.5	196.613	1	12	0.00498504	0.000115054	0	-7.46714e-05	-0.000316531	2.70854e-06	1.67942	0.0235415	0.0235314	-0.000689936	-3.06588	43.3514	43.2894	2.31861	0.0230467	0.00123544	0.0230798	3.06845	196613	3.66776e+06	3.67303e+06	-86.9315	0.0000000E+000	0.0000000E+000	0.0000000E+000	86.9315	0.0000000E+000	0.0000000E+000	0.0000000E+000	-86.9315	0.0000000E+000	0.0000000E+000	0.0000000E+000	-3.06845	0.0000000E+000	0.0000000E+000	0.0000000E+000	3.06845	18.6547	86.9315	3.15093e-06	-9.80487e-08	1.61041e-10	-9.82097e-08	0.193035	378794	622.153	379416
0.316193	44.5308	2.78311	44.6177	-3.57626	33.7398	0.192714	0.000374656	180858	703.695	1	12	0.00498905	0.000111818	0	-6.97873e-05	-0.000220981	2.50894e-06	-33.5954	0.0224377	0.0186898	0.0124154	-3.59067	44.6371	44.5495	2.79553	0.022369	0.00139803	0.0224126	3.57626	703695	1.12594e+07	1.12813e+07	-86.4237	0.0000000E+000	0.0000000E+000	0.0000000E+000	86.4237	0.0000000E+000	0.0000000E+000	0.0000000E+000	-86.4237	0.0000000E+000	0.0000000E+000	0.0000000E+000	-3.57626	0.0000000E+000	0.0000000E+000	0.0000000E+000	3.57626	16.0003	86.4237	-2.40871e-06	7.22014e-08	-8.27921e-11	7.22842e-08	0.192935	514375	589.825	514965
0.0999041	46.0649	4.65644	46.2997	-5.7721	78.9488	0.192723	-0.000273433	342123	3460.47	1	12	0.00498283	0.000107621	0	-0.000122684	-0.000316531	3.37787e-06	12.3618	0.0313866	0.0306589	-0.00671936	-5.76002	46.3295	46.0956	4.64972	0.0214889	0.00217219	0.0215984	5.7721	3.46047e+06	3.42335e+07	3.4408e+07	-84.2279	0.0000000E+000	0.0000000E+000	0.0000000E+000	84.2279	0.0000000E+000	0.0000000E+000	0.0000000E+000	-84.2279	0.0000000E+000	0.0000000E+000	0.0000000E+000	-5.7721	0.0000000E+000	0.0000000E+000	0.0000000E+000	5.7721	9.89273	84.2279	-2.27544e-05	-5.26969e-08	8.65502e-11	-5.27834e-08	0.193039	704825	1157.62	705983
0.0315922	48.5093	10.2539	49.5812	-11.9355	221.832	0.19272	-0.000652997	491304	21013.4	1	12	0.00498853	0.000100613	0	-4.99465e-05	-0.000373861	3.40533e-06	-35.2331	0.0338457	0.0276455	0.0195257	-11.951	49.6123	48.5369	10.2734	0.0197329	0.00417115	0.0201689	11.9355	2.10134e+07	9.94103e+07	1.01607e+08	-78.0645	0.0000000E+000	0.0000000E+000	0.0000000E+000	78.0645	0.0000000E+000	0.0000000E+000	0.0000000E+000	-78.0645	0.0000000E+000	0.0000000E+000	0.0000000E+000	-11.9355	0.0000000E+000	0.0000000E+000	0.0000000E+000	11.9355	4.7308	78.0645	7.05623e-05	-1.25845e-07	2.4413e-10	-1.2609e-07	0.193094	295132	572.531	295704
0.0100092	55.3793	24.1303	60.4081	-23.5441	673.054	0.19272	0.000364186	658961	105146	1	12	0.00498601	8.25388e-05	0	0.000149251	8.33802e-06	1.88138e-06	-3.10816	0.0227939	0.0227603	0.00123591	-23.5365	60.4294	55.4021	24.1315	0.015176	0.0066126	0.0165541	23.5441	1.05146e+08	2.41312e+08	2.63225e+08	-66.4559	0.0000000E+000	0.0000000E+000	0.0000000E+000	66.4559	0.0000000E+000	0.0000000E+000	0.0000000E+000	-66.4559	0.0000000E+000	0.0000000E+000	0.0000000E+000	-23.5441	0.0000000E+000	0.0000000E+000	0.0000000E+000	23.5441	2.29501	66.4559	-2.09891e-05	7.01857e-08	3.03659e-12	7.01827e-08	0.192711	529180	22.895	529157