File: txt/19144_R306_UA710_SOC00_C08.mpt
EC-Lab ASCII FILE
Nb header lines : 65

Potentio Electrochemical Impedance Spectroscopy

Run on channel : 8 (SN 65398)
Grouped channel(s) : 6, 7, 8
User :
CE vs. WE compliance from -10 V to 10 V
Electrode connection : standard
Potential control : Ewe
Ewe ctrl range : min = -10.00 V, max = 10.00 V
Safety Limits :
	Do not start on E overload
Acquisition started on : 11/12/2025 11:20:50.497
Loaded Setting File :  C:\Users\Celltest\OneDrive - store-dot.com\Documents\EC-Lab\Data\@Biologic Test Protocols\anode half cell EIS SOC00.mps
Saved on :
	File : 19142_R306_UA710_SOC00_C08.mpr
	Directory : C:\Users\Celltest\OneDrive - store-dot.com\Documents\EC-Lab\Data\Charmaine\
	Host : 169.254.61.224
Device : VMP-3e (SN .003165)
Address : USB
EC-LAB for windows v11.62 (software)
Internet server v27.00 (firmware)
Command interpretor v12.03 (firmware)
Electrode material :
Initial state :
Electrolyte :
Comments :
Electrode surface area : 0.001 cm²
Characteristic mass : 0.001 g
Equivalent Weight : 0.000 g/eq.
Density : 0.000 g/cm3
Volume (V) : 0.001 cm³
Record Ece
Cycle Definition : Charge/Discharge alternance
Mode                Single sine
E (V)               0.0000
vs.                 Eoc
tE (h:m:s)          0:00:0.0000
record              0
dI                  0.000
unit dI             mA
dt (s)              0.000
fi                  100.000
unit fi             kHz
ff                  10.000
unit ff             mHz
Nd                  6
Points              per decade
spacing             Logarithmic
Va (mV)             5.0
pw                  0.10
Na                  2
corr                0
E range min (V)     -10.000
E range max (V)     10.000
I Range             Auto
Bandwidth           5
nc cycles           0
goto Ns'            0
nr cycles           0
inc. cycle          0

freq/Hz	Re(Z)/Ohm	-Im(Z)/Ohm	|Z|/Ohm	Phase(Z)/deg	time/s	<Ewe>/V	<I>/mA	Cs/µF	Cp/µF	cycle number	I Range	|Ewe|/V	|I|/A	Ns	(Q-Qo)/mA.h	<Ece>/V	|Ece|/V	Phase(Zce)/deg	|Zce|/Ohm	Re(Zce)/Ohm	-Im(Zce)/Ohm	Phase(Zwe-ce)/deg	|Zwe-ce|/Ohm	Re(Zwe-ce)/Ohm	-Im(Zwe-ce)/Ohm	Re(Y)/Ohm-1	Im(Y)/Ohm-1	|Y|/Ohm-1	Phase(Y)/deg	Re(C)/nF	Im(C)/nF	|C|/nF	Phase(C)/deg	Re(M)	Im(M)	|M|	Phase(M)/deg	Re(Permittivity)	Im(Permittivity)	|Permittivity|	Phase(Permittivity)/deg	Re(Resistivity)/Ohm.cm	Im(Resistivity)/Ohm.cm	|Resistivity|/Ohm.cm	Phase(Resistivity)/deg	Re(Conductivity)/mS/cm	Im(Conductivity)/mS/cm	|Conductivity|/mS/cm	Phase(Conductivity)/deg	Tan(Delta)	Loss Angle(Delta)/deg	dq/mA.h	Pwe/W	Pce/W	Pwe-ce/W	<Ewe-Ece>/V	Rwe/Ohm	Rce/Ohm	Rwe-ce/Ohm		Ewe-Ece/V
100004	2.12094	1.07015	2.37563	-26.7737	2.05354	0.184345	0.0229562	1.48717	0.30178	1	9	0.00490076	0.00206293	0	1.40323e-06	-0.000533931	4.92108e-05	56.5821	0.0238548	0.0131378	-0.019911	-26.203	2.37851	2.13408	1.05023	0.375813	0.189621	0.420941	26.7737	301.78	598.103	669.924	-63.2263	0.0000000E+000	0.0000000E+000	0.0000000E+000	63.2263	0.0000000E+000	0.0000000E+000	0.0000000E+000	-63.2263	0.0000000E+000	0.0000000E+000	0.0000000E+000	-26.7737	0.0000000E+000	0.0000000E+000	0.0000000E+000	26.7737	1.98192	63.2263	1.40323e-06	4.23185e-06	-1.2257e-08	4.2441e-06	0.184879	8030.29	23.2587	8053.55
31621.1	3.19902	1.71766	3.63099	-28.2328	3.20156	0.184339	0.017599	2.93026	0.655737	1	9	0.00545851	0.00150331	0	-6.64592e-06	-0.000171257	1.35336e-05	-1.97976	0.00900251	0.00899713	0.000311005	-28.1701	3.63906	3.20802	1.71797	0.242643	0.130283	0.275407	28.2328	655.737	1221.27	1386.17	-61.7672	0.0000000E+000	0.0000000E+000	0.0000000E+000	61.7672	0.0000000E+000	0.0000000E+000	0.0000000E+000	-61.7672	0.0000000E+000	0.0000000E+000	0.0000000E+000	-28.2328	0.0000000E+000	0.0000000E+000	0.0000000E+000	28.2328	1.86243	61.7672	-2.94419e-06	3.24419e-06	-3.01397e-09	3.24721e-06	0.18451	10474.4	9.73107	10484.1
10002.2	4.67679	2.06566	5.11266	-23.8303	4.62954	0.184336	-0.0083585	7.70307	1.25745	1	10	0.0052412	0.00102514	0	-1.98636e-06	7.68873e-05	9.0055e-06	-55.3213	0.00878464	0.00499824	0.0072241	-23.8817	5.12015	4.68179	2.07289	0.178918	0.0790252	0.195593	23.8303	1257.45	2846.93	3112.26	-66.1697	0.0000000E+000	0.0000000E+000	0.0000000E+000	66.1697	0.0000000E+000	0.0000000E+000	0.0000000E+000	-66.1697	0.0000000E+000	0.0000000E+000	0.0000000E+000	-23.8303	0.0000000E+000	0.0000000E+000	0.0000000E+000	23.8303	2.26406	66.1697	-2.34784e-06	-1.54077e-06	-6.42662e-10	-1.54013e-06	0.184259	22053.7	9.19869	22044.5
3163.08	6.07708	2.44963	6.55222	-21.954	5.77861	0.184287	-0.0115279	20.5404	2.871	1	10	0.00516051	0.000787597	0	-7.97272e-06	-9.49052e-05	7.2732e-06	-67.5887	0.00923468	0.00352074	0.00853719	-22.0117	6.55868	6.0806	2.45817	0.141553	0.0570589	0.15262	21.954	2871	7122.43	7679.3	-68.046	0.0000000E+000	0.0000000E+000	0.0000000E+000	68.046	0.0000000E+000	0.0000000E+000	0.0000000E+000	-68.046	0.0000000E+000	0.0000000E+000	0.0000000E+000	-21.954	0.0000000E+000	0.0000000E+000	0.0000000E+000	21.954	2.48081	68.046	-1.46028e-06	-2.12445e-06	1.09406e-09	-2.12554e-06	0.184382	15986.2	8.23264	15994.4
1000.32	7.5601	3.82756	8.47381	-26.8523	7.13184	0.18429	-0.00559086	41.568	8.48097	1	10	0.00502473	0.000592972	0	-1.05141e-05	0.000401384	4.46461e-06	51.6098	0.00752921	0.00467575	-0.00590139	-26.8025	8.47532	7.56478	3.82166	0.105286	0.0533046	0.118011	26.8523	8480.98	16751.4	18776	-63.1477	0.0000000E+000	0.0000000E+000	0.0000000E+000	63.1477	0.0000000E+000	0.0000000E+000	0.0000000E+000	-63.1477	0.0000000E+000	0.0000000E+000	0.0000000E+000	-26.8523	0.0000000E+000	0.0000000E+000	0.0000000E+000	26.8523	1.97518	63.1477	-4.39632e-07	-1.03034e-06	-2.24408e-09	-1.0281e-06	0.183889	32962.8	71.793	32891
316.316	10.4447	7.57023	12.8996	-35.9343	8.48101	0.184286	-0.00611538	66.4645	22.8905	1	10	0.00490905	0.000380558	0	-1.29553e-05	0.000229592	1.07513e-05	-52.7807	0.0282514	0.0170883	0.0224973	-35.9706	12.9267	10.4618	7.59273	0.0627686	0.0454942	0.0775217	35.9343	22890.5	31582.1	39005.2	-54.0657	0.0000000E+000	0.0000000E+000	0.0000000E+000	54.0657	0.0000000E+000	0.0000000E+000	0.0000000E+000	-54.0657	0.0000000E+000	0.0000000E+000	0.0000000E+000	-35.9343	0.0000000E+000	0.0000000E+000	0.0000000E+000	35.9343	1.37971	54.0657	-6.44022e-07	-1.12698e-06	-1.40404e-09	-1.12557e-06	0.184056	30134.8	37.5433	30097.2
100.032	18.9725	13.1381	23.0774	-34.7018	10.0718	0.184317	-0.0039762	121.101	39.25	1	11	0.00489172	0.00021197	0	-1.45524e-05	0.000210504	9.06915e-06	-102.034	0.042785	-0.00892003	0.0418449	-34.7998	23.0939	18.9636	13.1799	0.0356247	0.0246694	0.0433324	34.7018	39250	56680.4	68943.7	-55.2982	0.0000000E+000	0.0000000E+000	0.0000000E+000	55.2982	0.0000000E+000	0.0000000E+000	0.0000000E+000	-55.2982	0.0000000E+000	0.0000000E+000	0.0000000E+000	-34.7018	0.0000000E+000	0.0000000E+000	0.0000000E+000	34.7018	1.44408	55.2982	-7.99717e-07	-7.32883e-07	-8.37005e-10	-7.32046e-07	0.184107	46355.1	52.9409	46302.2
31.6296	32.2016	11.751	34.2787	-20.048	11.4005	0.18431	-0.0045219	428.206	50.3214	1	11	0.00487045	0.000142084	0	-1.57303e-05	0.000172328	8.71885e-06	-50.5062	0.0613641	0.0390273	0.0473543	-20.0999	34.3316	32.2406	11.7984	0.0274049	0.0100006	0.0291726	20.048	50321.4	137897	146792	-69.952	0.0000000E+000	0.0000000E+000	0.0000000E+000	69.952	0.0000000E+000	0.0000000E+000	0.0000000E+000	-69.952	0.0000000E+000	0.0000000E+000	0.0000000E+000	-20.048	0.0000000E+000	0.0000000E+000	0.0000000E+000	20.048	2.74033	69.952	-2.44238e-07	-8.33432e-07	-7.79248e-10	-8.32653e-07	0.184138	40759.4	38.1095	40721.3
10.0032	38.45	5.8885	38.8983	-8.70703	12.7318	0.184302	-0.00394345	2701.94	61.9192	1	11	0.00486671	0.000125114	0	-1.73935e-05	0.00024868	6.45571e-06	-15.3319	0.0515987	0.0497624	0.0136432	-8.71578	38.9495	38.4998	5.90214	0.0254118	0.00389174	0.0257081	8.70703	61919.1	404312	409026	-81.293	0.0000000E+000	0.0000000E+000	0.0000000E+000	81.293	0.0000000E+000	0.0000000E+000	0.0000000E+000	-81.293	0.0000000E+000	0.0000000E+000	0.0000000E+000	-8.70703	0.0000000E+000	0.0000000E+000	0.0000000E+000	8.70703	6.52967	81.293	-1.36075e-06	-7.26785e-07	-9.80656e-10	-7.25805e-07	0.184053	46736.3	63.0615	46673.2
3.1604	40.2119	3.00714	40.3242	-4.27675	14.2484	0.184309	-0.00313272	16746.5	93.1325	1	11	0.00485949	0.000120511	0	-1.9733e-05	0.000382296	6.83858e-06	-55.7149	0.0567467	0.0319661	0.0468866	-4.33974	40.3596	40.2439	3.05402	0.02473	0.00184936	0.024799	4.27675	93132.4	1.24538e+06	1.24886e+06	-85.7233	0.0000000E+000	0.0000000E+000	0.0000000E+000	85.7233	0.0000000E+000	0.0000000E+000	0.0000000E+000	-85.7233	0.0000000E+000	0.0000000E+000	0.0000000E+000	-4.27675	0.0000000E+000	0.0000000E+000	0.0000000E+000	4.27675	13.3721	85.7233	-2.23118e-06	-5.77388e-07	-1.19763e-09	-5.7619e-07	0.183927	58833.7	122.033	58711.6
1.00006	41.511	2.52932	41.588	-3.4868	19.5678	0.184326	-0.00220212	62919.9	232.735	1	12	0.00487162	0.00011714	0	-1.7934e-05	0.000325032	4.82515e-06	9.8315	0.0411912	0.0405863	-0.00703345	-3.47374	41.628	41.5516	2.52229	0.0240009	0.00146241	0.0240454	3.4868	232735	3.81962e+06	3.8267e+06	-86.5132	0.0000000E+000	0.0000000E+000	0.0000000E+000	86.5132	0.0000000E+000	0.0000000E+000	0.0000000E+000	-86.5132	0.0000000E+000	0.0000000E+000	0.0000000E+000	-3.4868	0.0000000E+000	0.0000000E+000	0.0000000E+000	3.4868	16.4119	86.5132	2.04736e-06	-4.05908e-07	-7.1576e-10	-4.05192e-07	0.184001	83703.8	147.599	83556.2
0.316193	42.9554	3.19712	43.0743	-4.2566	33.9108	0.18432	-0.000970808	157438	867.343	1	12	0.00487102	0.000113084	0	-3.42309e-05	-7.58172e-05	2.13283e-06	-6.15417	0.0188605	0.0187518	0.00202192	-4.25743	43.0931	42.9742	3.19914	0.0231517	0.00172315	0.0232157	4.2566	867344	1.16533e+07	1.16856e+07	-85.7434	0.0000000E+000	0.0000000E+000	0.0000000E+000	85.7434	0.0000000E+000	0.0000000E+000	0.0000000E+000	-85.7434	0.0000000E+000	0.0000000E+000	0.0000000E+000	-4.2566	0.0000000E+000	0.0000000E+000	0.0000000E+000	4.2566	13.4357	85.7434	-1.15023e-05	-1.7894e-07	7.36039e-11	-1.79013e-07	0.184396	189863	78.097	189941
0.0999041	44.901	5.5236	45.2395	-7.01314	79.1187	0.184329	-0.00178083	288413	4299.56	1	12	0.00487179	0.000107689	0	-7.62218e-05	0.00024868	3.20839e-06	8.45588	0.0297931	0.0294693	-0.00438102	-7.00308	45.2682	44.9305	5.51922	0.0219392	0.0026989	0.0221046	7.01314	4.29956e+06	3.49509e+07	3.52143e+07	-82.9869	0.0000000E+000	0.0000000E+000	0.0000000E+000	82.9869	0.0000000E+000	0.0000000E+000	0.0000000E+000	-82.9869	0.0000000E+000	0.0000000E+000	0.0000000E+000	-7.01314	0.0000000E+000	0.0000000E+000	0.0000000E+000	7.01314	8.12894	82.9869	-8.05982e-06	-3.28259e-07	-4.42858e-10	-3.27816e-07	0.18408	103507	139.642	103367
0.0315922	47.9928	11.5649	49.3665	-13.5483	222.002	0.184324	-0.000185517	435611	23906.5	1	12	0.00487098	9.86697e-05	0	5.46379e-05	7.68873e-05	2.5577e-06	10.7847	0.0259219	0.025464	-0.00485049	-13.5359	49.3902	48.0183	11.56	0.0196929	0.00474543	0.0202566	13.5483	2.39065e+07	9.9209e+07	1.02049e+08	-76.4517	0.0000000E+000	0.0000000E+000	0.0000000E+000	76.4517	0.0000000E+000	0.0000000E+000	0.0000000E+000	-76.4517	0.0000000E+000	0.0000000E+000	0.0000000E+000	-13.5483	0.0000000E+000	0.0000000E+000	0.0000000E+000	13.5483	4.14987	76.4517	7.32459e-05	-3.41951e-08	-1.42639e-11	-3.41809e-08	0.184247	993568	414.449	993154
0.0100092	55.0783	26.7708	61.2397	-25.922	673.226	0.184328	0.000188184	593966	113506	1	12	0.00487263	7.95665e-05	0	-0.000128724	0.000115063	2.62305e-06	-46.6937	0.0329667	0.0226118	0.0239898	-25.9329	61.2705	55.1009	26.7948	0.0146864	0.00713831	0.0163293	25.922	1.13506e+08	2.33527e+08	2.59651e+08	-64.078	0.0000000E+000	0.0000000E+000	0.0000000E+000	64.078	0.0000000E+000	0.0000000E+000	0.0000000E+000	-64.078	0.0000000E+000	0.0000000E+000	0.0000000E+000	-25.922	0.0000000E+000	0.0000000E+000	0.0000000E+000	25.922	2.05741	64.078	-0.000192834	3.46876e-08	2.16531e-11	3.46659e-08	0.184213	979508	611.44	978896