File: txt/19153_R306_UA712_SOC00_C01.mpt
EC-Lab ASCII FILE
Nb header lines : 66

Potentio Electrochemical Impedance Spectroscopy

Run on channel : 1 (SN 66354)
Grouped channel(s) : 1, 2, 3, 4
User :
CE vs. WE compliance from -10 V to 10 V
Electrode connection : standard
Potential control : Ewe
Ewe ctrl range : min = -10.00 V, max = 10.00 V
Safety Limits :
	Do not start on E overload
Acquisition started on : 11/12/2025 13:00:33.882
Technique started on : 11/12/2025 13:00:35.793
Loaded Setting File :  C:\Users\Celltest\OneDrive - store-dot.com\Documents\EC-Lab\Data\@Biologic Test Protocols\anode half cell EIS SOC00.mps
Saved on :
	File : 19153_R306_UA712_SOC00_C01.mpr
	Directory : C:\Users\Celltest\OneDrive - store-dot.com\Documents\EC-Lab\Data\Charmaine\
	Host : 169.254.61.224
Device : VMP-3e (SN .003165)
Address : USB
EC-LAB for windows v11.62 (software)
Internet server v27.00 (firmware)
Command interpretor v12.03 (firmware)
Electrode material :
Initial state :
Electrolyte :
Comments :
Electrode surface area : 0.001 cm²
Characteristic mass : 0.001 g
Equivalent Weight : 0.000 g/eq.
Density : 0.000 g/cm3
Volume (V) : 0.001 cm³
Record Ece
Cycle Definition : Charge/Discharge alternance
Mode                Single sine
E (V)               0.0000
vs.                 Eoc
tE (h:m:s)          0:00:0.0000
record              0
dI                  0.000
unit dI             mA
dt (s)              0.000
fi                  100.000
unit fi             kHz
ff                  10.000
unit ff             mHz
Nd                  6
Points              per decade
spacing             Logarithmic
Va (mV)             5.0
pw                  0.10
Na                  2
corr                0
E range min (V)     -10.000
E range max (V)     10.000
I Range             Auto
Bandwidth           5
nc cycles           0
goto Ns'            0
nr cycles           0
inc. cycle          0

freq/Hz	Re(Z)/Ohm	-Im(Z)/Ohm	|Z|/Ohm	Phase(Z)/deg	time/s	<Ewe>/V	<I>/mA	Cs/µF	Cp/µF	cycle number	I Range	|Ewe|/V	|I|/A	Ns	(Q-Qo)/mA.h	<Ece>/V	|Ece|/V	Phase(Zce)/deg	|Zce|/Ohm	Re(Zce)/Ohm	-Im(Zce)/Ohm	Phase(Zwe-ce)/deg	|Zwe-ce|/Ohm	Re(Zwe-ce)/Ohm	-Im(Zwe-ce)/Ohm	Re(Y)/Ohm-1	Im(Y)/Ohm-1	|Y|/Ohm-1	Phase(Y)/deg	Re(C)/nF	Im(C)/nF	|C|/nF	Phase(C)/deg	Re(M)	Im(M)	|M|	Phase(M)/deg	Re(Permittivity)	Im(Permittivity)	|Permittivity|	Phase(Permittivity)/deg	Re(Resistivity)/Ohm.cm	Im(Resistivity)/Ohm.cm	|Resistivity|/Ohm.cm	Phase(Resistivity)/deg	Re(Conductivity)/mS/cm	Im(Conductivity)/mS/cm	|Conductivity|/mS/cm	Phase(Conductivity)/deg	Tan(Delta)	Loss Angle(Delta)/deg	dq/mA.h	Pwe/W	Pce/W	Pwe-ce/W	<Ewe-Ece>/V	Rwe/Ohm	Rce/Ohm	Rwe-ce/Ohm		Ewe-Ece/V
100004	1.79977	0.75356	1.95116	-22.7189	1.91055	0.283289	0.0501398	2.11196	0.315017	1	9	0.00474462	0.00243169	0	2.62447e-06	9.11209e-06	4.48128e-05	94.0527	0.0184287	-0.00130242	-0.0183826	-22.2337	1.94293	1.79847	0.735177	0.472749	0.197938	0.512515	22.7189	315.017	752.375	815.662	-67.2811	0.0000000E+000	0.0000000E+000	0.0000000E+000	67.2811	0.0000000E+000	0.0000000E+000	0.0000000E+000	-67.2811	0.0000000E+000	0.0000000E+000	0.0000000E+000	-22.7189	0.0000000E+000	0.0000000E+000	0.0000000E+000	22.7189	2.38836	67.2811	2.62447e-06	1.4204e-05	4.56878e-10	1.42036e-05	0.28328	5649.98	0.181734	5649.8
31621.1	2.50367	1.05387	2.71643	-22.8278	3.43152	0.283302	0.0455947	4.77589	0.718841	1	9	0.00499573	0.00183908	0	2.81285e-05	4.72667e-05	5.0427e-06	-98.3967	0.00274197	-0.000400402	0.00271258	-22.8838	2.71712	2.50327	1.05659	0.339296	0.14282	0.36813	22.8278	718.841	1707.74	1852.86	-67.1722	0.0000000E+000	0.0000000E+000	0.0000000E+000	67.1722	0.0000000E+000	0.0000000E+000	0.0000000E+000	-67.1722	0.0000000E+000	0.0000000E+000	0.0000000E+000	-22.8278	0.0000000E+000	0.0000000E+000	0.0000000E+000	22.8278	2.37568	67.1722	8.55104e-06	1.29171e-05	2.15511e-09	1.29149e-05	0.283255	6213.49	1.03667	6212.45
10002.2	3.35318	1.26879	3.5852	-20.7258	4.46052	0.283304	0.0459673	12.5411	1.57067	1	9	0.00460353	0.00128404	0	4.10361e-05	0.000123576	1.17649e-05	-34.2886	0.00916246	0.00757011	0.00516178	-20.7601	3.59411	3.36075	1.27395	0.260874	0.0987103	0.278925	20.7258	1570.67	4151.01	4438.23	-69.2742	0.0000000E+000	0.0000000E+000	0.0000000E+000	69.2742	0.0000000E+000	0.0000000E+000	0.0000000E+000	-69.2742	0.0000000E+000	0.0000000E+000	0.0000000E+000	-20.7258	0.0000000E+000	0.0000000E+000	0.0000000E+000	20.7258	2.64282	69.2742	4.09505e-06	1.30227e-05	5.68045e-09	1.3017e-05	0.28318	6163.16	2.68835	6160.47
3163.08	4.28577	1.64187	4.5895	-20.9617	5.64165	0.283221	-0.0185643	30.6459	3.92208	1	10	0.00499604	0.00108858	0	4.2953e-05	-9.96522e-06	6.1407e-06	-17.6483	0.00564102	0.00537553	0.00171021	-20.9576	4.59513	4.29114	1.64358	0.203469	0.0779483	0.217889	20.9617	3922.08	10237.8	10963.4	-69.0383	0.0000000E+000	0.0000000E+000	0.0000000E+000	69.0383	0.0000000E+000	0.0000000E+000	0.0000000E+000	-69.0383	0.0000000E+000	0.0000000E+000	0.0000000E+000	-20.9617	0.0000000E+000	0.0000000E+000	0.0000000E+000	20.9617	2.6103	69.0383	-2.50049e-06	-5.2578e-06	1.84998e-10	-5.25799e-06	0.283231	15256.2	0.536794	15256.7
1000.32	5.51295	2.32382	5.98271	-22.8564	6.9948	0.283235	-0.00944823	68.4665	10.3297	1	10	0.0048713	0.00081423	0	3.91252e-05	6.6344e-05	7.21649e-06	10.4165	0.00886296	0.0087169	-0.00160244	-22.8099	5.99012	5.52167	2.32222	0.154024	0.0649243	0.167148	22.8564	10329.7	24505.9	26594	-67.1436	0.0000000E+000	0.0000000E+000	0.0000000E+000	67.1436	0.0000000E+000	0.0000000E+000	0.0000000E+000	-67.1436	0.0000000E+000	0.0000000E+000	0.0000000E+000	-22.8564	0.0000000E+000	0.0000000E+000	0.0000000E+000	22.8564	2.37236	67.1436	-6.82623e-07	-2.67607e-06	-6.26834e-10	-2.67544e-06	0.283168	29977.5	7.02184	29970.5
316.316	7.25223	3.70875	8.14553	-27.085	8.34407	0.283225	-0.0107974	135.666	28.1247	1	10	0.00482639	0.000592521	0	3.49288e-05	0.000199885	3.97575e-06	-30.8419	0.00670989	0.00576102	0.00343997	-27.088	8.15222	7.25799	3.71219	0.109303	0.0558971	0.122767	27.085	28124.7	54996.1	61770.3	-62.915	0.0000000E+000	0.0000000E+000	0.0000000E+000	62.915	0.0000000E+000	0.0000000E+000	0.0000000E+000	-62.915	0.0000000E+000	0.0000000E+000	0.0000000E+000	-27.085	0.0000000E+000	0.0000000E+000	0.0000000E+000	27.085	1.95544	62.915	-9.53541e-07	-3.0581e-06	-2.15824e-09	-3.05594e-06	0.283026	26230.9	18.5124	26212.4
100.032	10.7784	6.07156	12.3709	-29.3928	9.69081	0.283205	-0.010734	262.048	63.122	1	10	0.00482078	0.000389688	0	3.17746e-05	9.11209e-06	1.60665e-05	-25.4406	0.0412291	0.0372312	0.017711	-29.3797	12.412	10.8157	6.08927	0.0704296	0.0396734	0.0808351	29.3928	63122	112056	128612	-60.6072	0.0000000E+000	0.0000000E+000	0.0000000E+000	60.6072	0.0000000E+000	0.0000000E+000	0.0000000E+000	-60.6072	0.0000000E+000	0.0000000E+000	0.0000000E+000	-29.3928	0.0000000E+000	0.0000000E+000	0.0000000E+000	29.3928	1.77523	60.6072	-1.78888e-06	-3.03994e-06	-9.78095e-11	-3.03984e-06	0.283196	26383.8	0.848896	26383
31.6296	16.8489	7.14855	18.3027	-22.9902	11.2546	0.283283	-0.00663903	703.897	107.378	1	11	0.00481261	0.000262946	0	2.80229e-05	0.000371581	1.20146e-05	-20.8007	0.0456924	0.0427143	0.0162262	-22.9848	18.3483	16.8916	7.16478	0.0502971	0.0213398	0.0546369	22.9902	107378	253087	274924	-67.0097	0.0000000E+000	0.0000000E+000	0.0000000E+000	67.0097	0.0000000E+000	0.0000000E+000	0.0000000E+000	-67.0097	0.0000000E+000	0.0000000E+000	0.0000000E+000	-22.9902	0.0000000E+000	0.0000000E+000	0.0000000E+000	22.9902	2.35697	67.0097	-1.33278e-06	-1.88073e-06	-2.46694e-09	-1.87826e-06	0.282912	42669.4	55.9691	42613.4
10.0032	22.3023	5.6414	23.0047	-14.1953	12.5868	0.28329	-0.00634112	2820.29	169.604	1	11	0.00480821	0.00020901	0	2.64094e-05	0.000104499	6.55609e-06	65.5506	0.0313674	0.0129826	-0.0285546	-14.1185	23.0103	22.3152	5.61285	0.0421421	0.0106599	0.0434694	14.1953	169604	670497	691615	-75.8047	0.0000000E+000	0.0000000E+000	0.0000000E+000	75.8047	0.0000000E+000	0.0000000E+000	0.0000000E+000	-75.8047	0.0000000E+000	0.0000000E+000	0.0000000E+000	-14.1953	0.0000000E+000	0.0000000E+000	0.0000000E+000	14.1953	3.95332	75.8047	-1.31603e-06	-1.79637e-06	-6.62638e-10	-1.79571e-06	0.283185	44675	16.4795	44658.5
3.1604	25.6977	3.79528	25.9765	-8.40124	14.1044	0.283308	-0.00424344	13268.9	283.245	1	11	0.00481358	0.000185305	0	2.23231e-05	0.000314349	4.17685e-06	88.0998	0.0225404	0.000747423	-0.022528	-8.35184	25.9739	25.6985	3.77275	0.0380833	0.00562449	0.0384964	8.40124	283245	1.91784e+06	1.93865e+06	-81.5988	0.0000000E+000	0.0000000E+000	0.0000000E+000	81.5988	0.0000000E+000	0.0000000E+000	0.0000000E+000	-81.5988	0.0000000E+000	0.0000000E+000	0.0000000E+000	-8.40124	0.0000000E+000	0.0000000E+000	0.0000000E+000	8.40124	6.77098	81.5988	-2.47298e-06	-1.2022e-06	-1.33392e-09	-1.20087e-06	0.282994	66763.8	74.0788	66689.8
1.00006	27.6127	2.61363	27.7361	-5.40712	19.744	0.283293	-0.00402808	60890.3	540.685	1	12	0.00481535	0.000173613	0	2.60962e-05	-6.71971e-05	2.7266e-06	23.7332	0.0157051	0.0143769	-0.00632093	-5.39133	27.7498	27.6271	2.60731	0.0358936	0.00339744	0.0360541	5.40712	540686	5.71228e+06	5.73781e+06	-84.5929	0.0000000E+000	0.0000000E+000	0.0000000E+000	84.5929	0.0000000E+000	0.0000000E+000	0.0000000E+000	-84.5929	0.0000000E+000	0.0000000E+000	0.0000000E+000	-5.40712	0.0000000E+000	0.0000000E+000	0.0000000E+000	5.40712	10.5649	84.5929	7.82918e-07	-1.14113e-06	2.70675e-10	-1.1414e-06	0.28336	70329.5	16.6822	70346.2
0.316193	28.8148	2.44438	28.9183	-4.84882	34.0859	0.283295	-0.00227729	205920	1471.26	1	12	0.00481759	0.000166593	0	-9.6172e-06	0.000161731	3.25635e-06	-13.782	0.0195468	0.018984	0.00465658	-4.85483	28.9376	28.8338	2.44903	0.0344564	0.00292295	0.0345801	4.84882	1.47126e+06	1.73435e+07	1.74058e+07	-85.1512	0.0000000E+000	0.0000000E+000	0.0000000E+000	85.1512	0.0000000E+000	0.0000000E+000	0.0000000E+000	-85.1512	0.0000000E+000	0.0000000E+000	0.0000000E+000	-4.84882	0.0000000E+000	0.0000000E+000	0.0000000E+000	4.84882	11.7882	85.1512	-1.96019e-05	-6.45145e-07	-3.68308e-10	-6.44777e-07	0.283133	124400	71.0187	124329
0.0999041	30.1665	4.05788	30.4382	-7.66123	79.2936	0.283293	-0.00305184	392588	6977.48	1	12	0.00481177	0.000158083	0	-3.93302e-05	2.81894e-05	3.81227e-06	5.73718	0.0241156	0.0239948	-0.00241072	-7.65072	30.4617	30.1905	4.05547	0.0325602	0.00437988	0.0328535	7.66123	6.97748e+06	5.18709e+07	5.23381e+07	-82.3388	0.0000000E+000	0.0000000E+000	0.0000000E+000	82.3388	0.0000000E+000	0.0000000E+000	0.0000000E+000	-82.3388	0.0000000E+000	0.0000000E+000	0.0000000E+000	-7.66123	0.0000000E+000	0.0000000E+000	0.0000000E+000	7.66123	7.43404	82.3388	7.02754e-06	-8.64565e-07	-8.60295e-11	-8.64479e-07	0.283265	92827.1	9.23686	92817.9
0.0315922	32.7828	8.31778	33.8216	-14.2369	222.179	0.283293	0.000124025	605665	36631.9	1	12	0.0048153	0.000142374	0	0.000135721	8.54213e-05	2.29943e-06	-8.56316	0.0161506	0.0159706	0.00240482	-14.2342	33.8377	32.7988	8.32019	0.0286588	0.00727143	0.0295669	14.2369	3.66319e+07	1.44377e+08	1.48952e+08	-75.7631	0.0000000E+000	0.0000000E+000	0.0000000E+000	75.7631	0.0000000E+000	0.0000000E+000	0.0000000E+000	-75.7631	0.0000000E+000	0.0000000E+000	0.0000000E+000	-14.2369	0.0000000E+000	0.0000000E+000	0.0000000E+000	14.2369	3.94129	75.7631	6.81976e-05	3.51356e-08	1.05944e-11	3.5125e-08	0.283208	2.28416e+06	688.74	2.28347e+06
0.0100092	37.652	18.785	42.0779	-26.5151	673.401	0.283292	2.62453e-05	846468	168704	1	12	0.00481477	0.000114425	0	-0.000394376	0.000371581	1.88706e-06	-22.5405	0.0164916	0.0152318	0.00632184	-26.5136	42.0944	37.6673	18.7913	0.0212657	0.0106097	0.0237654	26.5151	1.68704e+08	3.38144e+08	3.77892e+08	-63.4849	0.0000000E+000	0.0000000E+000	0.0000000E+000	63.4849	0.0000000E+000	0.0000000E+000	0.0000000E+000	-63.4849	0.0000000E+000	0.0000000E+000	0.0000000E+000	-26.5151	0.0000000E+000	0.0000000E+000	0.0000000E+000	26.5151	2.00436	63.4849	-0.000339374	7.43508e-09	9.75224e-12	7.42533e-09	0.282921	1.0794e+07	14158	1.07799e+07