File: txt/19152_R306_UA712_SOC00_C08.mpt
EC-Lab ASCII FILE
Nb header lines : 65

Potentio Electrochemical Impedance Spectroscopy

Run on channel : 8 (SN 65398)
User :
CE vs. WE compliance from -10 V to 10 V
Electrode connection : standard
Potential control : Ewe
Ewe ctrl range : min = -10.00 V, max = 10.00 V
Safety Limits :
	Do not start on E overload
Acquisition started on : 11/12/2025 11:40:42.806
Technique started on : 11/12/2025 11:40:44.808
Loaded Setting File :  C:\Users\Celltest\OneDrive - store-dot.com\Documents\EC-Lab\Data\@Biologic Test Protocols\anode half cell EIS SOC00.mps
Saved on :
	File : 19152_R306_UA712_SOC00_C08.mpr
	Directory : C:\Users\Celltest\OneDrive - store-dot.com\Documents\EC-Lab\Data\Charmaine\
	Host : 169.254.61.224
Device : VMP-3e (SN .003165)
Address : USB
EC-LAB for windows v11.62 (software)
Internet server v27.00 (firmware)
Command interpretor v12.03 (firmware)
Electrode material :
Initial state :
Electrolyte :
Comments :
Electrode surface area : 0.001 cm²
Characteristic mass : 0.001 g
Equivalent Weight : 0.000 g/eq.
Density : 0.000 g/cm3
Volume (V) : 0.001 cm³
Record Ece
Cycle Definition : Charge/Discharge alternance
Mode                Single sine
E (V)               0.0000
vs.                 Eoc
tE (h:m:s)          0:00:0.0000
record              0
dI                  0.000
unit dI             mA
dt (s)              0.000
fi                  100.000
unit fi             kHz
ff                  10.000
unit ff             mHz
Nd                  6
Points              per decade
spacing             Logarithmic
Va (mV)             5.0
pw                  0.10
Na                  2
corr                0
E range min (V)     -10.000
E range max (V)     10.000
I Range             Auto
Bandwidth           5
nc cycles           0
goto Ns'            0
nr cycles           0
inc. cycle          0

freq/Hz	Re(Z)/Ohm	-Im(Z)/Ohm	|Z|/Ohm	Phase(Z)/deg	time/s	<Ewe>/V	<I>/mA	Cs/µF	Cp/µF	cycle number	I Range	|Ewe|/V	|I|/A	Ns	(Q-Qo)/mA.h	<Ece>/V	|Ece|/V	Phase(Zce)/deg	|Zce|/Ohm	Re(Zce)/Ohm	-Im(Zce)/Ohm	Phase(Zwe-ce)/deg	|Zwe-ce|/Ohm	Re(Zwe-ce)/Ohm	-Im(Zwe-ce)/Ohm	Re(Y)/Ohm-1	Im(Y)/Ohm-1	|Y|/Ohm-1	Phase(Y)/deg	Re(C)/nF	Im(C)/nF	|C|/nF	Phase(C)/deg	Re(M)	Im(M)	|M|	Phase(M)/deg	Re(Permittivity)	Im(Permittivity)	|Permittivity|	Phase(Permittivity)/deg	Re(Resistivity)/Ohm.cm	Im(Resistivity)/Ohm.cm	|Resistivity|/Ohm.cm	Phase(Resistivity)/deg	Re(Conductivity)/mS/cm	Im(Conductivity)/mS/cm	|Conductivity|/mS/cm	Phase(Conductivity)/deg	Tan(Delta)	Loss Angle(Delta)/deg	dq/mA.h	Pwe/W	Pce/W	Pwe-ce/W	<Ewe-Ece>/V	Rwe/Ohm	Rce/Ohm	Rwe-ce/Ohm		Ewe-Ece/V
100004	2.3123	0.822888	2.45436	-19.5893	2.00156	0.277235	-0.0382415	1.93403	0.217404	1	9	0.00455512	0.00185593	0	-6.25702e-06	-5.67291e-05	4.51517e-05	95.3722	0.0243283	-0.00227773	-0.0242215	-19.0723	2.44419	2.31002	0.798667	0.383856	0.136604	0.407438	19.5893	217.404	610.902	648.434	-70.4107	0.0000000E+000	0.0000000E+000	0.0000000E+000	70.4107	0.0000000E+000	0.0000000E+000	0.0000000E+000	-70.4107	0.0000000E+000	0.0000000E+000	0.0000000E+000	-19.5893	0.0000000E+000	0.0000000E+000	0.0000000E+000	19.5893	2.80998	70.4107	-6.25702e-06	-1.06019e-05	2.16941e-09	-1.06041e-05	0.277292	7249.59	1.48344	7251.07
31621.1	3.14724	1.21377	3.37318	-21.0898	3.39856	0.277245	-0.0311731	4.14672	0.53691	1	9	0.00525823	0.00155883	0	-1.52066e-05	-7.58172e-05	4.09985e-06	5.71281	0.00263008	0.00261701	-0.000261804	-21.0697	3.37553	3.14985	1.21351	0.276599	0.106674	0.296456	21.0898	536.91	1392.17	1492.12	-68.9102	0.0000000E+000	0.0000000E+000	0.0000000E+000	68.9102	0.0000000E+000	0.0000000E+000	0.0000000E+000	-68.9102	0.0000000E+000	0.0000000E+000	0.0000000E+000	-21.0898	0.0000000E+000	0.0000000E+000	0.0000000E+000	21.0898	2.59293	68.9102	-6.78777e-06	-8.64257e-06	2.36346e-09	-8.64494e-06	0.277321	8893.72	2.43214	8896.15
10002.2	4.13816	1.47612	4.39355	-19.6318	4.70655	0.277304	-0.026218	10.7796	1.21678	1	10	0.00498317	0.0011342	0	-2.76141e-05	5.3507e-07	8.75643e-06	-22.7983	0.00772036	0.0071172	0.00299155	-19.6373	4.40126	4.14528	1.47911	0.214376	0.0764697	0.227606	19.6318	1216.78	3411.14	3621.66	-70.3682	0.0000000E+000	0.0000000E+000	0.0000000E+000	70.3682	0.0000000E+000	0.0000000E+000	0.0000000E+000	-70.3682	0.0000000E+000	0.0000000E+000	0.0000000E+000	-19.6318	0.0000000E+000	0.0000000E+000	0.0000000E+000	19.6318	2.80341	70.3682	-3.80177e-06	-7.27036e-06	-1.40285e-11	-7.27034e-06	0.277303	10576.8	0.0204085	10576.8
3163.08	5.23554	1.90187	5.57028	-19.9641	5.60562	0.277214	-0.0242465	26.4563	3.08416	1	10	0.00515782	0.000925954	0	-3.18132e-05	1.96231e-05	1.01339e-05	-56.0131	0.0109442	0.00611786	0.00907457	-20.0303	5.57913	5.24166	1.91094	0.168736	0.0612952	0.179524	19.9641	3084.16	8490.2	9033.02	-70.0359	0.0000000E+000	0.0000000E+000	0.0000000E+000	70.0359	0.0000000E+000	0.0000000E+000	0.0000000E+000	-70.0359	0.0000000E+000	0.0000000E+000	0.0000000E+000	-19.9641	0.0000000E+000	0.0000000E+000	0.0000000E+000	19.9641	2.75284	70.0359	-1.54991e-06	-6.72145e-06	-4.75792e-10	-6.72098e-06	0.277194	11433.2	0.809319	11432.3
1000.32	6.66837	2.68268	7.18776	-21.9149	6.95885	0.277274	-0.00555366	59.3079	8.26157	1	10	0.00503427	0.000700395	0	-3.33256e-05	0.000229592	1.81333e-05	4.19204	0.02589	0.0258208	-0.00189255	-21.8243	7.21102	6.69419	2.68078	0.129072	0.0519256	0.139125	21.9149	8261.57	20535.9	22135.4	-68.0851	0.0000000E+000	0.0000000E+000	0.0000000E+000	68.0851	0.0000000E+000	0.0000000E+000	0.0000000E+000	-68.0851	0.0000000E+000	0.0000000E+000	0.0000000E+000	-21.9149	0.0000000E+000	0.0000000E+000	0.0000000E+000	21.9149	2.48571	68.0851	-7.88809e-07	-1.53988e-06	-1.27507e-09	-1.53861e-06	0.277044	49926.4	41.3406	49885
316.316	8.77979	4.02116	9.65684	-24.6079	8.30807	0.277264	-0.00617861	125.126	21.6961	1	10	0.00500583	0.000518372	0	-3.48456e-05	5.3507e-07	5.65396e-06	32.9474	0.0109071	0.00915295	-0.00593207	-24.5533	9.66269	8.78894	4.01523	0.0941487	0.0431203	0.103554	24.6079	21696.1	47371.1	52103.2	-65.3921	0.0000000E+000	0.0000000E+000	0.0000000E+000	65.3921	0.0000000E+000	0.0000000E+000	0.0000000E+000	-65.3921	0.0000000E+000	0.0000000E+000	0.0000000E+000	-24.6079	0.0000000E+000	0.0000000E+000	0.0000000E+000	24.6079	2.1834	65.3921	-8.03513e-07	-1.71311e-06	-3.30599e-12	-1.71311e-06	0.277264	44874.8	0.0866004	44874.8
100.032	12.4366	6.11762	13.8598	-26.1928	9.65477	0.277279	-0.00482455	260.075	50.67	1	10	0.00498733	0.000359842	0	-3.7535e-05	5.3507e-07	1.24811e-05	22.2818	0.034685	0.0320951	-0.0131513	-26.0857	13.8828	12.4687	6.10447	0.0647423	0.0318471	0.0721512	26.1928	50670	103008	114795	-63.8072	0.0000000E+000	0.0000000E+000	0.0000000E+000	63.8072	0.0000000E+000	0.0000000E+000	0.0000000E+000	-63.8072	0.0000000E+000	0.0000000E+000	0.0000000E+000	-26.1928	0.0000000E+000	0.0000000E+000	0.0000000E+000	26.1928	2.03291	63.8072	-2.04417e-07	-1.33775e-06	-2.58147e-12	-1.33774e-06	0.277278	57472.4	0.110906	57472.3
31.6296	18.4682	7.10777	19.7888	-21.05	11.2176	0.277325	-0.00513758	707.935	91.332	1	11	0.00499407	0.000252369	0	-4.02598e-05	-9.49052e-05	7.16555e-06	16.7892	0.0283932	0.0271829	-0.00820141	-20.9996	19.8112	18.4954	7.09957	0.0471615	0.0181508	0.0505337	21.05	91332	237309	254278	-68.95	0.0000000E+000	0.0000000E+000	0.0000000E+000	68.95	0.0000000E+000	0.0000000E+000	0.0000000E+000	-68.95	0.0000000E+000	0.0000000E+000	0.0000000E+000	-21.05	0.0000000E+000	0.0000000E+000	0.0000000E+000	21.05	2.59831	68.95	-1.51722e-06	-1.42478e-06	4.87583e-10	-1.42526e-06	0.27742	53979.7	18.4728	53998.1
10.0032	23.7986	5.56929	24.4416	-13.1712	12.5509	0.277324	-0.00454349	2856.81	148.328	1	11	0.00498533	0.000203969	0	-4.19344e-05	-0.000171257	3.82953e-06	132.508	0.018775	-0.0126861	-0.0138407	-13.1464	24.4261	23.7859	5.55545	0.0398376	0.00932271	0.0409139	13.1712	148328	633832	650957	-76.8288	0.0000000E+000	0.0000000E+000	0.0000000E+000	76.8288	0.0000000E+000	0.0000000E+000	0.0000000E+000	-76.8288	0.0000000E+000	0.0000000E+000	0.0000000E+000	-13.1712	0.0000000E+000	0.0000000E+000	0.0000000E+000	13.1712	4.27318	76.8288	6.77097e-07	-1.26002e-06	7.78106e-10	-1.2608e-06	0.277495	61037.7	37.6929	61075.4
3.1604	27.0798	3.72388	27.3346	-7.82993	14.0684	0.277317	-0.00402701	13523.3	250.985	1	11	0.00499033	0.000182564	0	-4.19256e-05	-3.7641e-05	6.94351e-06	4.8424	0.0380332	0.0378975	-0.00321058	-7.81247	27.3717	27.1177	3.72067	0.0362425	0.0049839	0.0365836	7.82993	250985	1.82514e+06	1.84232e+06	-82.1701	0.0000000E+000	0.0000000E+000	0.0000000E+000	82.1701	0.0000000E+000	0.0000000E+000	0.0000000E+000	-82.1701	0.0000000E+000	0.0000000E+000	0.0000000E+000	-7.82993	0.0000000E+000	0.0000000E+000	0.0000000E+000	7.82993	7.27192	82.1701	1.56616e-06	-1.11676e-06	1.51581e-10	-1.11691e-06	0.277355	68864.2	9.34714	68873.6
1.00006	28.9688	2.60107	29.0853	-5.13076	19.707	0.277335	-0.00210052	61184.3	489.325	1	12	0.00499393	0.000171699	0	-5.47824e-05	1.96231e-05	3.42627e-06	-34.5516	0.0199551	0.0164353	0.0113175	-5.15006	29.1027	28.9852	2.61239	0.0342438	0.00307472	0.0343816	5.13076	489325	5.44973e+06	5.47165e+06	-84.8692	0.0000000E+000	0.0000000E+000	0.0000000E+000	84.8692	0.0000000E+000	0.0000000E+000	0.0000000E+000	-84.8692	0.0000000E+000	0.0000000E+000	0.0000000E+000	-5.13076	0.0000000E+000	0.0000000E+000	0.0000000E+000	5.13076	11.1372	84.8692	-7.47754e-06	-5.8255e-07	-4.12189e-11	-5.82509e-07	0.277316	132031	9.34201	132022
0.316193	30.1385	2.58354	30.2491	-4.89954	34.0492	0.277327	-0.00272824	194828	1421.21	1	12	0.00499419	0.000165102	0	-4.90599e-05	-0.000152169	2.84014e-06	-4.29246	0.0172023	0.0171541	0.00128755	-4.8992	30.2663	30.1557	2.58483	0.0329381	0.00282352	0.0330589	4.89954	1.42121e+06	1.65793e+07	1.66401e+07	-85.1005	0.0000000E+000	0.0000000E+000	0.0000000E+000	85.1005	0.0000000E+000	0.0000000E+000	0.0000000E+000	-85.1005	0.0000000E+000	0.0000000E+000	0.0000000E+000	-4.89954	0.0000000E+000	0.0000000E+000	0.0000000E+000	4.89954	11.6656	85.1005	9.03628e-06	-7.56615e-07	4.15154e-10	-7.5703e-07	0.27748	101651	55.7757	101707
0.0999041	31.5777	4.28849	31.8675	-7.73389	79.2573	0.277333	0.000256198	371478	6727.35	1	12	0.00499301	0.00015668	0	-2.79881e-05	0.00015324	1.83571e-06	-13.9749	0.0117163	0.0113695	0.00282945	-7.73618	31.8792	31.589	4.29132	0.0310945	0.00422287	0.0313799	7.73389	6.72736e+06	4.95359e+07	4.99906e+07	-82.2661	0.0000000E+000	0.0000000E+000	0.0000000E+000	82.2661	0.0000000E+000	0.0000000E+000	0.0000000E+000	-82.2661	0.0000000E+000	0.0000000E+000	0.0000000E+000	-7.73389	0.0000000E+000	0.0000000E+000	0.0000000E+000	7.73389	7.36335	82.2661	-5.68055e-06	7.10521e-08	3.92596e-11	7.10128e-08	0.27718	1.08249e+06	598.129	1.0819e+06
0.0315922	34.185	8.54909	35.2378	-14.0407	222.141	0.277328	-0.000714488	589278	34685	1	12	0.00499425	0.00014173	0	-0.000276709	5.77992e-05	2.70365e-06	1.10114	0.019076	0.0190725	-0.000366591	-14.0326	35.2562	34.2041	8.54872	0.0275308	0.00688497	0.0283786	14.0407	3.4685e+07	1.38694e+08	1.42966e+08	-75.9593	0.0000000E+000	0.0000000E+000	0.0000000E+000	75.9593	0.0000000E+000	0.0000000E+000	0.0000000E+000	-75.9593	0.0000000E+000	0.0000000E+000	0.0000000E+000	-14.0407	0.0000000E+000	0.0000000E+000	0.0000000E+000	14.0407	3.99868	75.9593	-0.000122743	-1.98148e-07	-4.12968e-11	-1.98106e-07	0.277271	388150	80.8961	388069
0.0100092	39.149	19.246	43.624	-26.1792	673.364	0.277321	-0.00073963	826192	160810	1	12	0.00499342	0.000114465	0	-4.69595e-05	0.000496825	5.12114e-06	17.0936	0.0447399	0.0427635	-0.0131505	-26.1389	43.6566	39.1918	19.2329	0.0205717	0.0101132	0.0229232	26.1792	1.6081e+08	3.27108e+08	3.64499e+08	-63.8208	0.0000000E+000	0.0000000E+000	0.0000000E+000	63.8208	0.0000000E+000	0.0000000E+000	0.0000000E+000	-63.8208	0.0000000E+000	0.0000000E+000	0.0000000E+000	-26.1792	0.0000000E+000	0.0000000E+000	0.0000000E+000	26.1792	2.03413	63.8208	0.000261904	-2.05115e-07	-3.67466e-10	-2.04747e-07	0.276824	374945	671.72	374274