File: txt/19157_R306_UA713_SOC00_C05.mpt
EC-Lab ASCII FILE
Nb header lines : 66

Potentio Electrochemical Impedance Spectroscopy

Run on channel : 5 (SN 65912)
Grouped channel(s) : 5, 6, 7, 8
User :
CE vs. WE compliance from -10 V to 10 V
Electrode connection : standard
Potential control : Ewe
Ewe ctrl range : min = -10.00 V, max = 10.00 V
Safety Limits :
	Do not start on E overload
Acquisition started on : 11/12/2025 13:01:01.674
Loaded Setting File :  C:\Users\Celltest\OneDrive - store-dot.com\Documents\EC-Lab\Data\@Biologic Test Protocols\anode half cell EIS SOC00.mps
Saved on :
	File : 19157_R306_UA713_SOC00_C05.mpr
	Directory : C:\Users\Celltest\OneDrive - store-dot.com\Documents\EC-Lab\Data\Charmaine\
	Host : 169.254.61.224
Device : VMP-3e (SN .003165)
Address : USB
EC-LAB for windows v11.62 (software)
Internet server v27.00 (firmware)
Command interpretor v12.03 (firmware)
Electrode material :
Initial state :
Electrolyte :
Comments :
Electrode surface area : 0.001 cm²
Characteristic mass : 0.001 g
Equivalent Weight : 0.000 g/eq.
Density : 0.000 g/cm3
Volume (V) : 0.001 cm³
Record Ece
Cycle Definition : Charge/Discharge alternance
Mode                Single sine
E (V)               0.0000
vs.                 Eoc
tE (h:m:s)          0:00:0.0000
record              0
dI                  0.000
unit dI             mA
dt (s)              0.000
fi                  100.000
unit fi             kHz
ff                  10.000
unit ff             mHz
Nd                  6
Points              per decade
spacing             Logarithmic
Va (mV)             5.0
pw                  0.10
Na                  2
corr                0
E range min (V)     -10.000
E range max (V)     10.000
I Range             Auto
Bandwidth           5
nc cycles           0
goto Ns'            0
nr cycles           0
inc. cycle          0

freq/Hz	Re(Z)/Ohm	-Im(Z)/Ohm	|Z|/Ohm	Phase(Z)/deg	time/s	<Ewe>/V	<I>/mA	Cs/µF	Cp/µF	cycle number	I Range	|Ewe|/V	|I|/A	Ns	(Q-Qo)/mA.h	<Ece>/V	|Ece|/V	Phase(Zce)/deg	|Zce|/Ohm	Re(Zce)/Ohm	-Im(Zce)/Ohm	Phase(Zwe-ce)/deg	|Zwe-ce|/Ohm	Re(Zwe-ce)/Ohm	-Im(Zwe-ce)/Ohm	Re(Y)/Ohm-1	Im(Y)/Ohm-1	|Y|/Ohm-1	Phase(Y)/deg	Re(C)/nF	Im(C)/nF	|C|/nF	Phase(C)/deg	Re(M)	Im(M)	|M|	Phase(M)/deg	Re(Permittivity)	Im(Permittivity)	|Permittivity|	Phase(Permittivity)/deg	Re(Resistivity)/Ohm.cm	Im(Resistivity)/Ohm.cm	|Resistivity|/Ohm.cm	Phase(Resistivity)/deg	Re(Conductivity)/mS/cm	Im(Conductivity)/mS/cm	|Conductivity|/mS/cm	Phase(Conductivity)/deg	Tan(Delta)	Loss Angle(Delta)/deg	dq/mA.h	Pwe/W	Pce/W	Pwe-ce/W	<Ewe-Ece>/V	Rwe/Ohm	Rce/Ohm	Rwe-ce/Ohm		Ewe-Ece/V
100004	2.92011	0.756272	3.01646	-14.5199	2.05356	0.290788	-0.000170504	2.10439	0.132278	1	9	0.004874	0.0016158	0	-1.97224e-06	5.67187e-05	2.81011e-05	55.2883	0.0173915	0.00990351	-0.0142963	-14.2104	3.0225	2.93002	0.741976	0.320926	0.0831159	0.331515	14.5199	132.278	510.751	527.603	-75.4801	0.0000000E+000	0.0000000E+000	0.0000000E+000	75.4801	0.0000000E+000	0.0000000E+000	0.0000000E+000	-75.4801	0.0000000E+000	0.0000000E+000	0.0000000E+000	-14.5199	0.0000000E+000	0.0000000E+000	0.0000000E+000	14.5199	3.86119	75.4801	-1.97224e-06	-4.95806e-08	-9.67077e-12	-4.9571e-08	0.290732	1.70546e+06	332.653	1.70513e+06
31621.1	3.62714	1.2316	3.83054	-18.755	3.20355	0.29075	-0.000505659	4.08669	0.422468	1	9	0.00536347	0.00140019	0	1.05124e-06	-0.000191467	1.37815e-05	8.52745	0.00984261	0.0097338	-0.00145949	-18.6877	3.83929	3.63688	1.23014	0.247198	0.0839366	0.26106	18.755	422.468	1244.19	1313.96	-71.245	0.0000000E+000	0.0000000E+000	0.0000000E+000	71.245	0.0000000E+000	0.0000000E+000	0.0000000E+000	-71.245	0.0000000E+000	0.0000000E+000	0.0000000E+000	-18.755	0.0000000E+000	0.0000000E+000	0.0000000E+000	18.755	2.94506	71.245	4.25259e-06	-1.4702e-07	9.6817e-11	-1.47117e-07	0.290941	574992	378.649	575371
10002.2	4.65791	1.61556	4.93012	-19.1287	4.63554	0.290763	-0.00786597	9.84919	1.05762	1	10	0.00526927	0.00106879	0	1.52811e-06	-5.54966e-07	2.93884e-05	42.4464	0.0274968	0.0202902	-0.0185576	-18.8484	4.94327	4.6782	1.597	0.191635	0.0664672	0.202835	19.1287	1057.62	3049.29	3227.5	-70.8713	0.0000000E+000	0.0000000E+000	0.0000000E+000	70.8713	0.0000000E+000	0.0000000E+000	0.0000000E+000	-70.8713	0.0000000E+000	0.0000000E+000	0.0000000E+000	-19.1287	0.0000000E+000	0.0000000E+000	0.0000000E+000	19.1287	2.88315	70.8713	-2.20345e-06	-2.28713e-06	4.36535e-12	-2.28714e-06	0.290764	36964.7	0.0705529	36964.8
3163.08	5.87861	2.10683	6.24474	-19.7171	5.78368	0.290719	-0.0108373	23.8826	2.71838	1	10	0.00547083	0.00087607	0	5.29628e-08	1.85363e-05	1.48419e-05	-60.7697	0.0169415	0.00827287	0.0147842	-19.819	6.25753	5.88688	2.12161	0.150746	0.0540257	0.160135	19.7171	2718.38	7585	8057.41	-70.2829	0.0000000E+000	0.0000000E+000	0.0000000E+000	70.2829	0.0000000E+000	0.0000000E+000	0.0000000E+000	-70.2829	0.0000000E+000	0.0000000E+000	0.0000000E+000	-19.7171	0.0000000E+000	0.0000000E+000	0.0000000E+000	19.7171	2.79027	70.2829	-7.71022e-07	-3.15059e-06	-2.00882e-10	-3.15039e-06	0.2907	26825.9	1.71042	26824.2
1000.32	7.48333	3.003	8.06339	-21.8652	7.35086	0.290754	-0.00557981	52.9817	7.34855	1	10	0.00501977	0.000622539	0	-4.08318e-06	-0.000172376	1.00513e-05	159.154	0.0161456	-0.0150888	-0.00574543	-21.8672	8.04724	7.46824	2.99725	0.115096	0.0461871	0.124017	21.8652	7348.55	18312.2	19731.7	-68.1348	0.0000000E+000	0.0000000E+000	0.0000000E+000	68.1348	0.0000000E+000	0.0000000E+000	0.0000000E+000	-68.1348	0.0000000E+000	0.0000000E+000	0.0000000E+000	-21.8652	0.0000000E+000	0.0000000E+000	0.0000000E+000	21.8652	2.49195	68.1348	-1.02659e-06	-1.62235e-06	9.61826e-10	-1.62331e-06	0.290926	52108.1	30.8928	52139
316.316	9.78625	4.5122	10.7764	-24.7533	8.70006	0.29075	-0.00573992	111.509	19.5497	1	10	0.00490895	0.000455528	0	-5.88444e-06	1.85363e-05	8.22641e-06	32.9117	0.0180591	0.0151608	-0.00981231	-24.6722	10.7861	9.80142	4.50239	0.0842693	0.0388545	0.0927954	24.7533	19549.7	42400.3	46690.2	-65.2468	0.0000000E+000	0.0000000E+000	0.0000000E+000	65.2468	0.0000000E+000	0.0000000E+000	0.0000000E+000	-65.2468	0.0000000E+000	0.0000000E+000	0.0000000E+000	-24.7533	0.0000000E+000	0.0000000E+000	0.0000000E+000	24.7533	2.16884	65.2468	-1.04379e-06	-1.66888e-06	-1.06397e-10	-1.66878e-06	0.290731	50654	3.22936	50650.7
100.032	13.782	7.13856	15.5211	-27.3824	10.0468	0.290752	-0.00524099	222.88	47.1464	1	10	0.00488609	0.000314804	0	-8.45948e-06	0.000247631	4.99383e-06	-41.5599	0.0158633	0.0118699	0.0105238	-27.3967	15.5364	13.7939	7.14908	0.0572098	0.0296325	0.0644286	27.3824	47146.4	91023	102508	-62.6176	0.0000000E+000	0.0000000E+000	0.0000000E+000	62.6176	0.0000000E+000	0.0000000E+000	0.0000000E+000	-62.6176	0.0000000E+000	0.0000000E+000	0.0000000E+000	-27.3824	0.0000000E+000	0.0000000E+000	0.0000000E+000	27.3824	1.93065	62.6176	-2.78067e-07	-1.52383e-06	-1.29783e-09	-1.52253e-06	0.290505	55476.6	47.2489	55429.3
31.6296	20.9187	9.23705	22.8674	-23.8247	11.6156	0.290753	-0.00467208	544.746	88.8849	1	11	0.00488775	0.000213743	0	-1.02758e-05	-3.87374e-05	9.39758e-06	52.5395	0.0439667	0.0267412	-0.0348996	-23.7177	22.8778	20.9455	9.20215	0.040004	0.0176645	0.0437304	23.8247	88884.9	201294	220045	-66.1753	0.0000000E+000	0.0000000E+000	0.0000000E+000	66.1753	0.0000000E+000	0.0000000E+000	0.0000000E+000	-66.1753	0.0000000E+000	0.0000000E+000	0.0000000E+000	-23.8247	0.0000000E+000	0.0000000E+000	0.0000000E+000	23.8247	2.26466	66.1753	-9.94659e-07	-1.35842e-06	1.80984e-10	-1.3586e-06	0.290792	62232	8.29125	62240.3
10.0032	28.5598	8.08891	29.6832	-15.8136	12.9478	0.290754	-0.0042387	1966.94	146.066	1	11	0.00487532	0.000164245	0	-1.08668e-05	9.49011e-05	8.27071e-06	139.31	0.0503559	-0.0381824	-0.0328302	-15.7726	29.6375	28.5216	8.05608	0.0324141	0.00918054	0.0336891	15.8136	146066	515721	536006	-74.1864	0.0000000E+000	0.0000000E+000	0.0000000E+000	74.1864	0.0000000E+000	0.0000000E+000	0.0000000E+000	-74.1864	0.0000000E+000	0.0000000E+000	0.0000000E+000	-15.8136	0.0000000E+000	0.0000000E+000	0.0000000E+000	15.8136	3.53074	74.1864	8.02593e-07	-1.23242e-06	-4.02258e-10	-1.23202e-06	0.290659	68595.1	22.3892	68572.7
3.1604	33.6474	5.7126	34.1289	-9.6357	14.4645	0.290758	-0.00388053	8815.46	246.984	1	11	0.00487175	0.000142746	0	-1.26753e-05	-0.000134193	1.00105e-05	-85.061	0.0701283	0.00603773	0.0698679	-9.74958	34.1466	33.6534	5.78246	0.0288873	0.00490444	0.0293007	9.6357	246983	1.45474e+06	1.47556e+06	-80.3643	0.0000000E+000	0.0000000E+000	0.0000000E+000	80.3643	0.0000000E+000	0.0000000E+000	0.0000000E+000	-80.3643	0.0000000E+000	0.0000000E+000	0.0000000E+000	-9.6357	0.0000000E+000	0.0000000E+000	0.0000000E+000	9.6357	5.89003	80.3643	9.03863e-07	-1.1283e-06	5.20742e-10	-1.12882e-06	0.290892	74927.3	34.5812	74961.9
1.00006	36.7117	3.89748	36.918	-6.06007	19.7866	0.29076	-0.00246458	40832.8	455.092	1	12	0.00487518	0.000132054	0	-1.89314e-05	3.76275e-05	2.91727e-06	-60.7199	0.0220915	0.0108045	0.019269	-6.08803	36.9308	36.7225	3.91675	0.0269357	0.00285961	0.027087	6.06007	455092	4.28667e+06	4.31076e+06	-83.9399	0.0000000E+000	0.0000000E+000	0.0000000E+000	83.9399	0.0000000E+000	0.0000000E+000	0.0000000E+000	-83.9399	0.0000000E+000	0.0000000E+000	0.0000000E+000	-6.06007	0.0000000E+000	0.0000000E+000	0.0000000E+000	6.06007	9.41936	83.9399	-5.52605e-06	-7.16601e-07	-9.2736e-11	-7.16508e-07	0.290722	117975	15.2673	117960
0.316193	38.6114	3.38661	38.7597	-5.01259	34.1279	0.290762	-0.0027585	148629	1134.68	1	12	0.0048775	0.00012584	0	-3.46933e-05	0.000133084	2.03861e-06	-18.6123	0.0162	0.0153528	0.00517045	-5.01822	38.7754	38.6268	3.39178	0.0257013	0.00225427	0.0258	5.01259	1.13468e+06	1.29367e+07	1.29864e+07	-84.9874	0.0000000E+000	0.0000000E+000	0.0000000E+000	84.9874	0.0000000E+000	0.0000000E+000	0.0000000E+000	-84.9874	0.0000000E+000	0.0000000E+000	0.0000000E+000	-5.01259	0.0000000E+000	0.0000000E+000	0.0000000E+000	5.01259	11.4012	84.9874	-1.68791e-06	-8.02065e-07	-3.6711e-10	-8.01698e-07	0.290629	105406	48.245	105358
0.0999041	40.3788	4.80148	40.6633	-6.78125	79.3358	0.290756	-0.0011686	331789	4626.02	1	12	0.00487699	0.000119936	0	2.4366e-06	0.000209448	2.1776e-06	16.9436	0.0181564	0.0173682	-0.00529132	-6.77096	40.6799	40.3962	4.79619	0.0244202	0.00290382	0.0245922	6.78125	4.62601e+06	3.89032e+07	3.91773e+07	-83.2188	0.0000000E+000	0.0000000E+000	0.0000000E+000	83.2188	0.0000000E+000	0.0000000E+000	0.0000000E+000	-83.2188	0.0000000E+000	0.0000000E+000	0.0000000E+000	-6.78125	0.0000000E+000	0.0000000E+000	0.0000000E+000	6.78125	8.40966	83.2188	1.60096e-05	-3.39777e-07	-2.44761e-10	-3.39532e-07	0.290546	248807	179.23	248628
0.0315922	43.3558	9.55421	44.3961	-12.4275	222.219	0.290756	-8.87095e-05	527285	24420	1	12	0.00487192	0.000109738	0	-0.000115934	0.000438543	1.79011e-06	31.5308	0.0163126	0.0139042	-0.00853079	-12.4129	44.4078	43.3697	9.54568	0.0219968	0.00484737	0.0225245	12.4275	2.442e+07	1.10815e+08	1.13474e+08	-77.5725	0.0000000E+000	0.0000000E+000	0.0000000E+000	77.5725	0.0000000E+000	0.0000000E+000	0.0000000E+000	-77.5725	0.0000000E+000	0.0000000E+000	0.0000000E+000	-12.4275	0.0000000E+000	0.0000000E+000	0.0000000E+000	12.4275	4.53787	77.5725	-9.20689e-05	-2.57928e-08	-3.89029e-11	-2.57539e-08	0.290317	3.27761e+06	4943.58	3.27267e+06
0.0146812	47.2584	15.9079	49.864	-18.604	463.26	0.290757	-0.000779569	681471	69358	1	12	0.00487385	9.77429e-05	0	-0.000392474	0.000152175	1.89798e-06	6.89673	0.0194181	0.0192776	-0.00233173	-18.5944	49.8815	47.2777	15.9055	0.0190066	0.0063979	0.0200545	18.604	6.9358e+07	2.06046e+08	2.17406e+08	-71.396	0.0000000E+000	0.0000000E+000	0.0000000E+000	71.396	0.0000000E+000	0.0000000E+000	0.0000000E+000	-71.396	0.0000000E+000	0.0000000E+000	0.0000000E+000	-18.604	0.0000000E+000	0.0000000E+000	0.0000000E+000	18.604	2.97076	71.396	-0.00013327	-2.26665e-07	-1.18631e-10	-2.26547e-07	0.290605	372972	195.204	372777

0.0100092	49.6221	21.1853	53.9553	-23.1192	673.442	0.29076	-0.000849274	750565	115715	1	12	0.00487456	9.03444e-05	0	-0.000396833	-3.87374e-05	1.84381e-06	19.1442	0.0204087	0.01928	-0.00669297	-23.1046	53.9704	49.6414	21.1786	0.0170454	0.00727723	0.0185339	23.1192	1.15715e+08	2.71038e+08	2.94705e+08	-66.8808	0.0000000E+000	0.0000000E+000	0.0000000E+000	66.8808	0.0000000E+000	0.0000000E+000	0.0000000E+000	-66.8808	0.0000000E+000	0.0000000E+000	0.0000000E+000	-23.1192	0.0000000E+000	0.0000000E+000	0.0000000E+000	23.1192	2.34229	66.8808	-4.35858e-06	-2.46935e-07	3.28987e-11	-2.46968e-07	0.290799	342363	45.6123	342408