File: txt/19154_R306_UA712_SOC00_C02.mpt
EC-Lab ASCII FILE
Nb header lines : 65

Potentio Electrochemical Impedance Spectroscopy

Run on channel : 2 (SN 66139)
Grouped channel(s) : 1, 2, 3, 4
User :
CE vs. WE compliance from -10 V to 10 V
Electrode connection : standard
Potential control : Ewe
Ewe ctrl range : min = -10.00 V, max = 10.00 V
Safety Limits :
	Do not start on E overload
Acquisition started on : 11/12/2025 13:00:33.882
Loaded Setting File :  C:\Users\Celltest\OneDrive - store-dot.com\Documents\EC-Lab\Data\@Biologic Test Protocols\anode half cell EIS SOC00.mps
Saved on :
	File : 19153_R306_UA712_SOC00_C02.mpr
	Directory : C:\Users\Celltest\OneDrive - store-dot.com\Documents\EC-Lab\Data\Charmaine\
	Host : 169.254.61.224
Device : VMP-3e (SN .003165)
Address : USB
EC-LAB for windows v11.62 (software)
Internet server v27.00 (firmware)
Command interpretor v12.03 (firmware)
Electrode material :
Initial state :
Electrolyte :
Comments :
Electrode surface area : 0.001 cm²
Characteristic mass : 0.001 g
Equivalent Weight : 0.000 g/eq.
Density : 0.000 g/cm3
Volume (V) : 0.001 cm³
Record Ece
Cycle Definition : Charge/Discharge alternance
Mode                Single sine
E (V)               0.0000
vs.                 Eoc
tE (h:m:s)          0:00:0.0000
record              0
dI                  0.000
unit dI             mA
dt (s)              0.000
fi                  100.000
unit fi             kHz
ff                  10.000
unit ff             mHz
Nd                  6
Points              per decade
spacing             Logarithmic
Va (mV)             5.0
pw                  0.10
Na                  2
corr                0
E range min (V)     -10.000
E range max (V)     10.000
I Range             Auto
Bandwidth           5
nc cycles           0
goto Ns'            0
nr cycles           0
inc. cycle          0

freq/Hz	Re(Z)/Ohm	-Im(Z)/Ohm	|Z|/Ohm	Phase(Z)/deg	time/s	<Ewe>/V	<I>/mA	Cs/µF	Cp/µF	cycle number	I Range	|Ewe|/V	|I|/A	Ns	(Q-Qo)/mA.h	<Ece>/V	|Ece|/V	Phase(Zce)/deg	|Zce|/Ohm	Re(Zce)/Ohm	-Im(Zce)/Ohm	Phase(Zwe-ce)/deg	|Zwe-ce|/Ohm	Re(Zwe-ce)/Ohm	-Im(Zwe-ce)/Ohm	Re(Y)/Ohm-1	Im(Y)/Ohm-1	|Y|/Ohm-1	Phase(Y)/deg	Re(C)/nF	Im(C)/nF	|C|/nF	Phase(C)/deg	Re(M)	Im(M)	|M|	Phase(M)/deg	Re(Permittivity)	Im(Permittivity)	|Permittivity|	Phase(Permittivity)/deg	Re(Resistivity)/Ohm.cm	Im(Resistivity)/Ohm.cm	|Resistivity|/Ohm.cm	Phase(Resistivity)/deg	Re(Conductivity)/mS/cm	Im(Conductivity)/mS/cm	|Conductivity|/mS/cm	Phase(Conductivity)/deg	Tan(Delta)	Loss Angle(Delta)/deg	dq/mA.h	Pwe/W	Pce/W	Pwe-ce/W	<Ewe-Ece>/V	Rwe/Ohm	Rce/Ohm	Rwe-ce/Ohm		Ewe-Ece/V
100004	2.61626	0.833611	2.74585	-17.6733	2.14355	0.285189	-0.0357538	1.90915	0.17596	1	9	0.00495033	0.00180284	0	-6.63536e-06	0.000326414	2.53806e-05	87.453	0.0140781	0.00062561	-0.0140642	-17.3893	2.74221	2.61688	0.819547	0.346997	0.110563	0.364186	17.6733	175.96	552.243	579.598	-72.3267	0.0000000E+000	0.0000000E+000	0.0000000E+000	72.3267	0.0000000E+000	0.0000000E+000	0.0000000E+000	-72.3267	0.0000000E+000	0.0000000E+000	0.0000000E+000	-17.6733	0.0000000E+000	0.0000000E+000	0.0000000E+000	17.6733	3.13846	72.3267	-6.63536e-06	-1.01966e-05	-1.16706e-08	-1.01849e-05	0.284863	7976.46	9.12949	7967.33
31621.1	3.42735	1.28991	3.66205	-20.6243	3.54254	0.285189	-0.0378768	3.90195	0.484122	1	9	0.00520809	0.00142218	0	-2.48344e-05	0.000421868	5.10121e-06	-111.054	0.0035869	-0.00128859	0.00334744	-20.6804	3.66202	3.42606	1.29326	0.25557	0.0961861	0.273071	20.6243	484.122	1286.33	1374.42	-69.3757	0.0000000E+000	0.0000000E+000	0.0000000E+000	69.3757	0.0000000E+000	0.0000000E+000	0.0000000E+000	-69.3757	0.0000000E+000	0.0000000E+000	0.0000000E+000	-20.6243	0.0000000E+000	0.0000000E+000	0.0000000E+000	20.6243	2.65704	69.3757	-2.55545e-06	-1.0802e-05	-1.5979e-08	-1.07861e-05	0.284767	7529.37	11.1379	7518.23
10002.2	4.52492	1.58061	4.79304	-19.255	4.84653	0.285241	-0.0270448	10.067	1.09478	1	10	0.00546461	0.00114011	0	-3.78246e-05	9.7324e-05	1.70959e-05	3.44307	0.0149949	0.0149678	-0.000900542	-19.186	4.80688	4.53989	1.57971	0.196965	0.0688024	0.208636	19.255	1094.78	3134.1	3319.81	-70.745	0.0000000E+000	0.0000000E+000	0.0000000E+000	70.745	0.0000000E+000	0.0000000E+000	0.0000000E+000	-70.745	0.0000000E+000	0.0000000E+000	0.0000000E+000	-19.255	0.0000000E+000	0.0000000E+000	0.0000000E+000	19.255	2.86276	70.745	-1.35855e-06	-7.71429e-06	-2.63211e-09	-7.71166e-06	0.285143	10547	3.59862	10543.4
3163.08	5.67886	1.97239	6.01164	-19.1532	5.86867	0.285182	-0.0235655	25.5104	2.7461	1	10	0.00504841	0.000839772	0	-4.30705e-05	0.000192778	4.08925e-06	61.1624	0.00486948	0.00234869	-0.00426562	-19.1075	6.01246	5.68121	1.96812	0.157136	0.0545767	0.166344	19.1532	2746.1	7906.52	8369.84	-70.8468	0.0000000E+000	0.0000000E+000	0.0000000E+000	70.8468	0.0000000E+000	0.0000000E+000	0.0000000E+000	-70.8468	0.0000000E+000	0.0000000E+000	0.0000000E+000	-19.1532	0.0000000E+000	0.0000000E+000	0.0000000E+000	19.1532	2.87918	70.8468	-1.62655e-06	-6.72046e-06	-4.54291e-09	-6.71592e-06	0.28499	12101.7	8.18053	12093.5
1000.32	7.14337	2.77544	7.66361	-21.2328	7.22184	0.285214	-0.01217	57.3257	7.51877	1	10	0.00495904	0.00064709	0	-4.70797e-05	4.00515e-05	6.64146e-06	-40.7835	0.0102636	0.00777141	0.0067042	-21.2585	7.67328	7.15114	2.78215	0.121629	0.0472569	0.130487	21.2328	7518.77	19351.7	20761	-68.7672	0.0000000E+000	0.0000000E+000	0.0000000E+000	68.7672	0.0000000E+000	0.0000000E+000	0.0000000E+000	-68.7672	0.0000000E+000	0.0000000E+000	0.0000000E+000	-21.2328	0.0000000E+000	0.0000000E+000	0.0000000E+000	21.2328	2.57378	68.7672	-1.31113e-06	-3.47107e-06	-4.87428e-10	-3.47058e-06	0.285174	23435.7	3.29099	23432.5
316.316	9.21081	4.3363	10.1805	-25.2103	8.57207	0.285208	-0.012185	116.033	21.0514	1	10	0.00492222	0.000483495	0	-5.07573e-05	0.000326414	6.37706e-06	-20.5113	0.0131895	0.0123534	0.00462151	-25.2042	10.1936	9.22317	4.34092	0.088871	0.041839	0.098227	25.2103	21051.3	44715.6	49423.1	-64.7897	0.0000000E+000	0.0000000E+000	0.0000000E+000	64.7897	0.0000000E+000	0.0000000E+000	0.0000000E+000	-64.7897	0.0000000E+000	0.0000000E+000	0.0000000E+000	-25.2103	0.0000000E+000	0.0000000E+000	0.0000000E+000	25.2103	2.12412	64.7897	-1.06293e-06	-3.47524e-06	-3.97734e-09	-3.47126e-06	0.284881	23406.5	26.7883	23379.7
100.032	13.1107	7.21724	14.9659	-28.8321	9.91786	0.285206	-0.0116634	220.45	51.2679	1	10	0.00492233	0.000328903	0	-5.46481e-05	-5.54027e-05	6.37264e-06	-90.851	0.0193755	-0.000287772	0.0193733	-28.8976	14.975	13.1104	7.23661	0.0585354	0.0322229	0.0668185	28.8321	51267.9	93132.2	106311	-61.1679	0.0000000E+000	0.0000000E+000	0.0000000E+000	61.1679	0.0000000E+000	0.0000000E+000	0.0000000E+000	-61.1679	0.0000000E+000	0.0000000E+000	0.0000000E+000	-28.8321	0.0000000E+000	0.0000000E+000	0.0000000E+000	28.8321	1.81658	61.1679	-1.72116e-06	-3.32648e-06	6.46186e-10	-3.32712e-06	0.285261	24453	4.75013	24457.7
31.6296	20.4821	9.35774	22.5185	-24.5544	11.4866	0.285237	-0.010473	537.72	92.8575	1	11	0.00491681	0.000218345	0	-5.90239e-05	0.000269142	7.31243e-06	-23.0414	0.0334903	0.0308186	0.013108	-24.5521	22.552	20.513	9.37084	0.0403919	0.018454	0.0444078	24.5544	92857.5	203246	223453	-65.4456	0.0000000E+000	0.0000000E+000	0.0000000E+000	65.4456	0.0000000E+000	0.0000000E+000	0.0000000E+000	-65.4456	0.0000000E+000	0.0000000E+000	0.0000000E+000	-24.5544	0.0000000E+000	0.0000000E+000	0.0000000E+000	24.5544	2.18879	65.4456	-9.34921e-07	-2.98728e-06	-2.81872e-09	-2.98446e-06	0.284967	27235.4	25.6986	27209.7
10.0032	28.131	8.07715	29.2676	-16.0202	12.8188	0.285242	-0.0096065	1969.8	150.026	1	11	0.00490357	0.000167543	0	-6.37888e-05	0.000307323	5.31214e-06	38.3087	0.0317063	0.0248793	-0.0196546	-15.9698	29.2861	28.1559	8.0575	0.0328406	0.00942941	0.0341675	16.0202	150026	522507	543618	-73.9798	0.0000000E+000	0.0000000E+000	0.0000000E+000	73.9798	0.0000000E+000	0.0000000E+000	0.0000000E+000	-73.9798	0.0000000E+000	0.0000000E+000	0.0000000E+000	-16.0202	0.0000000E+000	0.0000000E+000	0.0000000E+000	16.0202	3.48278	73.9798	-2.01366e-06	-2.74017e-06	-2.9523e-09	-2.73722e-06	0.284934	29692.6	31.9912	29660.6
3.1604	33.3093	5.72377	33.7975	-9.7503	14.3364	0.285255	-0.00826461	8798.25	252.343	1	11	0.00491401	0.000145395	0	-6.61902e-05	0.000154597	5.52759e-06	-10.7003	0.0380176	0.0373566	0.00705877	-9.75137	33.8356	33.3467	5.73083	0.0291606	0.00501086	0.029588	9.7503	252343	1.4685e+06	1.49002e+06	-80.2497	0.0000000E+000	0.0000000E+000	0.0000000E+000	80.2497	0.0000000E+000	0.0000000E+000	0.0000000E+000	-80.2497	0.0000000E+000	0.0000000E+000	0.0000000E+000	-9.7503	0.0000000E+000	0.0000000E+000	0.0000000E+000	9.7503	5.81947	80.2497	-2.17733e-06	-2.35752e-06	-1.27768e-09	-2.35625e-06	0.285101	34515.3	18.7059	34496.6
1.00006	36.3456	3.9038	36.5547	-6.13051	19.6569	0.285257	-0.00737902	40766.6	464.937	1	12	0.00491255	0.000134389	0	-7.93858e-05	0.00023096	2.82e-06	27.1858	0.0209839	0.0186658	-0.00958706	-6.11245	36.5722	36.3643	3.89422	0.0271998	0.00292147	0.0273563	6.13051	464937	4.32871e+06	4.35361e+06	-83.8695	0.0000000E+000	0.0000000E+000	0.0000000E+000	83.8695	0.0000000E+000	0.0000000E+000	0.0000000E+000	-83.8695	0.0000000E+000	0.0000000E+000	0.0000000E+000	-6.13051	0.0000000E+000	0.0000000E+000	0.0000000E+000	6.13051	9.31032	83.8695	-2.01214e-06	-2.10492e-06	-1.70426e-09	-2.10321e-06	0.285026	38657.8	31.2995	38626.5
0.316193	38.1729	3.33847	38.3186	-4.99818	34.0008	0.285249	-0.00524163	150772	1144.45	1	12	0.00491425	0.000128247	0	-8.67571e-05	0.00023096	8.47925e-07	33.0446	0.00661164	0.00554218	-0.00360527	-4.99209	38.3238	38.1784	3.33486	0.0259978	0.00227368	0.026097	4.99818	1.14445e+06	1.30859e+07	1.31359e+07	-85.0018	0.0000000E+000	0.0000000E+000	0.0000000E+000	85.0018	0.0000000E+000	0.0000000E+000	0.0000000E+000	-85.0018	0.0000000E+000	0.0000000E+000	0.0000000E+000	-4.99818	0.0000000E+000	0.0000000E+000	0.0000000E+000	4.99818	11.4342	85.0018	-5.92738e-06	-1.49517e-06	-1.21061e-09	-1.49396e-06	0.285018	54419.9	44.0626	54375.8
0.0999041	39.9674	4.85562	40.2613	-6.9269	79.2087	0.285248	-0.00287932	328089	4772.07	1	12	0.00491239	0.000122013	0	-0.00018965	1.86979e-06	1.59783e-06	19.1751	0.0130956	0.012369	-0.00430132	-6.9187	40.273	39.9798	4.85132	0.0246565	0.00299551	0.0248378	6.9269	4.77207e+06	3.92797e+07	3.95685e+07	-83.0731	0.0000000E+000	0.0000000E+000	0.0000000E+000	83.0731	0.0000000E+000	0.0000000E+000	0.0000000E+000	-83.0731	0.0000000E+000	0.0000000E+000	0.0000000E+000	-6.9269	0.0000000E+000	0.0000000E+000	0.0000000E+000	6.9269	8.23115	83.0731	-5.15402e-05	-8.21321e-07	-5.38372e-12	-8.21315e-07	0.285246	99068	0.649386	99067.4
0.0315922	43.2319	9.83477	44.3364	-12.816	222.092	0.285245	-0.0024235	512243	25204.8	1	12	0.00491274	0.000110806	0	-0.000296431	0.000421868	1.49886e-06	15.4682	0.0135269	0.013037	-0.00360767	-12.8078	44.3483	43.2449	9.83117	0.0219929	0.00500315	0.0225548	12.816	2.52048e+07	1.10796e+08	1.13627e+08	-77.184	0.0000000E+000	0.0000000E+000	0.0000000E+000	77.184	0.0000000E+000	0.0000000E+000	0.0000000E+000	-77.184	0.0000000E+000	0.0000000E+000	0.0000000E+000	-12.816	0.0000000E+000	0.0000000E+000	0.0000000E+000	12.816	4.39582	77.184	2.34865e-06	-6.91292e-07	-1.0224e-09	-6.9027e-07	0.284823	117699	174.074	117525
0.0100092	49.5565	20.9395	53.7988	-22.9059	673.315	0.285236	-0.000238027	759374	115039	1	12	0.0049141	9.13422e-05	0	5.24654e-05	0.000421868	1.60715e-06	-26.2339	0.0175949	0.0157825	0.00777757	-22.907	53.8163	49.5723	20.9473	0.0171221	0.00723472	0.0185878	22.9059	1.15039e+08	2.72256e+08	2.95563e+08	-67.0941	0.0000000E+000	0.0000000E+000	0.0000000E+000	67.0941	0.0000000E+000	0.0000000E+000	0.0000000E+000	-67.0941	0.0000000E+000	0.0000000E+000	0.0000000E+000	-22.9059	0.0000000E+000	0.0000000E+000	0.0000000E+000	22.9059	2.36665	67.0941	0.000113167	-6.7894e-08	-1.00416e-10	-6.77935e-08	0.284814	1.19833e+06	1772.35	1.19656e+06