File: txt/19151_R306_UA711_SOC00_C07.mpt
EC-Lab ASCII FILE
Nb header lines : 65

Potentio Electrochemical Impedance Spectroscopy

Run on channel : 7 (SN 66126)
Grouped channel(s) : 3, 4, 5, 6, 7
User :
CE vs. WE compliance from -10 V to 10 V
Electrode connection : standard
Potential control : Ewe
Ewe ctrl range : min = -10.00 V, max = 10.00 V
Safety Limits :
	Do not start on E overload
Acquisition started on : 11/12/2025 11:40:22.150
Loaded Setting File :  C:\Users\Celltest\OneDrive - store-dot.com\Documents\EC-Lab\Data\@Biologic Test Protocols\anode half cell EIS SOC00.mps
Saved on :
	File : 19147_R306_UA711_SOC00_C07.mpr
	Directory : C:\Users\Celltest\OneDrive - store-dot.com\Documents\EC-Lab\Data\Charmaine\
	Host : 169.254.61.224
Device : VMP-3e (SN .003165)
Address : USB
EC-LAB for windows v11.62 (software)
Internet server v27.00 (firmware)
Command interpretor v12.03 (firmware)
Electrode material :
Initial state :
Electrolyte :
Comments :
Electrode surface area : 0.001 cm²
Characteristic mass : 0.001 g
Equivalent Weight : 0.000 g/eq.
Density : 0.000 g/cm3
Volume (V) : 0.001 cm³
Record Ece
Cycle Definition : Charge/Discharge alternance
Mode                Single sine
E (V)               0.0000
vs.                 Eoc
tE (h:m:s)          0:00:0.0000
record              0
dI                  0.000
unit dI             mA
dt (s)              0.000
fi                  100.000
unit fi             kHz
ff                  10.000
unit ff             mHz
Nd                  6
Points              per decade
spacing             Logarithmic
Va (mV)             5.0
pw                  0.10
Na                  2
corr                0
E range min (V)     -10.000
E range max (V)     10.000
I Range             Auto
Bandwidth           5
nc cycles           0
goto Ns'            0
nr cycles           0
inc. cycle          0

freq/Hz	Re(Z)/Ohm	-Im(Z)/Ohm	|Z|/Ohm	Phase(Z)/deg	time/s	<Ewe>/V	<I>/mA	Cs/µF	Cp/µF	cycle number	I Range	|Ewe|/V	|I|/A	Ns	(Q-Qo)/mA.h	<Ece>/V	|Ece|/V	Phase(Zce)/deg	|Zce|/Ohm	Re(Zce)/Ohm	-Im(Zce)/Ohm	Phase(Zwe-ce)/deg	|Zwe-ce|/Ohm	Re(Zwe-ce)/Ohm	-Im(Zwe-ce)/Ohm	Re(Y)/Ohm-1	Im(Y)/Ohm-1	|Y|/Ohm-1	Phase(Y)/deg	Re(C)/nF	Im(C)/nF	|C|/nF	Phase(C)/deg	Re(M)	Im(M)	|M|	Phase(M)/deg	Re(Permittivity)	Im(Permittivity)	|Permittivity|	Phase(Permittivity)/deg	Re(Resistivity)/Ohm.cm	Im(Resistivity)/Ohm.cm	|Resistivity|/Ohm.cm	Phase(Resistivity)/deg	Re(Conductivity)/mS/cm	Im(Conductivity)/mS/cm	|Conductivity|/mS/cm	Phase(Conductivity)/deg	Tan(Delta)	Loss Angle(Delta)/deg	dq/mA.h	Pwe/W	Pce/W	Pwe-ce/W	<Ewe-Ece>/V	Rwe/Ohm	Rce/Ohm	Rwe-ce/Ohm		Ewe-Ece/V
100004	1.97069	1.10537	2.25952	-29.2882	1.91056	0.166836	0.0462545	1.43979	0.34457	1	9	0.00468492	0.00207341	0	7.29593e-06	-8.68658e-05	3.60438e-05	88.9723	0.0173838	0.000311797	-0.017381	-28.8986	2.25134	1.971	1.08798	0.385998	0.216507	0.442572	29.2882	344.57	614.311	704.348	-60.7118	0.0000000E+000	0.0000000E+000	0.0000000E+000	60.7118	0.0000000E+000	0.0000000E+000	0.0000000E+000	-60.7118	0.0000000E+000	0.0000000E+000	0.0000000E+000	-29.2882	0.0000000E+000	0.0000000E+000	0.0000000E+000	29.2882	1.78284	60.7118	7.29593e-06	7.7169e-06	-4.01793e-09	7.72091e-06	0.166922	3606.9	1.878	3608.78
31621.1	3.0898	1.90663	3.63072	-31.6776	3.30756	0.166877	0.0471109	2.63983	0.727988	1	9	0.00516065	0.00142139	0	1.91197e-05	-6.77904e-05	8.3561e-06	-57.3597	0.00587884	0.00317083	0.00495041	-31.7178	3.63602	3.09297	1.91158	0.234393	0.144638	0.275427	31.6776	727.988	1179.74	1386.28	-58.3224	0.0000000E+000	0.0000000E+000	0.0000000E+000	58.3224	0.0000000E+000	0.0000000E+000	0.0000000E+000	-58.3224	0.0000000E+000	0.0000000E+000	0.0000000E+000	-31.6776	0.0000000E+000	0.0000000E+000	0.0000000E+000	31.6776	1.62055	58.3224	4.27078e-06	7.86174e-06	-3.19367e-09	7.86493e-06	0.166945	3542.22	1.43895	3543.66
10002.2	4.86839	2.39584	5.42598	-26.2028	4.48752	0.166841	-0.00994646	6.64149	1.29487	1	10	0.00482114	0.000888529	0	2.2087e-05	-0.000258545	7.77035e-06	-137.823	0.00874519	-0.00648078	0.00587177	-26.2887	5.42276	4.8619	2.40171	0.165359	0.081377	0.184299	26.2028	1294.87	2631.19	2932.55	-63.7972	0.0000000E+000	0.0000000E+000	0.0000000E+000	63.7972	0.0000000E+000	0.0000000E+000	0.0000000E+000	-63.7972	0.0000000E+000	0.0000000E+000	0.0000000E+000	-26.2028	0.0000000E+000	0.0000000E+000	0.0000000E+000	26.2028	2.03202	63.7972	-1.32265e-06	-1.65947e-06	2.5716e-09	-1.66205e-06	0.167099	16773.9	25.9936	16799.9
3163.08	6.6149	2.71176	7.14917	-22.291	5.38362	0.166729	-0.00639124	18.5549	2.66962	1	10	0.00461151	0.000645042	0	1.85222e-05	-0.000105941	1.57361e-06	-56.061	0.00243955	0.00136203	0.00202393	-22.3019	7.15119	6.61627	2.71378	0.129423	0.0530567	0.139876	22.291	2669.62	6512.12	7038.09	-67.709	0.0000000E+000	0.0000000E+000	0.0000000E+000	67.709	0.0000000E+000	0.0000000E+000	0.0000000E+000	-67.709	0.0000000E+000	0.0000000E+000	0.0000000E+000	-22.291	0.0000000E+000	0.0000000E+000	0.0000000E+000	22.291	2.43934	67.709	-8.17452e-07	-1.0656e-06	6.77095e-10	-1.06628e-06	0.166835	26087.1	16.576	26103.6
1000.32	8.28797	3.76485	9.103	-24.4301	6.73782	0.166763	0.00594971	42.2604	7.22869	1	10	0.00452409	0.000496989	0	2.14393e-05	-8.68658e-05	7.8527e-06	46.0825	0.0158005	0.0109596	-0.0113817	-24.3364	9.10828	8.29893	3.75347	0.100018	0.0454338	0.109854	24.4301	7228.69	15913.3	17478.2	-65.5699	0.0000000E+000	0.0000000E+000	0.0000000E+000	65.5699	0.0000000E+000	0.0000000E+000	0.0000000E+000	-65.5699	0.0000000E+000	0.0000000E+000	0.0000000E+000	-24.4301	0.0000000E+000	0.0000000E+000	0.0000000E+000	24.4301	2.20141	65.5699	5.28941e-07	9.9219e-07	-5.16826e-10	9.92707e-07	0.16685	28028.8	14.6	28043.4
316.316	10.9298	6.86986	12.9095	-32.1513	8.302	0.16676	0.00484777	73.2405	20.741	1	10	0.0049809	0.000385833	0	2.42752e-05	4.66622e-05	8.37465e-06	5.24186	0.0217054	0.0216146	-0.001983	-32.0929	12.9267	10.9514	6.86788	0.0655833	0.0412222	0.0774625	32.1513	20741	32998.4	38975.4	-57.8487	0.0000000E+000	0.0000000E+000	0.0000000E+000	57.8487	0.0000000E+000	0.0000000E+000	0.0000000E+000	-57.8487	0.0000000E+000	0.0000000E+000	0.0000000E+000	-32.1513	0.0000000E+000	0.0000000E+000	0.0000000E+000	32.1513	1.59097	57.8487	8.81781e-07	8.08411e-07	2.26207e-10	8.08185e-07	0.166713	34399.3	9.6255	34389.7
100.032	18.4059	11.9917	21.9677	-33.0847	9.64981	0.166773	0.00704047	132.679	39.536	1	10	0.00496805	0.000226153	0	2.61365e-05	-0.000163167	5.25375e-06	-115.309	0.023231	-0.0099311	0.0210013	-33.1447	21.9708	18.396	12.0127	0.0381408	0.0248491	0.0455214	33.0847	39536	60683.5	72426.4	-56.9153	0.0000000E+000	0.0000000E+000	0.0000000E+000	56.9153	0.0000000E+000	0.0000000E+000	0.0000000E+000	-56.9153	0.0000000E+000	0.0000000E+000	0.0000000E+000	-33.0847	0.0000000E+000	0.0000000E+000	0.0000000E+000	33.0847	1.53489	56.9153	1.12307e-06	1.17416e-06	-1.14877e-09	1.17531e-06	0.166936	23687.8	23.1757	23711
31.6296	30.8253	11.5593	32.9214	-20.5558	11.2295	0.166802	-0.000201947	435.305	53.6665	1	11	0.00497207	0.000151028	0	2.6891e-05	8.51134e-06	1.53683e-05	-33.9329	0.101758	0.0844276	0.0568033	-20.5966	33.0204	30.9098	11.6161	0.0284414	0.0106654	0.0303754	20.5558	53666.5	143113	152844	-69.4442	0.0000000E+000	0.0000000E+000	0.0000000E+000	69.4442	0.0000000E+000	0.0000000E+000	0.0000000E+000	-69.4442	0.0000000E+000	0.0000000E+000	0.0000000E+000	-20.5558	0.0000000E+000	0.0000000E+000	0.0000000E+000	20.5558	2.6667	69.4442	-7.50515e-09	-3.36851e-08	-1.71884e-12	-3.36834e-08	0.166793	825966	42.1463	825924
10.0032	37.3806	6.2105	37.893	-9.43308	12.5608	0.166806	2.68491e-06	2561.86	68.8159	1	11	0.00496334	0.000130983	0	2.74276e-05	-0.000105941	7.00176e-06	56.2942	0.0534555	0.029664	-0.0444695	-9.35944	37.915	37.4103	6.16603	0.0260332	0.00432521	0.0263901	9.43308	68815.9	414199	419877	-80.5669	0.0000000E+000	0.0000000E+000	0.0000000E+000	80.5669	0.0000000E+000	0.0000000E+000	0.0000000E+000	-80.5669	0.0000000E+000	0.0000000E+000	0.0000000E+000	-9.43308	0.0000000E+000	0.0000000E+000	0.0000000E+000	9.43308	6.01894	80.5669	-1.65508e-07	4.47858e-10	-2.84442e-13	4.48143e-10	0.166912	6.21272e+07	39458	6.21667e+07
3.1604	39.6104	3.3986	39.7559	-4.904	14.0774	0.166817	0.000991183	14817.6	108.287	1	11	0.00497074	0.000125032	0	2.63562e-05	-0.000239469	4.0284e-06	127.221	0.032219	-0.019489	-0.0256563	-4.86955	39.7343	39.5909	3.37294	0.0250614	0.00215029	0.0251535	4.904	108287	1.26207e+06	1.26671e+06	-85.096	0.0000000E+000	0.0000000E+000	0.0000000E+000	85.096	0.0000000E+000	0.0000000E+000	0.0000000E+000	-85.096	0.0000000E+000	0.0000000E+000	0.0000000E+000	-4.904	0.0000000E+000	0.0000000E+000	0.0000000E+000	4.904	11.6549	85.096	-6.21694e-07	1.65346e-07	-2.37358e-10	1.65584e-07	0.167057	168301	241.599	168543
1.00006	41.2114	2.76456	41.3041	-3.83779	19.3968	0.166831	0.00140581	57566	257.889	1	12	0.00497508	0.00012045	0	3.35798e-05	2.75868e-05	3.90244e-06	-65.6523	0.0323988	0.0133572	0.0295173	-3.87739	41.3194	41.2248	2.79408	0.0241564	0.00162047	0.0242107	3.83779	257889	3.84436e+06	3.853e+06	-86.1622	0.0000000E+000	0.0000000E+000	0.0000000E+000	86.1622	0.0000000E+000	0.0000000E+000	0.0000000E+000	-86.1622	0.0000000E+000	0.0000000E+000	0.0000000E+000	-3.83779	0.0000000E+000	0.0000000E+000	0.0000000E+000	3.83779	14.907	86.1622	1.55554e-06	2.34533e-07	3.87818e-11	2.34494e-07	0.166803	118672	19.6234	118653
0.316193	42.69	3.09024	42.8017	-4.1403	33.7411	0.166829	0.00112816	162883	849.058	1	12	0.00497402	0.000116211	0	1.94768e-05	-1.05641e-05	1.55403e-06	58.8089	0.0133725	0.00692555	-0.0114394	-4.12436	42.8078	42.6969	3.0788	0.0233026	0.00168682	0.0233635	4.1403	849058	1.17293e+07	1.176e+07	-85.8597	0.0000000E+000	0.0000000E+000	0.0000000E+000	85.8597	0.0000000E+000	0.0000000E+000	0.0000000E+000	-85.8597	0.0000000E+000	0.0000000E+000	0.0000000E+000	-4.1403	0.0000000E+000	0.0000000E+000	0.0000000E+000	4.1403	13.8145	85.8597	-7.40375e-06	1.88211e-07	-1.1918e-11	1.88222e-07	0.16684	147876	9.36396	147886
0.0999041	44.3564	5.17713	44.6575	-6.65725	78.9497	0.166831	-0.000342319	307715	4135.59	1	12	0.00497219	0.00011134	0	4.40924e-05	8.4813e-05	1.92344e-06	0.078274	0.0172753	0.0172752	-2.36004e-05	-6.65465	44.6746	44.3737	5.1771	0.0222417	0.00259597	0.0223927	6.65725	4.13559e+06	3.54327e+07	3.56732e+07	-83.3428	0.0000000E+000	0.0000000E+000	0.0000000E+000	83.3428	0.0000000E+000	0.0000000E+000	0.0000000E+000	-83.3428	0.0000000E+000	0.0000000E+000	0.0000000E+000	-6.65725	0.0000000E+000	0.0000000E+000	0.0000000E+000	6.65725	8.56776	83.3428	2.34592e-05	-5.71095e-08	-2.90331e-11	-5.70804e-08	0.166746	487356	247.76	487108
0.0315922	47.3007	10.9698	48.556	-13.057	221.833	0.166829	0.000945292	459242	23439.7	1	12	0.00497338	0.000102426	0	0.000179947	-0.000125017	9.50605e-07	51.887	0.00928093	0.00572832	-0.0073022	-13.0471	48.56	47.3064	10.9625	0.0200623	0.00465277	0.0205948	13.057	2.34397e+07	1.0107e+08	1.03752e+08	-76.943	0.0000000E+000	0.0000000E+000	0.0000000E+000	76.943	0.0000000E+000	0.0000000E+000	0.0000000E+000	-76.943	0.0000000E+000	0.0000000E+000	0.0000000E+000	-13.057	0.0000000E+000	0.0000000E+000	0.0000000E+000	13.057	4.3119	76.943	3.72293e-05	1.57702e-07	-1.18177e-10	1.5782e-07	0.166954	176484	132.252	176616
0.0100092	54.0109	25.2766	59.6329	-25.0792	673.054	0.16683	0.000115701	629076	113024	1	12	0.00497612	8.34458e-05	0	-0.000229865	-0.000296695	1.41135e-06	-83.985	0.0169133	0.00177233	0.0168202	-25.0931	59.6416	54.0127	25.2934	0.0151883	0.00710799	0.0167693	25.0792	1.13024e+08	2.41508e+08	2.66647e+08	-64.9208	0.0000000E+000	0.0000000E+000	0.0000000E+000	64.9208	0.0000000E+000	0.0000000E+000	0.0000000E+000	-64.9208	0.0000000E+000	0.0000000E+000	0.0000000E+000	-25.0792	0.0000000E+000	0.0000000E+000	0.0000000E+000	25.0792	2.13679	64.9208	-0.000219243	1.93023e-08	-3.43279e-11	1.93367e-08	0.167127	1.44191e+06	2564.34	1.44447e+06