File: txt/19159_R306_UA713_SOC00_C07.mpt
EC-Lab ASCII FILE
Nb header lines : 65

Potentio Electrochemical Impedance Spectroscopy

Run on channel : 7 (SN 66126)
Grouped channel(s) : 5, 6, 7, 8
User :
CE vs. WE compliance from -10 V to 10 V
Electrode connection : standard
Potential control : Ewe
Ewe ctrl range : min = -10.00 V, max = 10.00 V
Safety Limits :
	Do not start on E overload
Acquisition started on : 11/12/2025 13:01:01.674
Loaded Setting File :  C:\Users\Celltest\OneDrive - store-dot.com\Documents\EC-Lab\Data\@Biologic Test Protocols\anode half cell EIS SOC00.mps
Saved on :
	File : 19157_R306_UA713_SOC00_C07.mpr
	Directory : C:\Users\Celltest\OneDrive - store-dot.com\Documents\EC-Lab\Data\Charmaine\
	Host : 169.254.61.224
Device : VMP-3e (SN .003165)
Address : USB
EC-LAB for windows v11.62 (software)
Internet server v27.00 (firmware)
Command interpretor v12.03 (firmware)
Electrode material :
Initial state :
Electrolyte :
Comments :
Electrode surface area : 0.001 cm²
Characteristic mass : 0.001 g
Equivalent Weight : 0.000 g/eq.
Density : 0.000 g/cm3
Volume (V) : 0.001 cm³
Record Ece
Cycle Definition : Charge/Discharge alternance
Mode                Single sine
E (V)               0.0000
vs.                 Eoc
tE (h:m:s)          0:00:0.0000
record              0
dI                  0.000
unit dI             mA
dt (s)              0.000
fi                  100.000
unit fi             kHz
ff                  10.000
unit ff             mHz
Nd                  6
Points              per decade
spacing             Logarithmic
Va (mV)             5.0
pw                  0.10
Na                  2
corr                0
E range min (V)     -10.000
E range max (V)     10.000
I Range             Auto
Bandwidth           5
nc cycles           0
goto Ns'            0
nr cycles           0
inc. cycle          0

freq/Hz	Re(Z)/Ohm	-Im(Z)/Ohm	|Z|/Ohm	Phase(Z)/deg	time/s	<Ewe>/V	<I>/mA	Cs/µF	Cp/µF	cycle number	I Range	|Ewe|/V	|I|/A	Ns	(Q-Qo)/mA.h	<Ece>/V	|Ece|/V	Phase(Zce)/deg	|Zce|/Ohm	Re(Zce)/Ohm	-Im(Zce)/Ohm	Phase(Zwe-ce)/deg	|Zwe-ce|/Ohm	Re(Zwe-ce)/Ohm	-Im(Zwe-ce)/Ohm	Re(Y)/Ohm-1	Im(Y)/Ohm-1	|Y|/Ohm-1	Phase(Y)/deg	Re(C)/nF	Im(C)/nF	|C|/nF	Phase(C)/deg	Re(M)	Im(M)	|M|	Phase(M)/deg	Re(Permittivity)	Im(Permittivity)	|Permittivity|	Phase(Permittivity)/deg	Re(Resistivity)/Ohm.cm	Im(Resistivity)/Ohm.cm	|Resistivity|/Ohm.cm	Phase(Resistivity)/deg	Re(Conductivity)/mS/cm	Im(Conductivity)/mS/cm	|Conductivity|/mS/cm	Phase(Conductivity)/deg	Tan(Delta)	Loss Angle(Delta)/deg	dq/mA.h	Pwe/W	Pce/W	Pwe-ce/W	<Ewe-Ece>/V	Rwe/Ohm	Rce/Ohm	Rwe-ce/Ohm		Ewe-Ece/V
100004	2.83265	1.1436	3.05479	-21.9849	2.04251	0.283539	0.0432756	1.39165	0.195036	1	9	0.00463371	0.00151687	0	3.76039e-06	-0.000246909	2.36268e-05	85.0046	0.0155761	0.0013563	-0.0155169	-21.7051	3.05028	2.83401	1.12808	0.30355	0.122549	0.327355	21.9849	195.036	483.097	520.982	-68.0151	0.0000000E+000	0.0000000E+000	0.0000000E+000	68.0151	0.0000000E+000	0.0000000E+000	0.0000000E+000	-68.0151	0.0000000E+000	0.0000000E+000	0.0000000E+000	-21.9849	0.0000000E+000	0.0000000E+000	0.0000000E+000	21.9849	2.47696	68.0151	3.76039e-06	1.22703e-05	-1.06851e-08	1.2281e-05	0.283786	6551.94	5.70549	6557.65
31621.1	3.90767	1.62121	4.23063	-22.5326	3.44352	0.283573	0.0421213	3.10458	0.455904	1	9	0.00509955	0.00120539	0	2.55813e-05	-0.000132456	1.22602e-05	-4.51578	0.0101712	0.0101396	0.000800812	-22.49	4.2403	3.91781	1.62201	0.218328	0.0905796	0.236372	22.5326	455.904	1098.88	1189.7	-67.4674	0.0000000E+000	0.0000000E+000	0.0000000E+000	67.4674	0.0000000E+000	0.0000000E+000	0.0000000E+000	-67.4674	0.0000000E+000	0.0000000E+000	0.0000000E+000	-22.5326	0.0000000E+000	0.0000000E+000	0.0000000E+000	22.5326	2.41034	67.4674	4.77251e-06	1.19445e-05	-5.57922e-09	1.195e-05	0.283706	6732.3	3.14464	6735.45
10002.2	5.26846	1.92498	5.60912	-20.0712	4.74955	0.283606	-0.00990551	8.26604	0.973553	1	10	0.00516737	0.000921243	0	2.48796e-05	-0.000361361	2.23803e-05	61.2713	0.0242935	0.011677	-0.0213032	-19.826	5.61283	5.28014	1.90368	0.167453	0.0611838	0.178281	20.0712	973.553	2664.51	2836.8	-69.9288	0.0000000E+000	0.0000000E+000	0.0000000E+000	69.9288	0.0000000E+000	0.0000000E+000	0.0000000E+000	-69.9288	0.0000000E+000	0.0000000E+000	0.0000000E+000	-20.0712	0.0000000E+000	0.0000000E+000	0.0000000E+000	20.0712	2.73689	69.9288	-2.91109e-07	-2.80926e-06	3.57946e-09	-2.81284e-06	0.283968	28631.2	36.4808	28667.7
3163.08	6.68432	2.3713	7.09248	-19.5324	5.64761	0.283514	-0.00935827	21.2189	2.37193	1	10	0.00524918	0.000740105	0	2.22724e-05	1.07189e-06	1.07979e-05	-55.8081	0.0145896	0.00819887	0.012068	-19.6021	7.10424	6.69252	2.38337	0.132881	0.0471402	0.140994	19.5324	2371.93	6686.08	7094.34	-70.4676	0.0000000E+000	0.0000000E+000	0.0000000E+000	70.4676	0.0000000E+000	0.0000000E+000	0.0000000E+000	-70.4676	0.0000000E+000	0.0000000E+000	0.0000000E+000	-19.5324	0.0000000E+000	0.0000000E+000	0.0000000E+000	19.5324	2.81884	70.4676	-5.62879e-07	-2.6532e-06	-1.00311e-11	-2.65319e-06	0.283513	30295.6	0.11454	30295.5
1000.32	8.4953	3.23085	9.08892	-20.8223	7.0018	0.283536	-0.000907613	49.2453	6.22262	1	10	0.00514571	0.000566152	0	2.21236e-05	-0.000189682	8.43854e-06	62.3175	0.0149051	0.00692449	-0.013199	-20.729	9.09071	8.50222	3.21765	0.102838	0.0391104	0.110024	20.8223	6222.61	16362	17505.3	-69.1777	0.0000000E+000	0.0000000E+000	0.0000000E+000	69.1777	0.0000000E+000	0.0000000E+000	0.0000000E+000	-69.1777	0.0000000E+000	0.0000000E+000	0.0000000E+000	-20.8223	0.0000000E+000	0.0000000E+000	0.0000000E+000	20.8223	2.62943	69.1777	-4.60758e-07	-2.57341e-07	1.72158e-10	-2.57513e-07	0.283726	312398	208.99	312607
316.316	10.9925	4.64446	11.9334	-22.9047	8.35206	0.28354	-0.00127617	108.334	16.4099	1	10	0.00510904	0.00042813	0	2.21529e-05	-0.000170607	1.26774e-05	-21.2329	0.0296111	0.027601	0.0107239	-22.9005	11.963	11.0201	4.65519	0.0771913	0.0326143	0.0837985	22.9047	16409.9	38838.9	42163.4	-67.0953	0.0000000E+000	0.0000000E+000	0.0000000E+000	67.0953	0.0000000E+000	0.0000000E+000	0.0000000E+000	-67.0953	0.0000000E+000	0.0000000E+000	0.0000000E+000	-22.9047	0.0000000E+000	0.0000000E+000	0.0000000E+000	22.9047	2.36679	67.0953	1.43575e-08	-3.61844e-07	2.17723e-10	-3.62062e-07	0.28371	222180	133.687	222314
100.032	15.1136	6.96628	16.6418	-24.7463	9.6998	0.283541	-0.00122405	228.391	40.0203	1	10	0.0051027	0.000306619	0	2.11745e-05	0.000249052	7.10077e-06	-26.392	0.0231583	0.0207446	0.0102941	-24.7486	16.665	15.1344	6.97658	0.0545716	0.0251536	0.0600896	24.7463	40020.3	86825.5	95604.9	-65.2537	0.0000000E+000	0.0000000E+000	0.0000000E+000	65.2537	0.0000000E+000	0.0000000E+000	0.0000000E+000	-65.2537	0.0000000E+000	0.0000000E+000	0.0000000E+000	-24.7463	0.0000000E+000	0.0000000E+000	0.0000000E+000	24.7463	2.16954	65.2537	2.45969e-07	-3.4707e-07	-3.04854e-10	-3.46765e-07	0.283292	231641	203.465	231437
31.6296	21.8765	8.2154	23.3682	-20.5829	11.2696	0.283572	-0.00426664	612.489	75.7014	1	11	0.00509996	0.000218243	0	2.0445e-05	1.07189e-06	1.08568e-05	1.85424	0.0497465	0.0497205	-0.00160964	-20.5365	23.4142	21.9262	8.21379	0.0400614	0.0150445	0.0427931	20.5829	75701.4	201583	215328	-69.4171	0.0000000E+000	0.0000000E+000	0.0000000E+000	69.4171	0.0000000E+000	0.0000000E+000	0.0000000E+000	-69.4171	0.0000000E+000	0.0000000E+000	0.0000000E+000	-20.5829	0.0000000E+000	0.0000000E+000	0.0000000E+000	20.5829	2.66287	69.4171	-9.80207e-07	-1.2099e-06	-4.57338e-12	-1.2099e-06	0.283571	66462.7	0.251227	66462.4
10.0032	28.2182	6.75471	29.0154	-13.4618	12.6018	0.283568	-0.00411494	2355.45	127.653	1	11	0.00509197	0.000175492	0	1.99455e-05	-0.000304135	9.18733e-06	-33.4283	0.0523517	0.0436915	0.0288402	-13.4971	29.0646	28.2619	6.78355	0.0335176	0.00802326	0.0344645	13.4618	127653	533278	548344	-76.5382	0.0000000E+000	0.0000000E+000	0.0000000E+000	76.5382	0.0000000E+000	0.0000000E+000	0.0000000E+000	-76.5382	0.0000000E+000	0.0000000E+000	0.0000000E+000	-13.4618	0.0000000E+000	0.0000000E+000	0.0000000E+000	13.4618	4.17755	76.5382	9.35258e-07	-1.16687e-06	1.2515e-09	-1.16812e-06	0.283872	68911.9	73.91	68985.8
3.1604	32.3932	4.68381	32.7301	-8.22751	14.1184	0.283592	-0.00287167	10751.8	220.183	1	11	0.00510141	0.000155863	0	1.87049e-05	-0.000399512	6.53143e-06	0.891965	0.0419049	0.0418998	-0.000652337	-8.2159	32.7714	32.4351	4.68316	0.0302385	0.00437225	0.0305529	8.22751	220183	1.52279e+06	1.53862e+06	-81.7725	0.0000000E+000	0.0000000E+000	0.0000000E+000	81.7725	0.0000000E+000	0.0000000E+000	0.0000000E+000	-81.7725	0.0000000E+000	0.0000000E+000	0.0000000E+000	-8.22751	0.0000000E+000	0.0000000E+000	0.0000000E+000	8.22751	6.916	81.7725	1.36443e-06	-8.14383e-07	1.14727e-09	-8.1553e-07	0.283991	98754.8	139.122	98893.9
1.00006	34.8512	3.22871	35.0004	-5.29293	19.44	0.283588	-0.00196819	49290.6	419.444	1	12	0.00510075	0.000145734	0	1.24063e-05	-9.43052e-05	3.26519e-06	31.6227	0.0224051	0.0190784	-0.0117475	-5.27091	35.0183	34.8703	3.21696	0.0284493	0.00263561	0.0285711	5.29293	419444	4.52755e+06	4.54694e+06	-84.7071	0.0000000E+000	0.0000000E+000	0.0000000E+000	84.7071	0.0000000E+000	0.0000000E+000	0.0000000E+000	-84.7071	0.0000000E+000	0.0000000E+000	0.0000000E+000	-5.29293	0.0000000E+000	0.0000000E+000	0.0000000E+000	5.29293	10.7942	84.7071	-5.8488e-06	-5.58155e-07	1.85611e-10	-5.5834e-07	0.283682	144086	47.9147	144134
0.316193	36.4155	2.99977	36.5389	-4.70916	33.7837	0.28359	-0.00251418	167795	1130.95	1	12	0.00510109	0.000139607	0	5.84747e-07	-9.43052e-05	2.24042e-06	-50.7476	0.016048	0.0101542	0.0124271	-4.72727	36.55	36.4257	3.01219	0.0272757	0.00224686	0.0273681	4.70916	1.13095e+06	1.37292e+07	1.37757e+07	-85.2908	0.0000000E+000	0.0000000E+000	0.0000000E+000	85.2908	0.0000000E+000	0.0000000E+000	0.0000000E+000	-85.2908	0.0000000E+000	0.0000000E+000	0.0000000E+000	-4.70916	0.0000000E+000	0.0000000E+000	0.0000000E+000	4.70916	12.1395	85.2908	7.64153e-07	-7.12995e-07	2.371e-10	-7.13232e-07	0.283684	112796	37.5094	112834
0.0999041	38.097	4.54868	38.3675	-6.80874	78.9917	0.283593	-0.000690052	350228	4922.6	1	12	0.00510075	0.000132944	0	4.66731e-05	-0.000265984	1.69454e-06	-19.5158	0.0127462	0.0120139	0.0042581	-6.81293	38.38	38.109	4.55294	0.0258799	0.00308999	0.0260637	6.80874	4.9226e+06	4.12287e+07	4.15215e+07	-83.1913	0.0000000E+000	0.0000000E+000	0.0000000E+000	83.1913	0.0000000E+000	0.0000000E+000	0.0000000E+000	-83.1913	0.0000000E+000	0.0000000E+000	0.0000000E+000	-6.80874	0.0000000E+000	0.0000000E+000	0.0000000E+000	6.80874	8.37538	83.1913	1.75295e-05	-1.95694e-07	1.83543e-10	-1.95877e-07	0.283859	410973	385.455	411358
0.0315922	40.9703	9.15439	41.9805	-12.5953	221.875	0.283597	7.71087e-05	550314	26168.2	1	12	0.00509948	0.000121473	0	-9.42747e-05	-0.000380437	1.48008e-06	61.3276	0.0121845	0.00584614	-0.0106904	-12.5793	41.9839	40.9761	9.1437	0.0232473	0.00519438	0.0238206	12.5953	2.61682e+07	1.17115e+08	1.20003e+08	-77.4047	0.0000000E+000	0.0000000E+000	0.0000000E+000	77.4047	0.0000000E+000	0.0000000E+000	0.0000000E+000	-77.4047	0.0000000E+000	0.0000000E+000	0.0000000E+000	-12.5953	0.0000000E+000	0.0000000E+000	0.0000000E+000	12.5953	4.47548	77.4047	-0.00010339	2.18678e-08	-2.9335e-11	2.18972e-08	0.283978	3.67789e+06	4933.77	3.68282e+06
0.0100092	46.8569	20.4536	51.1265	-23.5819	673.098	0.283594	-0.000859614	777412	124423	1	12	0.00510509	9.98521e-05	0	-0.000321611	-0.000246909	2.96369e-06	18.269	0.0296808	0.0281847	-0.0093043	-23.5597	51.1486	46.8851	20.4443	0.0179259	0.00782489	0.0195593	23.5819	1.24423e+08	2.85038e+08	3.11011e+08	-66.4181	0.0000000E+000	0.0000000E+000	0.0000000E+000	66.4181	0.0000000E+000	0.0000000E+000	0.0000000E+000	-66.4181	0.0000000E+000	0.0000000E+000	0.0000000E+000	-23.5819	0.0000000E+000	0.0000000E+000	0.0000000E+000	23.5819	2.29088	66.4181	4.0404e-05	-2.43782e-07	2.12246e-10	-2.43994e-07	0.283841	329909	287.232	330196