File: txt/19156_R306_UA712_SOC00_C04.mpt
EC-Lab ASCII FILE
Nb header lines : 65

Potentio Electrochemical Impedance Spectroscopy

Run on channel : 4 (SN 66756)
Grouped channel(s) : 1, 2, 3, 4
User :
CE vs. WE compliance from -10 V to 10 V
Electrode connection : standard
Potential control : Ewe
Ewe ctrl range : min = -10.00 V, max = 10.00 V
Safety Limits :
	Do not start on E overload
Acquisition started on : 11/12/2025 13:00:33.882
Loaded Setting File :  C:\Users\Celltest\OneDrive - store-dot.com\Documents\EC-Lab\Data\@Biologic Test Protocols\anode half cell EIS SOC00.mps
Saved on :
	File : 19153_R306_UA712_SOC00_C04.mpr
	Directory : C:\Users\Celltest\OneDrive - store-dot.com\Documents\EC-Lab\Data\Charmaine\
	Host : 169.254.61.224
Device : VMP-3e (SN .003165)
Address : USB
EC-LAB for windows v11.62 (software)
Internet server v27.00 (firmware)
Command interpretor v12.03 (firmware)
Electrode material :
Initial state :
Electrolyte :
Comments :
Electrode surface area : 0.001 cm²
Characteristic mass : 0.001 g
Equivalent Weight : 0.000 g/eq.
Density : 0.000 g/cm3
Volume (V) : 0.001 cm³
Record Ece
Cycle Definition : Charge/Discharge alternance
Mode                Single sine
E (V)               0.0000
vs.                 Eoc
tE (h:m:s)          0:00:0.0000
record              0
dI                  0.000
unit dI             mA
dt (s)              0.000
fi                  100.000
unit fi             kHz
ff                  10.000
unit ff             mHz
Nd                  6
Points              per decade
spacing             Logarithmic
Va (mV)             5.0
pw                  0.10
Na                  2
corr                0
E range min (V)     -10.000
E range max (V)     10.000
I Range             Auto
Bandwidth           5
nc cycles           0
goto Ns'            0
nr cycles           0
inc. cycle          0

freq/Hz	Re(Z)/Ohm	-Im(Z)/Ohm	|Z|/Ohm	Phase(Z)/deg	time/s	<Ewe>/V	<I>/mA	Cs/µF	Cp/µF	cycle number	I Range	|Ewe|/V	|I|/A	Ns	(Q-Qo)/mA.h	<Ece>/V	|Ece|/V	Phase(Zce)/deg	|Zce|/Ohm	Re(Zce)/Ohm	-Im(Zce)/Ohm	Phase(Zwe-ce)/deg	|Zwe-ce|/Ohm	Re(Zwe-ce)/Ohm	-Im(Zwe-ce)/Ohm	Re(Y)/Ohm-1	Im(Y)/Ohm-1	|Y|/Ohm-1	Phase(Y)/deg	Re(C)/nF	Im(C)/nF	|C|/nF	Phase(C)/deg	Re(M)	Im(M)	|M|	Phase(M)/deg	Re(Permittivity)	Im(Permittivity)	|Permittivity|	Phase(Permittivity)/deg	Re(Resistivity)/Ohm.cm	Im(Resistivity)/Ohm.cm	|Resistivity|/Ohm.cm	Phase(Resistivity)/deg	Re(Conductivity)/mS/cm	Im(Conductivity)/mS/cm	|Conductivity|/mS/cm	Phase(Conductivity)/deg	Tan(Delta)	Loss Angle(Delta)/deg	dq/mA.h	Pwe/W	Pce/W	Pwe-ce/W	<Ewe-Ece>/V	Rwe/Ohm	Rce/Ohm	Rwe-ce/Ohm		Ewe-Ece/V
100004	2.0692	0.862166	2.24163	-22.6199	1.91054	0.282962	-0.0369096	1.84592	0.273066	1	9	0.00454952	0.00202956	0	-5.74673e-06	-2.49133e-05	2.40575e-05	93.593	0.0118536	-0.000742849	-0.0118303	-22.3474	2.23642	2.06845	0.850336	0.411788	0.171578	0.446104	22.6199	273.065	655.357	709.97	-67.3801	0.0000000E+000	0.0000000E+000	0.0000000E+000	67.3801	0.0000000E+000	0.0000000E+000	0.0000000E+000	-67.3801	0.0000000E+000	0.0000000E+000	0.0000000E+000	-22.6199	0.0000000E+000	0.0000000E+000	0.0000000E+000	22.6199	2.4	67.3801	-5.74673e-06	-1.0444e-05	9.19542e-10	-1.0445e-05	0.282987	7666.34	0.674981	7667.02
31621.1	2.87721	1.16729	3.10498	-22.0824	3.30754	0.282982	-0.0371707	4.31186	0.6094	1	9	0.00535156	0.00172354	0	-1.5818e-05	-8.22432e-05	1.30078e-05	8.54802	0.00754713	0.00746329	-0.00112179	-22.0116	3.11148	2.88467	1.16616	0.298438	0.121077	0.322063	22.0824	609.401	1502.09	1621	-67.9176	0.0000000E+000	0.0000000E+000	0.0000000E+000	67.9176	0.0000000E+000	0.0000000E+000	0.0000000E+000	-67.9176	0.0000000E+000	0.0000000E+000	0.0000000E+000	-22.0824	0.0000000E+000	0.0000000E+000	0.0000000E+000	22.0824	2.46487	67.9176	-8.87291e-06	-1.05187e-05	3.05704e-09	-1.05217e-05	0.283064	7613.03	2.21258	7615.25
10002.2	3.81391	1.36823	4.05191	-19.7353	4.33554	0.282969	-0.0450032	11.6296	1.32606	1	9	0.00503218	0.00124193	0	-2.66941e-05	-0.000177793	1.28554e-05	-13.7266	0.0103512	0.0100556	0.00245624	-19.7201	4.0622	3.82397	1.37069	0.232301	0.0833374	0.246797	19.7353	1326.06	3696.36	3927.02	-70.2647	0.0000000E+000	0.0000000E+000	0.0000000E+000	70.2647	0.0000000E+000	0.0000000E+000	0.0000000E+000	-70.2647	0.0000000E+000	0.0000000E+000	0.0000000E+000	-19.7353	0.0000000E+000	0.0000000E+000	0.0000000E+000	19.7353	2.78747	70.2647	-2.65369e-06	-1.27345e-05	8.00125e-09	-1.27425e-05	0.283147	6287.76	3.95067	6291.71
3163.08	4.80506	1.75842	5.1167	-20.1002	5.38868	0.282929	-0.0210815	28.6145	3.3795	1	10	0.0049448	0.000966404	0	-3.31009e-05	-0.000139573	5.64252e-06	25.1045	0.00583867	0.00528713	-0.00247718	-20.0539	5.12082	4.81035	1.75595	0.183535	0.067165	0.195438	20.1002	3379.5	9234.82	9833.76	-69.8998	0.0000000E+000	0.0000000E+000	0.0000000E+000	69.8998	0.0000000E+000	0.0000000E+000	0.0000000E+000	-69.8998	0.0000000E+000	0.0000000E+000	0.0000000E+000	-20.1002	0.0000000E+000	0.0000000E+000	0.0000000E+000	20.1002	2.7326	69.8998	-2.70244e-06	-5.96456e-06	2.9424e-09	-5.96751e-06	0.283069	13420.8	6.62066	13427.4
1000.32	6.13757	2.49919	6.6269	-22.1559	6.74182	0.282937	-0.0133041	63.6623	9.0544	1	10	0.00482483	0.000728068	0	-3.8191e-05	-0.000426222	8.18043e-06	40.9483	0.0112358	0.00848641	-0.0073637	-22.0693	6.63199	6.14606	2.49182	0.139758	0.0569087	0.1509	22.1559	9054.4	22236	24008.8	-67.8441	0.0000000E+000	0.0000000E+000	0.0000000E+000	67.8441	0.0000000E+000	0.0000000E+000	0.0000000E+000	-67.8441	0.0000000E+000	0.0000000E+000	0.0000000E+000	-22.1559	0.0000000E+000	0.0000000E+000	0.0000000E+000	22.1559	2.45583	67.8441	-1.48833e-06	-3.76421e-06	5.67049e-09	-3.76988e-06	0.283363	21266.9	32.037	21299
316.316	8.02818	3.85998	8.90792	-25.6784	8.09101	0.282949	-0.0132966	130.351	24.4755	1	10	0.00477464	0.000535999	0	-4.37098e-05	-0.000330673	7.46125e-06	-33.8463	0.0139203	0.0115613	0.00775313	-25.6911	8.9217	8.03974	3.86773	0.101173	0.0486443	0.11226	25.6784	24475.5	50905.3	56483.6	-64.3216	0.0000000E+000	0.0000000E+000	0.0000000E+000	64.3216	0.0000000E+000	0.0000000E+000	0.0000000E+000	-64.3216	0.0000000E+000	0.0000000E+000	0.0000000E+000	-25.6784	0.0000000E+000	0.0000000E+000	0.0000000E+000	25.6784	2.07985	64.3216	-1.53883e-06	-3.76226e-06	4.39682e-09	-3.76665e-06	0.283279	21279.8	24.869	21304.7
100.032	11.5862	6.17613	13.1295	-28.0603	9.43782	0.282936	-0.0137368	257.611	57.0035	1	10	0.00475684	0.000362302	0	-4.79596e-05	0.000147076	9.95462e-06	-21.9836	0.027476	0.0254783	0.0102854	-28.0477	13.1568	11.6116	6.18641	0.0672115	0.0358278	0.0761644	28.0603	57003.5	106936	121181	-61.9397	0.0000000E+000	0.0000000E+000	0.0000000E+000	61.9397	0.0000000E+000	0.0000000E+000	0.0000000E+000	-61.9397	0.0000000E+000	0.0000000E+000	0.0000000E+000	-28.0603	0.0000000E+000	0.0000000E+000	0.0000000E+000	28.0603	1.87596	61.9397	-2.07236e-06	-3.88662e-06	-2.02035e-09	-3.8846e-06	0.282789	20597	10.7068	20586.3
31.6296	17.7925	7.284	19.2257	-22.2636	11.0015	0.282963	-0.0064112	690.808	99.159	1	11	0.00474549	0.000246831	0	-5.28387e-05	8.97464e-05	5.81017e-06	11.5364	0.0235391	0.0230635	-0.00470758	-22.2246	19.2453	17.8155	7.27929	0.0481361	0.0197063	0.0520137	22.2636	99159	242213	261725	-67.7364	0.0000000E+000	0.0000000E+000	0.0000000E+000	67.7364	0.0000000E+000	0.0000000E+000	0.0000000E+000	-67.7364	0.0000000E+000	0.0000000E+000	0.0000000E+000	-22.2636	0.0000000E+000	0.0000000E+000	0.0000000E+000	22.2636	2.44268	67.7364	-1.53285e-06	-1.81413e-06	-5.75382e-10	-1.81356e-06	0.282873	44135.8	13.9984	44121.8
10.0032	23.3304	5.81541	24.0443	-13.9965	12.3339	0.282978	-0.00563967	2735.9	160.044	1	11	0.00474061	0.000197162	0	-5.48255e-05	-8.22432e-05	1.17438e-05	-112.811	0.0595643	-0.0230928	0.0549057	-14.1368	24.0352	23.3073	5.87032	0.0403551	0.0100591	0.0415899	13.9965	160044	642067	661712	-76.0035	0.0000000E+000	0.0000000E+000	0.0000000E+000	76.0035	0.0000000E+000	0.0000000E+000	0.0000000E+000	-76.0035	0.0000000E+000	0.0000000E+000	0.0000000E+000	-13.9965	0.0000000E+000	0.0000000E+000	0.0000000E+000	13.9965	4.01182	76.0035	-1.80624e-06	-1.5959e-06	4.63824e-10	-1.59637e-06	0.28306	50176.3	14.583	50190.9
3.1604	26.816	3.89792	27.0978	-8.27046	13.8505	0.282996	-0.00395746	12919.5	267.326	1	11	0.00475013	0.000175295	0	-5.84211e-05	-0.000139573	5.33594e-06	33.1585	0.0304397	0.0254829	-0.0166492	-8.22791	27.1207	26.8415	3.88127	0.0365195	0.0053084	0.0369033	8.27046	267326	1.83909e+06	1.85842e+06	-81.7295	0.0000000E+000	0.0000000E+000	0.0000000E+000	81.7295	0.0000000E+000	0.0000000E+000	0.0000000E+000	-81.7295	0.0000000E+000	0.0000000E+000	0.0000000E+000	-8.27046	0.0000000E+000	0.0000000E+000	0.0000000E+000	8.27046	6.87958	81.7295	-3.01686e-06	-1.11994e-06	5.52355e-10	-1.1205e-06	0.283135	71509.4	35.2683	71544.6
1.00006	28.7707	2.6489	28.8923	-5.26037	19.4898	0.282986	-0.00359623	60079.5	505.002	1	12	0.00474855	0.000164353	0	-5.56014e-05	-0.000196903	4.77604e-06	-25.6743	0.0290596	0.0261906	0.0125902	-5.28045	28.9196	28.7969	2.66149	0.0344655	0.00317322	0.0346112	5.26037	505002	5.485e+06	5.5082e+06	-84.7396	0.0000000E+000	0.0000000E+000	0.0000000E+000	84.7396	0.0000000E+000	0.0000000E+000	0.0000000E+000	-84.7396	0.0000000E+000	0.0000000E+000	0.0000000E+000	-5.26037	0.0000000E+000	0.0000000E+000	0.0000000E+000	5.26037	10.8613	84.7396	2.2174e-06	-1.01768e-06	7.08109e-10	-1.01839e-06	0.283183	78689.5	54.7525	78744.2
0.316193	29.9756	2.52923	30.0821	-4.82299	33.8331	0.282975	-0.00175356	199012	1406.83	1	12	0.00474988	0.000157897	0	-8.1063e-05	-2.49133e-05	3.45159e-06	4.93346	0.0218597	0.0217787	-0.00187991	-4.81594	30.1036	29.9974	2.52735	0.0331247	0.00279494	0.0332424	4.82299	1.40683e+06	1.66732e+07	1.67325e+07	-85.177	0.0000000E+000	0.0000000E+000	0.0000000E+000	85.177	0.0000000E+000	0.0000000E+000	0.0000000E+000	-85.177	0.0000000E+000	0.0000000E+000	0.0000000E+000	-4.82299	0.0000000E+000	0.0000000E+000	0.0000000E+000	4.82299	11.8517	85.177	-1.70777e-05	-4.96213e-07	4.3687e-11	-4.96257e-07	0.283	161372	14.2073	161386
0.0999041	31.4325	4.21132	31.7134	-7.63103	79.0408	0.282974	-0.00274582	378284	6670.67	1	12	0.00474971	0.00014977	0	-0.00013931	-0.000101353	2.84977e-06	-4.63671	0.0190276	0.0189654	0.00153815	-7.62923	31.7324	31.4515	4.21286	0.0312531	0.00418729	0.0315324	7.63103	6.67067e+06	4.97887e+07	5.02336e+07	-82.369	0.0000000E+000	0.0000000E+000	0.0000000E+000	82.369	0.0000000E+000	0.0000000E+000	0.0000000E+000	-82.369	0.0000000E+000	0.0000000E+000	0.0000000E+000	-7.63103	0.0000000E+000	0.0000000E+000	0.0000000E+000	7.63103	7.46382	82.369	-9.77657e-06	-7.76995e-07	2.78298e-10	-7.77274e-07	0.283075	103056	36.9118	103093
0.0315922	34.0677	8.5656	35.128	-14.1133	221.924	0.282979	-0.000310625	588142	34969.5	1	12	0.00475212	0.00013528	0	3.80892e-05	0.000166186	1.71057e-06	4.0911	0.0126447	0.0126124	-0.000902101	-14.1068	35.1401	34.0803	8.5647	0.027608	0.00694144	0.0284673	14.1133	3.49695e+07	1.39083e+08	1.43412e+08	-75.8867	0.0000000E+000	0.0000000E+000	0.0000000E+000	75.8867	0.0000000E+000	0.0000000E+000	0.0000000E+000	-75.8867	0.0000000E+000	0.0000000E+000	0.0000000E+000	-14.1133	0.0000000E+000	0.0000000E+000	0.0000000E+000	14.1133	3.97727	75.8867	9.53195e-05	-8.79003e-08	-5.16216e-11	-8.78487e-08	0.282813	911000	535.006	910465
0.0100092	39.073	19.4829	43.661	-26.5022	673.146	0.28298	0.000129752	816147	162513	1	12	0.00474885	0.000108766	0	-0.000276397	-0.000330673	1.42545e-06	-23.7225	0.0131056	0.0119983	0.00527249	-26.5013	43.674	39.085	19.4882	0.020497	0.0102204	0.0229038	26.5022	1.62513e+08	3.25921e+08	3.64191e+08	-63.4978	0.0000000E+000	0.0000000E+000	0.0000000E+000	63.4978	0.0000000E+000	0.0000000E+000	0.0000000E+000	-63.4978	0.0000000E+000	0.0000000E+000	0.0000000E+000	-26.5022	0.0000000E+000	0.0000000E+000	0.0000000E+000	26.5022	2.0055	63.4978	-0.000287664	3.67172e-08	-4.29055e-11	3.67601e-08	0.28331	2.18092e+06	2548.49	2.18347e+06