File: txt/19158_R306_UA713_SOC00_C06.mpt
EC-Lab ASCII FILE
Nb header lines : 65

Potentio Electrochemical Impedance Spectroscopy

Run on channel : 6 (SN 65795)
Grouped channel(s) : 5, 6, 7, 8
User :
CE vs. WE compliance from -10 V to 10 V
Electrode connection : standard
Potential control : Ewe
Ewe ctrl range : min = -10.00 V, max = 10.00 V
Safety Limits :
	Do not start on E overload
Acquisition started on : 11/12/2025 13:01:01.674
Loaded Setting File :  C:\Users\Celltest\OneDrive - store-dot.com\Documents\EC-Lab\Data\@Biologic Test Protocols\anode half cell EIS SOC00.mps
Saved on :
	File : 19157_R306_UA713_SOC00_C06.mpr
	Directory : C:\Users\Celltest\OneDrive - store-dot.com\Documents\EC-Lab\Data\Charmaine\
	Host : 169.254.61.224
Device : VMP-3e (SN .003165)
Address : USB
EC-LAB for windows v11.62 (software)
Internet server v27.00 (firmware)
Command interpretor v12.03 (firmware)
Electrode material :
Initial state :
Electrolyte :
Comments :
Electrode surface area : 0.001 cm²
Characteristic mass : 0.001 g
Equivalent Weight : 0.000 g/eq.
Density : 0.000 g/cm3
Volume (V) : 0.001 cm³
Record Ece
Cycle Definition : Charge/Discharge alternance
Mode                Single sine
E (V)               0.0000
vs.                 Eoc
tE (h:m:s)          0:00:0.0000
record              0
dI                  0.000
unit dI             mA
dt (s)              0.000
fi                  100.000
unit fi             kHz
ff                  10.000
unit ff             mHz
Nd                  6
Points              per decade
spacing             Logarithmic
Va (mV)             5.0
pw                  0.10
Na                  2
corr                0
E range min (V)     -10.000
E range max (V)     10.000
I Range             Auto
Bandwidth           5
nc cycles           0
goto Ns'            0
nr cycles           0
inc. cycle          0

freq/Hz	Re(Z)/Ohm	-Im(Z)/Ohm	|Z|/Ohm	Phase(Z)/deg	time/s	<Ewe>/V	<I>/mA	Cs/µF	Cp/µF	cycle number	I Range	|Ewe|/V	|I|/A	Ns	(Q-Qo)/mA.h	<Ece>/V	|Ece|/V	Phase(Zce)/deg	|Zce|/Ohm	Re(Zce)/Ohm	-Im(Zce)/Ohm	Phase(Zwe-ce)/deg	|Zwe-ce|/Ohm	Re(Zwe-ce)/Ohm	-Im(Zwe-ce)/Ohm	Re(Y)/Ohm-1	Im(Y)/Ohm-1	|Y|/Ohm-1	Phase(Y)/deg	Re(C)/nF	Im(C)/nF	|C|/nF	Phase(C)/deg	Re(M)	Im(M)	|M|	Phase(M)/deg	Re(Permittivity)	Im(Permittivity)	|Permittivity|	Phase(Permittivity)/deg	Re(Resistivity)/Ohm.cm	Im(Resistivity)/Ohm.cm	|Resistivity|/Ohm.cm	Phase(Resistivity)/deg	Re(Conductivity)/mS/cm	Im(Conductivity)/mS/cm	|Conductivity|/mS/cm	Phase(Conductivity)/deg	Tan(Delta)	Loss Angle(Delta)/deg	dq/mA.h	Pwe/W	Pce/W	Pwe-ce/W	<Ewe-Ece>/V	Rwe/Ohm	Rce/Ohm	Rwe-ce/Ohm		Ewe-Ece/V
100004	2.68907	0.823357	2.8123	-17.0239	2.18554	0.278973	-0.0023536	1.93293	0.16568	1	9	0.00465556	0.00165543	0	1.41541e-06	6.86329e-05	2.67818e-05	93.3877	0.0161782	-0.000956015	-0.0161499	-16.7143	2.8067	2.68812	0.807208	0.34	0.104103	0.355581	17.0239	165.68	541.107	565.903	-72.9761	0.0000000E+000	0.0000000E+000	0.0000000E+000	72.9761	0.0000000E+000	0.0000000E+000	0.0000000E+000	-72.9761	0.0000000E+000	0.0000000E+000	0.0000000E+000	-17.0239	0.0000000E+000	0.0000000E+000	0.0000000E+000	17.0239	3.26599	72.9761	1.41541e-06	-6.56592e-07	-1.61535e-10	-6.56431e-07	0.278904	118530	29.1608	118501
31621.1	3.41279	1.10719	3.5879	-17.9743	3.58256	0.278972	0.00256338	4.54592	0.432896	1	9	0.00520598	0.00145098	0	-4.84084e-06	0.000316907	1.72599e-05	-77.8684	0.0118953	0.0024999	0.0116297	-18.1383	3.59388	3.41529	1.11882	0.265112	0.0860085	0.278715	17.9743	432.896	1334.36	1402.82	-72.0257	0.0000000E+000	0.0000000E+000	0.0000000E+000	72.0257	0.0000000E+000	0.0000000E+000	0.0000000E+000	-72.0257	0.0000000E+000	0.0000000E+000	0.0000000E+000	-17.9743	0.0000000E+000	0.0000000E+000	0.0000000E+000	17.9743	3.0824	72.0257	7.10396e-07	7.15113e-07	8.12355e-10	7.14301e-07	0.278655	108830	123.629	108706
10002.2	4.28805	1.35666	4.49754	-17.5564	4.63856	0.279014	-0.0131703	11.7288	1.0672	1	10	0.00458796	0.0010201	0	-4.30678e-06	0.000183221	2.94533e-05	-32.311	0.0288728	0.0244021	0.0154329	-17.6495	4.52547	4.31245	1.37209	0.211987	0.0670688	0.222344	17.5564	1067.2	3373.13	3537.92	-72.4436	0.0000000E+000	0.0000000E+000	0.0000000E+000	72.4436	0.0000000E+000	0.0000000E+000	0.0000000E+000	-72.4436	0.0000000E+000	0.0000000E+000	0.0000000E+000	-17.5564	0.0000000E+000	0.0000000E+000	0.0000000E+000	17.5564	3.16074	72.4436	-1.32067e-06	-3.6747e-06	-2.41308e-09	-3.67229e-06	0.278831	21185.1	13.9117	21171.1
3163.08	5.29106	1.79364	5.58682	-18.7264	5.53867	0.278952	-0.014251	28.0527	2.89146	1	10	0.0048247	0.000863586	0	-7.50064e-06	6.86329e-05	9.02404e-06	167.147	0.0104495	-0.0101877	-0.00232447	-18.7374	5.57642	5.28088	1.79132	0.169517	0.0574655	0.178993	18.7264	2891.46	8529.51	9006.28	-71.2736	0.0000000E+000	0.0000000E+000	0.0000000E+000	71.2736	0.0000000E+000	0.0000000E+000	0.0000000E+000	-71.2736	0.0000000E+000	0.0000000E+000	0.0000000E+000	-18.7264	0.0000000E+000	0.0000000E+000	0.0000000E+000	18.7264	2.9499	71.2736	-1.18543e-06	-3.97535e-06	-9.78089e-10	-3.97437e-06	0.278883	19574.2	4.816	19569.3
1000.32	6.68235	2.60606	7.17254	-21.3053	6.89284	0.278996	0.00307373	61.0516	8.0597	1	10	0.0047402	0.000660881	0	-6.32506e-06	0.000145025	8.8158e-06	110.515	0.0133395	-0.00467482	-0.0124935	-21.2258	7.16365	6.67768	2.59356	0.129892	0.0506568	0.139421	21.3053	8059.7	20666.4	22182.4	-68.6947	0.0000000E+000	0.0000000E+000	0.0000000E+000	68.6947	0.0000000E+000	0.0000000E+000	0.0000000E+000	-68.6947	0.0000000E+000	0.0000000E+000	0.0000000E+000	-21.3053	0.0000000E+000	0.0000000E+000	0.0000000E+000	21.3053	2.56416	68.6947	7.47856e-07	8.57561e-07	4.45768e-10	8.57115e-07	0.278851	90767.9	47.182	90720.7
316.316	8.70144	4.05041	9.59797	-24.9614	8.24207	0.278992	0.00137815	124.222	22.1228	1	10	0.00471016	0.000490745	0	-5.1889e-06	1.13388e-05	6.22983e-06	21.8245	0.0126946	0.0117848	-0.00471941	-24.9062	9.60666	8.71323	4.0457	0.0944567	0.0439684	0.104189	24.9614	22122.8	47526.1	52422.8	-65.0386	0.0000000E+000	0.0000000E+000	0.0000000E+000	65.0386	0.0000000E+000	0.0000000E+000	0.0000000E+000	-65.0386	0.0000000E+000	0.0000000E+000	0.0000000E+000	-24.9614	0.0000000E+000	0.0000000E+000	0.0000000E+000	24.9614	2.14828	65.0386	5.65211e-07	3.84493e-07	1.56266e-11	3.84478e-07	0.278981	202440	8.22755	202432
100.032	12.4272	6.50321	14.026	-27.6233	9.58879	0.279	0.00191849	244.654	52.595	1	10	0.00469517	0.000334749	0	-4.63774e-06	0.000183221	9.55205e-06	27.0778	0.028535	0.0254072	-0.0129891	-27.5282	14.0425	12.4526	6.49022	0.0631697	0.033057	0.0712964	27.6233	52595	100506	113435	-62.3767	0.0000000E+000	0.0000000E+000	0.0000000E+000	62.3767	0.0000000E+000	0.0000000E+000	0.0000000E+000	-62.3767	0.0000000E+000	0.0000000E+000	0.0000000E+000	-27.6233	0.0000000E+000	0.0000000E+000	0.0000000E+000	27.6233	1.91093	62.3767	2.41066e-07	5.35259e-07	3.51509e-10	5.34908e-07	0.278816	145426	95.5026	145331
31.6296	18.9714	7.92657	20.5607	-22.6761	11.1525	0.279027	-0.000711489	634.807	94.3488	1	11	0.00468793	0.000228004	0	-4.36963e-06	1.13388e-05	4.36277e-06	-12.3888	0.0191346	0.018689	0.00410523	-22.6665	20.5795	18.99	7.93068	0.0448768	0.0187504	0.0486365	22.6761	94348.8	225813	244731	-67.3239	0.0000000E+000	0.0000000E+000	0.0000000E+000	67.3239	0.0000000E+000	0.0000000E+000	0.0000000E+000	-67.3239	0.0000000E+000	0.0000000E+000	0.0000000E+000	-22.6761	0.0000000E+000	0.0000000E+000	0.0000000E+000	22.6761	2.39339	67.3239	-2.6229e-07	-1.98525e-07	-8.06743e-12	-1.98516e-07	0.279015	392173	15.9367	392157
10.0032	25.1647	6.46769	25.9825	-14.4139	12.4848	0.279012	-0.00062606	2459.98	152.429	1	11	0.00468748	0.000180409	0	-3.39644e-06	0.000145025	7.26712e-06	24.7611	0.0402814	0.036578	-0.0168713	-14.3578	26.0138	25.2013	6.45081	0.0372759	0.00958044	0.0384874	14.4139	152429	593075	612350	-75.5861	0.0000000E+000	0.0000000E+000	0.0000000E+000	75.5861	0.0000000E+000	0.0000000E+000	0.0000000E+000	-75.5861	0.0000000E+000	0.0000000E+000	0.0000000E+000	-14.4139	0.0000000E+000	0.0000000E+000	0.0000000E+000	14.4139	3.89083	75.5861	1.253e-06	-1.74678e-07	-9.07943e-11	-1.74587e-07	0.278867	445663	231.647	445432
3.1604	29.0823	4.38448	29.4109	-8.57341	14.0015	0.279026	-0.00024927	11485.8	255.258	1	11	0.00468624	0.000159337	0	-4.14197e-06	-0.000160544	3.87231e-06	-64.4697	0.0243027	0.0104742	0.0219297	-8.61259	29.4246	29.0928	4.40641	0.033621	0.00506874	0.034001	8.57341	255258	1.69313e+06	1.71226e+06	-81.4266	0.0000000E+000	0.0000000E+000	0.0000000E+000	81.4266	0.0000000E+000	0.0000000E+000	0.0000000E+000	-81.4266	0.0000000E+000	0.0000000E+000	0.0000000E+000	-8.57341	0.0000000E+000	0.0000000E+000	0.0000000E+000	8.57341	6.63301	81.4266	1.46855e-06	-6.95529e-08	4.00187e-11	-6.95929e-08	0.279187	1.11938e+06	644.055	1.12002e+06
1.00006	31.3233	2.96359	31.4632	-5.40483	19.64	0.279021	0.000775852	53700	476.436	1	12	0.00468947	0.000149046	0	-2.40955e-06	0.000221417	3.48075e-06	15.271	0.0233535	0.0225289	-0.00615098	-5.38982	31.4851	31.3459	2.95744	0.0316418	0.00299373	0.0317831	5.40483	476436	5.03563e+06	5.05812e+06	-84.5952	0.0000000E+000	0.0000000E+000	0.0000000E+000	84.5952	0.0000000E+000	0.0000000E+000	0.0000000E+000	-84.5952	0.0000000E+000	0.0000000E+000	0.0000000E+000	-5.40483	0.0000000E+000	0.0000000E+000	0.0000000E+000	5.40483	10.5694	84.5952	-2.42176e-06	2.16479e-07	1.71787e-10	2.16307e-07	0.278799	359631	285.386	359346
0.316193	32.6785	2.67828	32.7881	-4.68539	33.9848	0.279028	-4.62018e-05	187937	1253.98	1	12	0.00468519	0.000142893	0	-1.48808e-05	0.000125927	2.72581e-06	33.8115	0.0190759	0.0158496	-0.010615	-4.66465	32.803	32.6944	2.66766	0.0303969	0.00249128	0.0304989	4.68539	1.25398e+06	1.53002e+07	1.53515e+07	-85.3146	0.0000000E+000	0.0000000E+000	0.0000000E+000	85.3146	0.0000000E+000	0.0000000E+000	0.0000000E+000	-85.3146	0.0000000E+000	0.0000000E+000	0.0000000E+000	-4.68539	0.0000000E+000	0.0000000E+000	0.0000000E+000	4.68539	12.2013	85.3146	-5.296e-07	-1.28916e-08	-5.81805e-12	-1.28858e-08	0.278902	6.03933e+06	2725.59	6.03661e+06
0.0999041	34.0404	4.21325	34.3001	-7.05574	79.193	0.279021	-3.46e-05	378111	5705.09	1	12	0.00468805	0.000136677	0	5.31537e-05	8.77309e-05	1.23426e-06	-44.4208	0.00903047	0.00644973	0.00632063	-7.06489	34.3073	34.0468	4.21957	0.0289336	0.00358118	0.0291544	7.05574	5.70509e+06	4.60935e+07	4.64452e+07	-82.9443	0.0000000E+000	0.0000000E+000	0.0000000E+000	82.9443	0.0000000E+000	0.0000000E+000	0.0000000E+000	-82.9443	0.0000000E+000	0.0000000E+000	0.0000000E+000	-7.05574	0.0000000E+000	0.0000000E+000	0.0000000E+000	7.05574	8.07936	82.9443	3.46122e-05	-9.65411e-09	-3.03549e-12	-9.65108e-09	0.278933	8.0642e+06	2535.58	8.06166e+06
0.0315922	36.6419	8.94334	37.7176	-13.7162	222.076	0.279016	0.000768011	563301	31670.4	1	12	0.00468229	0.000124141	0	1.91754e-05	-8.41514e-05	6.78359e-07	-30.3379	0.00546443	0.00471614	0.00276008	-13.7186	37.7228	36.6466	8.9461	0.0257568	0.00628656	0.0265129	13.7162	3.16704e+07	1.29757e+08	1.33566e+08	-76.2838	0.0000000E+000	0.0000000E+000	0.0000000E+000	76.2838	0.0000000E+000	0.0000000E+000	0.0000000E+000	-76.2838	0.0000000E+000	0.0000000E+000	0.0000000E+000	-13.7162	0.0000000E+000	0.0000000E+000	0.0000000E+000	13.7162	4.09712	76.2838	-6.87605e-05	2.14287e-07	-6.46292e-11	2.14352e-07	0.2791	363297	109.571	363406
0.0100092	42.3432	20.0609	46.8549	-25.3501	673.298	0.27902	-0.00052291	792633	145299	1	12	0.00468801	0.000100054	0	-0.000380204	-7.75924e-06	2.91433e-06	54.9089	0.0291277	0.0167449	-0.0238334	-25.315	46.8599	42.3599	20.037	0.0192874	0.00913775	0.0213425	25.3501	1.45299e+08	3.06687e+08	3.39365e+08	-64.6499	0.0000000E+000	0.0000000E+000	0.0000000E+000	64.6499	0.0000000E+000	0.0000000E+000	0.0000000E+000	-64.6499	0.0000000E+000	0.0000000E+000	0.0000000E+000	-25.3501	0.0000000E+000	0.0000000E+000	0.0000000E+000	25.3501	2.11074	64.6499	-7.17395e-05	-1.45902e-07	4.05739e-12	-1.45907e-07	0.279028	533592	14.8386	533606