File: txt/19155_R306_UA712_SOC00_C03.mpt
EC-Lab ASCII FILE
Nb header lines : 65

Potentio Electrochemical Impedance Spectroscopy

Run on channel : 3 (SN 65921)
Grouped channel(s) : 1, 2, 3, 4
User :
CE vs. WE compliance from -10 V to 10 V
Electrode connection : standard
Potential control : Ewe
Ewe ctrl range : min = -10.00 V, max = 10.00 V
Safety Limits :
	Do not start on E overload
Acquisition started on : 11/12/2025 13:00:33.882
Loaded Setting File :  C:\Users\Celltest\OneDrive - store-dot.com\Documents\EC-Lab\Data\@Biologic Test Protocols\anode half cell EIS SOC00.mps
Saved on :
	File : 19153_R306_UA712_SOC00_C03.mpr
	Directory : C:\Users\Celltest\OneDrive - store-dot.com\Documents\EC-Lab\Data\Charmaine\
	Host : 169.254.61.224
Device : VMP-3e (SN .003165)
Address : USB
EC-LAB for windows v11.62 (software)
Internet server v27.00 (firmware)
Command interpretor v12.03 (firmware)
Electrode material :
Initial state :
Electrolyte :
Comments :
Electrode surface area : 0.001 cm²
Characteristic mass : 0.001 g
Equivalent Weight : 0.000 g/eq.
Density : 0.000 g/cm3
Volume (V) : 0.001 cm³
Record Ece
Cycle Definition : Charge/Discharge alternance
Mode                Single sine
E (V)               0.0000
vs.                 Eoc
tE (h:m:s)          0:00:0.0000
record              0
dI                  0.000
unit dI             mA
dt (s)              0.000
fi                  100.000
unit fi             kHz
ff                  10.000
unit ff             mHz
Nd                  6
Points              per decade
spacing             Logarithmic
Va (mV)             5.0
pw                  0.10
Na                  2
corr                0
E range min (V)     -10.000
E range max (V)     10.000
I Range             Auto
Bandwidth           5
nc cycles           0
goto Ns'            0
nr cycles           0
inc. cycle          0

freq/Hz	Re(Z)/Ohm	-Im(Z)/Ohm	|Z|/Ohm	Phase(Z)/deg	time/s	<Ewe>/V	<I>/mA	Cs/µF	Cp/µF	cycle number	I Range	|Ewe|/V	|I|/A	Ns	(Q-Qo)/mA.h	<Ece>/V	|Ece|/V	Phase(Zce)/deg	|Zce|/Ohm	Re(Zce)/Ohm	-Im(Zce)/Ohm	Phase(Zwe-ce)/deg	|Zwe-ce|/Ohm	Re(Zwe-ce)/Ohm	-Im(Zwe-ce)/Ohm	Re(Y)/Ohm-1	Im(Y)/Ohm-1	|Y|/Ohm-1	Phase(Y)/deg	Re(C)/nF	Im(C)/nF	|C|/nF	Phase(C)/deg	Re(M)	Im(M)	|M|	Phase(M)/deg	Re(Permittivity)	Im(Permittivity)	|Permittivity|	Phase(Permittivity)/deg	Re(Resistivity)/Ohm.cm	Im(Resistivity)/Ohm.cm	|Resistivity|/Ohm.cm	Phase(Resistivity)/deg	Re(Conductivity)/mS/cm	Im(Conductivity)/mS/cm	|Conductivity|/mS/cm	Phase(Conductivity)/deg	Tan(Delta)	Loss Angle(Delta)/deg	dq/mA.h	Pwe/W	Pce/W	Pwe-ce/W	<Ewe-Ece>/V	Rwe/Ohm	Rce/Ohm	Rwe-ce/Ohm		Ewe-Ece/V
100004	2.05202	0.855933	2.22338	-22.6419	1.91052	0.285356	-0.00552587	1.85936	0.275561	1	9	0.00453969	0.0020418	0	-4.05376e-06	2.13995e-05	2.56679e-05	95.7976	0.0125712	-0.00126987	-0.0125069	-22.3562	2.21742	2.05075	0.843427	0.415102	0.173147	0.449766	22.6419	275.561	660.631	715.799	-67.3581	0.0000000E+000	0.0000000E+000	0.0000000E+000	67.3581	0.0000000E+000	0.0000000E+000	0.0000000E+000	-67.3581	0.0000000E+000	0.0000000E+000	0.0000000E+000	-22.6419	0.0000000E+000	0.0000000E+000	0.0000000E+000	22.6419	2.39741	67.3581	-4.05376e-06	-1.57684e-06	-1.18251e-10	-1.57672e-06	0.285334	51639.9	3.87261	51636
31621.1	2.89527	1.20402	3.13564	-22.5803	3.30953	0.285359	0.00480444	4.18032	0.616343	1	9	0.00531686	0.00169562	0	8.07265e-06	-0.000112259	8.02754e-06	-51.2829	0.00473428	0.00296118	0.00369389	-22.6218	3.1398	2.89823	1.20771	0.294466	0.122456	0.318914	22.5803	616.343	1482.1	1605.15	-67.4197	0.0000000E+000	0.0000000E+000	0.0000000E+000	67.4197	0.0000000E+000	0.0000000E+000	0.0000000E+000	-67.4197	0.0000000E+000	0.0000000E+000	0.0000000E+000	-22.5803	0.0000000E+000	0.0000000E+000	0.0000000E+000	22.5803	2.40467	67.4197	5.8569e-06	1.37099e-06	-5.39341e-10	1.37153e-06	0.285471	59394.8	23.3657	59418.2
10002.2	3.87031	1.41607	4.12123	-20.0965	4.33654	0.285337	-0.00940443	11.2367	1.32664	1	9	0.00460431	0.00111722	0	4.91739e-06	-0.000284106	6.2092e-06	-17.393	0.00555774	0.00530362	0.00166134	-20.0929	4.12679	3.87562	1.41773	0.227872	0.0833738	0.242646	20.0965	1326.64	3625.89	3860.97	-69.9035	0.0000000E+000	0.0000000E+000	0.0000000E+000	69.9035	0.0000000E+000	0.0000000E+000	0.0000000E+000	-69.9035	0.0000000E+000	0.0000000E+000	0.0000000E+000	-20.0965	0.0000000E+000	0.0000000E+000	0.0000000E+000	20.0965	2.73314	69.9035	-8.09132e-08	-2.68344e-06	2.67185e-09	-2.68611e-06	0.285622	30340.7	30.2098	30371
3163.08	4.85224	1.77521	5.16678	-20.0952	5.51363	0.285283	-0.0243614	28.3439	3.34595	1	10	0.00500819	0.000969305	0	-1.17007e-06	0.00021234	8.72983e-06	44.0732	0.00900628	0.00647057	-0.00626456	-20.0054	5.17071	4.85871	1.76895	0.181762	0.0664982	0.193544	20.0952	3345.95	9145.6	9738.45	-69.9048	0.0000000E+000	0.0000000E+000	0.0000000E+000	69.9048	0.0000000E+000	0.0000000E+000	0.0000000E+000	-69.9048	0.0000000E+000	0.0000000E+000	0.0000000E+000	-20.0952	0.0000000E+000	0.0000000E+000	0.0000000E+000	20.0952	2.73333	69.9048	-2.34202e-06	-6.94989e-06	-5.17291e-09	-6.94472e-06	0.28507	11710.4	8.71625	11701.7
1000.32	6.19092	2.48128	6.66965	-21.8406	6.86681	0.285354	-0.00222677	64.1216	8.87465	1	10	0.00490167	0.000734922	0	-2.19823e-06	2.30547e-06	9.63598e-06	-3.89052	0.0131116	0.0130814	0.000889624	-21.806	6.68213	6.204	2.48217	0.139171	0.0557789	0.149933	21.8406	8874.65	22142.7	23854.9	-68.1594	0.0000000E+000	0.0000000E+000	0.0000000E+000	68.1594	0.0000000E+000	0.0000000E+000	0.0000000E+000	-68.1594	0.0000000E+000	0.0000000E+000	0.0000000E+000	-21.8406	0.0000000E+000	0.0000000E+000	0.0000000E+000	21.8406	2.49505	68.1594	2.68697e-07	-6.35419e-07	-5.13376e-12	-6.35414e-07	0.285352	128147	1.03534	128146
316.316	8.07021	3.86955	8.94996	-25.6171	8.21708	0.285341	-0.00463937	130.028	24.3062	1	10	0.00486215	0.00054326	0	-3.70841e-06	-0.000284106	5.5822e-06	-26.3968	0.0102754	0.00920404	0.00456829	-25.618	8.96023	8.07942	3.87412	0.100749	0.048308	0.111732	25.6171	24306.2	50692.3	56218.3	-64.3829	0.0000000E+000	0.0000000E+000	0.0000000E+000	64.3829	0.0000000E+000	0.0000000E+000	0.0000000E+000	-64.3829	0.0000000E+000	0.0000000E+000	0.0000000E+000	-25.6171	0.0000000E+000	0.0000000E+000	0.0000000E+000	25.6171	2.08557	64.3829	-7.57279e-07	-1.3238e-06	1.31807e-09	-1.32512e-06	0.285625	61504.3	61.238	61565.5
100.032	11.6472	6.21388	13.2011	-28.0804	9.56481	0.285351	-0.00220814	256.046	56.7316	1	10	0.00485312	0.00036763	0	-4.50418e-06	-1.67886e-05	6.37653e-06	66.2844	0.017345	0.0069761	-0.0158802	-28.0053	13.1998	11.6541	6.198	0.0668345	0.0356569	0.0757514	28.0804	56731.6	106336	120523	-61.9196	0.0000000E+000	0.0000000E+000	0.0000000E+000	61.9196	0.0000000E+000	0.0000000E+000	0.0000000E+000	-61.9196	0.0000000E+000	0.0000000E+000	0.0000000E+000	-28.0804	0.0000000E+000	0.0000000E+000	0.0000000E+000	28.0804	1.87438	61.9196	-8.34254e-07	-6.30094e-07	3.70715e-11	-6.30131e-07	0.285368	129227	7.60306	129235
31.6296	17.8746	7.50069	19.3845	-22.7643	11.1296	0.28538	-0.00644828	670.851	100.442	1	11	0.00484932	0.000250164	0	-6.59559e-06	-0.000188635	6.80298e-06	-57.0037	0.0271941	0.0148095	0.0228078	-22.8095	19.407	17.8894	7.52349	0.047569	0.0199613	0.0515875	22.7643	100442	239360	259580	-67.2357	0.0000000E+000	0.0000000E+000	0.0000000E+000	67.2357	0.0000000E+000	0.0000000E+000	0.0000000E+000	-67.2357	0.0000000E+000	0.0000000E+000	0.0000000E+000	-22.7643	0.0000000E+000	0.0000000E+000	0.0000000E+000	22.7643	2.38306	67.2357	-1.06185e-06	-1.84021e-06	1.21637e-09	-1.84143e-06	0.285569	44256.8	29.2536	44286.1
10.0032	23.7652	6.08775	24.5326	-14.3681	12.4608	0.285382	-0.0058233	2613.51	160.936	1	11	0.00485034	0.00019771	0	-7.73181e-06	-0.000265011	8.36845e-06	88.8542	0.0423268	0.000846397	-0.0423184	-14.2718	24.5229	23.7661	6.04543	0.0394872	0.0101151	0.0407622	14.3681	160936	628257	648542	-75.6319	0.0000000E+000	0.0000000E+000	0.0000000E+000	75.6319	0.0000000E+000	0.0000000E+000	0.0000000E+000	-75.6319	0.0000000E+000	0.0000000E+000	0.0000000E+000	-14.3681	0.0000000E+000	0.0000000E+000	0.0000000E+000	14.3681	3.90378	75.6319	-6.02112e-07	-1.66187e-06	1.54324e-09	-1.66341e-06	0.285647	49007	45.5088	49052.5
3.1604	27.4446	4.15137	27.7568	-8.60157	13.9774	0.285392	-0.0052921	12130.7	271.351	1	11	0.00484834	0.000174672	0	-1.19555e-05	-5.49767e-05	5.31334e-06	21.052	0.0304189	0.0283886	-0.0109269	-8.57054	27.7832	27.473	4.14045	0.035622	0.00538832	0.0360272	8.60157	271351	1.79389e+06	1.8143e+06	-81.3984	0.0000000E+000	0.0000000E+000	0.0000000E+000	81.3984	0.0000000E+000	0.0000000E+000	0.0000000E+000	-81.3984	0.0000000E+000	0.0000000E+000	0.0000000E+000	-8.60157	0.0000000E+000	0.0000000E+000	0.0000000E+000	8.60157	6.61097	81.3984	-1.68881e-06	-1.51032e-06	2.90942e-10	-1.51061e-06	0.285447	53927.9	10.3885	53938.3
1.00006	29.5534	2.8467	29.6902	-5.50197	19.6159	0.285391	-0.00394227	55905.1	513.933	1	12	0.00484821	0.000163293	0	-1.01573e-05	-0.000150447	3.6853e-06	-15.2945	0.0225686	0.0217693	0.00595315	-5.50937	29.7125	29.5752	2.85265	0.033526	0.00322934	0.0336811	5.50197	513933	5.33548e+06	5.36018e+06	-84.498	0.0000000E+000	0.0000000E+000	0.0000000E+000	84.498	0.0000000E+000	0.0000000E+000	0.0000000E+000	-84.498	0.0000000E+000	0.0000000E+000	0.0000000E+000	-5.50197	0.0000000E+000	0.0000000E+000	0.0000000E+000	5.50197	10.3817	84.498	-1.34375e-06	-1.12509e-06	5.93102e-10	-1.12568e-06	0.285541	72392.5	38.1626	72430.7
0.316193	30.8784	2.6178	30.9892	-4.84581	33.9597	0.285394	-0.0027475	192279	1372.09	1	12	0.00484755	0.000156427	0	-4.7902e-05	-0.000112259	1.83321e-06	10.6765	0.0117193	0.0115164	-0.00217115	-4.84002	31.0005	30.8899	2.61563	0.032154	0.00272594	0.0322693	4.84581	1.37209e+06	1.61846e+07	1.62427e+07	-85.1542	0.0000000E+000	0.0000000E+000	0.0000000E+000	85.1542	0.0000000E+000	0.0000000E+000	0.0000000E+000	-85.1542	0.0000000E+000	0.0000000E+000	0.0000000E+000	-4.84581	0.0000000E+000	0.0000000E+000	0.0000000E+000	4.84581	11.7956	85.1542	-1.78116e-05	-7.84118e-07	3.08431e-10	-7.84426e-07	0.285506	103874	40.8586	103915
0.0999041	32.2785	4.25703	32.558	-7.51305	79.1676	0.285389	-0.00303492	374223	6397.75	1	12	0.00484667	0.000148862	0	-5.18233e-05	2.13995e-05	1.84136e-06	-17.0425	0.0123695	0.0118263	0.00362527	-7.51665	32.5702	32.2904	4.26065	0.0304507	0.00401597	0.0307144	7.51305	6.39775e+06	4.85103e+07	4.89304e+07	-82.4869	0.0000000E+000	0.0000000E+000	0.0000000E+000	82.4869	0.0000000E+000	0.0000000E+000	0.0000000E+000	-82.4869	0.0000000E+000	0.0000000E+000	0.0000000E+000	-7.51305	0.0000000E+000	0.0000000E+000	0.0000000E+000	7.51305	7.58241	82.4869	1.65252e-05	-8.66132e-07	-6.49458e-11	-8.66067e-07	0.285368	94035.2	7.05111	94028.1
0.0315922	35.0928	8.64294	36.1415	-13.8359	222.05	0.285389	0.00022009	582879	33334.2	1	12	0.00484773	0.000134132	0	6.516e-05	-9.31649e-05	1.14106e-06	9.97129	0.00850695	0.00837845	-0.00147302	-13.8305	36.1493	35.1012	8.64147	0.0268662	0.00661683	0.027669	13.8359	3.33342e+07	1.35346e+08	1.39391e+08	-76.1641	0.0000000E+000	0.0000000E+000	0.0000000E+000	76.1641	0.0000000E+000	0.0000000E+000	0.0000000E+000	-76.1641	0.0000000E+000	0.0000000E+000	0.0000000E+000	-13.8359	0.0000000E+000	0.0000000E+000	0.0000000E+000	13.8359	4.06029	76.1641	2.39373e-05	6.28113e-08	-2.05047e-11	6.28318e-08	0.285482	1.29669e+06	423.303	1.29712e+06
0.0100092	40.2682	18.9388	44.4995	-25.1884	673.272	0.285387	-0.000324879	839595	152077	1	12	0.00484972	0.000108984	0	-0.000546759	2.30547e-06	2.2258e-06	-1.74964	0.0204232	0.0204137	0.000623568	-25.1779	44.5182	40.2886	18.9394	0.0203354	0.00956406	0.0224722	25.1884	1.52077e+08	3.23351e+08	3.57328e+08	-64.8116	0.0000000E+000	0.0000000E+000	0.0000000E+000	64.8116	0.0000000E+000	0.0000000E+000	0.0000000E+000	-64.8116	0.0000000E+000	0.0000000E+000	0.0000000E+000	-25.1884	0.0000000E+000	0.0000000E+000	0.0000000E+000	25.1884	2.12623	64.8116	-0.000316802	-9.27163e-08	-7.48999e-13	-9.27155e-08	0.285385	878441	7.0964	878434