File: txt/19161_R306_UA713_SOC00_C01.mpt
EC-Lab ASCII FILE
Nb header lines : 65

Potentio Electrochemical Impedance Spectroscopy

Run on channel : 1 (SN 66354)
User :
CE vs. WE compliance from -10 V to 10 V
Electrode connection : standard
Potential control : Ewe
Ewe ctrl range : min = -10.00 V, max = 10.00 V
Safety Limits :
	Do not start on E overload
Acquisition started on : 11/12/2025 15:31:56.562
Technique started on : 11/12/2025 15:31:58.474
Loaded Setting File :  C:\Users\Celltest\OneDrive - store-dot.com\Documents\EC-Lab\Data\@Biologic Test Protocols\anode half cell EIS SOC00.mps
Saved on :
	File : 19161_R306_UA713_SOC00_C01.mpr
	Directory : C:\Users\Celltest\OneDrive - store-dot.com\Documents\EC-Lab\Data\Charmaine\
	Host : 169.254.61.224
Device : VMP-3e (SN .003165)
Address : USB
EC-LAB for windows v11.62 (software)
Internet server v27.00 (firmware)
Command interpretor v12.03 (firmware)
Electrode material :
Initial state :
Electrolyte :
Comments :
Electrode surface area : 0.001 cm²
Characteristic mass : 0.001 g
Equivalent Weight : 0.000 g/eq.
Density : 0.000 g/cm3
Volume (V) : 0.001 cm³
Record Ece
Cycle Definition : Charge/Discharge alternance
Mode                Single sine
E (V)               0.0000
vs.                 Eoc
tE (h:m:s)          0:00:0.0000
record              0
dI                  0.000
unit dI             mA
dt (s)              0.000
fi                  100.000
unit fi             kHz
ff                  10.000
unit ff             mHz
Nd                  6
Points              per decade
spacing             Logarithmic
Va (mV)             5.0
pw                  0.10
Na                  2
corr                0
E range min (V)     -10.000
E range max (V)     10.000
I Range             Auto
Bandwidth           5
nc cycles           0
goto Ns'            0
nr cycles           0
inc. cycle          0

freq/Hz	Re(Z)/Ohm	-Im(Z)/Ohm	|Z|/Ohm	Phase(Z)/deg	time/s	<Ewe>/V	<I>/mA	Cs/µF	Cp/µF	cycle number	I Range	|Ewe|/V	|I|/A	Ns	(Q-Qo)/mA.h	<Ece>/V	|Ece|/V	Phase(Zce)/deg	|Zce|/Ohm	Re(Zce)/Ohm	-Im(Zce)/Ohm	Phase(Zwe-ce)/deg	|Zwe-ce|/Ohm	Re(Zwe-ce)/Ohm	-Im(Zwe-ce)/Ohm	Re(Y)/Ohm-1	Im(Y)/Ohm-1	|Y|/Ohm-1	Phase(Y)/deg	Re(C)/nF	Im(C)/nF	|C|/nF	Phase(C)/deg	Re(M)	Im(M)	|M|	Phase(M)/deg	Re(Permittivity)	Im(Permittivity)	|Permittivity|	Phase(Permittivity)/deg	Re(Resistivity)/Ohm.cm	Im(Resistivity)/Ohm.cm	|Resistivity|/Ohm.cm	Phase(Resistivity)/deg	Re(Conductivity)/mS/cm	Im(Conductivity)/mS/cm	|Conductivity|/mS/cm	Phase(Conductivity)/deg	Tan(Delta)	Loss Angle(Delta)/deg	dq/mA.h	Pwe/W	Pce/W	Pwe-ce/W	<Ewe-Ece>/V	Rwe/Ohm	Rce/Ohm	Rwe-ce/Ohm		Ewe-Ece/V
100004	2.21173	0.927244	2.39824	-22.7453	1.91156	0.289479	0.0536417	1.71637	0.256575	1	9	0.00457673	0.00190838	0	8.56013e-06	0.00012515	4.15281e-05	91.708	0.021761	-0.000648606	-0.0217513	-22.2703	2.38931	2.21108	0.905493	0.384546	0.161217	0.416973	22.7453	256.575	612.002	663.609	-67.2547	0.0000000E+000	0.0000000E+000	0.0000000E+000	67.2547	0.0000000E+000	0.0000000E+000	0.0000000E+000	-67.2547	0.0000000E+000	0.0000000E+000	0.0000000E+000	-22.7453	0.0000000E+000	0.0000000E+000	0.0000000E+000	22.7453	2.38527	67.2547	8.56013e-06	1.55281e-05	6.71323e-09	1.55214e-05	0.289354	5396.53	2.33307	5394.2
31621.1	3.10966	1.31757	3.37727	-22.9625	3.30854	0.289465	0.052524	3.82005	0.581413	1	9	0.00506338	0.00149925	0	2.86779e-05	6.79177e-05	1.35299e-05	-22.8703	0.0090244	0.00831496	0.0035073	-22.9622	3.38629	3.11797	1.32108	0.272635	0.115516	0.296097	22.9625	581.413	1372.22	1490.31	-67.0375	0.0000000E+000	0.0000000E+000	0.0000000E+000	67.0375	0.0000000E+000	0.0000000E+000	0.0000000E+000	-67.0375	0.0000000E+000	0.0000000E+000	0.0000000E+000	-22.9625	0.0000000E+000	0.0000000E+000	0.0000000E+000	22.9625	2.36015	67.0375	6.59103e-06	1.52039e-05	3.56731e-09	1.52003e-05	0.289397	5511.1	1.29308	5509.81
10002.2	4.19127	1.59116	4.48314	-20.7886	4.48955	0.289523	-0.00995509	10.0002	1.25972	1	10	0.0046517	0.0010376	0	4.30616e-05	0.000163304	8.557e-06	6.66693	0.00824692	0.00819115	-0.000957447	-20.7401	4.49046	4.19946	1.5902	0.208536	0.0791678	0.223058	20.7886	1259.72	3318.21	3549.29	-69.2114	0.0000000E+000	0.0000000E+000	0.0000000E+000	69.2114	0.0000000E+000	0.0000000E+000	0.0000000E+000	-69.2114	0.0000000E+000	0.0000000E+000	0.0000000E+000	-20.7886	0.0000000E+000	0.0000000E+000	0.0000000E+000	20.7886	2.6341	69.2114	1.12692e-06	-2.88222e-06	-1.62571e-09	-2.8806e-06	0.289359	29082.9	16.4041	29066.5
3163.08	5.38593	2.05337	5.76408	-20.8692	5.38668	0.28944	-0.0103874	24.5044	3.10969	1	10	0.00471969	0.000818811	0	4.18501e-05	0.000296845	1.63134e-05	-66.4624	0.0199233	0.00795641	0.0182657	-21.0103	5.77804	5.39389	2.07163	0.162107	0.0618026	0.173488	20.8692	3109.69	8156.64	8729.31	-69.1308	0.0000000E+000	0.0000000E+000	0.0000000E+000	69.1308	0.0000000E+000	0.0000000E+000	0.0000000E+000	-69.1308	0.0000000E+000	0.0000000E+000	0.0000000E+000	-20.8692	0.0000000E+000	0.0000000E+000	0.0000000E+000	20.8692	2.62298	69.1308	-4.37811e-07	-3.00653e-06	-3.08346e-09	-3.00345e-06	0.289143	27864.5	28.5774	27835.9
1000.32	6.95257	2.8669	7.52046	-22.4088	6.73978	0.28946	-0.00139805	55.4969	8.06499	1	10	0.00461472	0.000613621	0	4.13626e-05	0.000106072	5.96497e-06	-14.3926	0.00972094	0.00941585	0.00241629	-22.3985	7.53009	6.96199	2.86931	0.12293	0.0506901	0.132971	22.4088	8064.99	19558.6	21156.1	-67.5912	0.0000000E+000	0.0000000E+000	0.0000000E+000	67.5912	0.0000000E+000	0.0000000E+000	0.0000000E+000	-67.5912	0.0000000E+000	0.0000000E+000	0.0000000E+000	-22.4088	0.0000000E+000	0.0000000E+000	0.0000000E+000	22.4088	2.42512	67.5912	-2.82091e-07	-4.04679e-07	-1.48294e-10	-4.0453e-07	0.289354	207046	75.8718	206970
316.316	9.16142	4.259	10.103	-24.9329	8.09006	0.289463	-0.0013347	118.139	20.9945	1	10	0.00457668	0.000453002	0	4.14333e-05	0.000220536	8.16e-06	-33.4386	0.0180132	0.0150316	0.00992603	-24.948	10.1208	9.17646	4.26892	0.0897556	0.0417259	0.0989804	24.9329	20994.5	45160.7	49802.2	-65.067	0.0000000E+000	0.0000000E+000	0.0000000E+000	65.067	0.0000000E+000	0.0000000E+000	0.0000000E+000	-65.067	0.0000000E+000	0.0000000E+000	0.0000000E+000	-24.9329	0.0000000E+000	0.0000000E+000	0.0000000E+000	24.9329	2.15108	65.067	2.01007e-07	-3.86345e-07	-2.94349e-10	-3.86051e-07	0.289242	216876	165.233	216710
100.032	13.0202	6.52138	14.5621	-26.6048	9.43684	0.289464	-0.000850199	243.973	48.9299	1	10	0.00458017	0.000314527	0	4.12993e-05	-0.000199165	2.93028e-05	37.4355	0.0931645	0.0739762	-0.0566317	-26.2761	14.6031	13.0942	6.46475	0.0614004	0.0307534	0.0686716	26.6048	48929.9	97690.5	109259	-63.3952	0.0000000E+000	0.0000000E+000	0.0000000E+000	63.3952	0.0000000E+000	0.0000000E+000	0.0000000E+000	-63.3952	0.0000000E+000	0.0000000E+000	0.0000000E+000	-26.6048	0.0000000E+000	0.0000000E+000	0.0000000E+000	26.6048	1.99654	63.3952	-4.83157e-07	-2.46102e-07	1.6933e-10	-2.46271e-07	0.289663	340466	234.256	340700
31.6296	19.4977	8.02788	21.0857	-22.3787	11.0055	0.289501	-0.00394069	626.796	90.8559	1	11	0.00456832	0.000216655	0	4.01614e-05	0.000373155	8.31674e-06	-18.3392	0.038387	0.0364373	0.0120782	-22.3714	21.124	19.5341	8.03996	0.0438538	0.0180562	0.0474256	22.3787	90855.9	220666	238638	-67.6213	0.0000000E+000	0.0000000E+000	0.0000000E+000	67.6213	0.0000000E+000	0.0000000E+000	0.0000000E+000	-67.6213	0.0000000E+000	0.0000000E+000	0.0000000E+000	-22.3787	0.0000000E+000	0.0000000E+000	0.0000000E+000	22.3787	2.42874	67.6213	3.16061e-08	-1.14083e-06	-1.47049e-09	-1.13936e-06	0.289128	73464.7	94.6928	73370
10.0032	25.8478	6.73239	26.7102	-14.5991	12.3378	0.289509	-0.00327783	2363.26	150.14	1	11	0.00455556	0.000170555	0	3.80472e-05	-0.000141933	5.60149e-06	3.85836	0.0328427	0.0327682	-0.00220999	-14.5768	26.7413	25.8806	6.73018	0.0362302	0.00943661	0.0374389	14.5991	150140	576436	595668	-75.4009	0.0000000E+000	0.0000000E+000	0.0000000E+000	75.4009	0.0000000E+000	0.0000000E+000	0.0000000E+000	-75.4009	0.0000000E+000	0.0000000E+000	0.0000000E+000	-14.5991	0.0000000E+000	0.0000000E+000	0.0000000E+000	14.5991	3.83932	75.4009	-1.80808e-06	-9.48963e-07	4.65231e-10	-9.49428e-07	0.289651	88323.5	43.3008	88366.8
3.1604	30.0489	4.67123	30.4098	-8.83614	13.8554	0.289523	-0.00142965	10780.7	254.379	1	11	0.00455978	0.000149944	0	3.70468e-05	0.000144227	6.62378e-06	-26.8667	0.0441749	0.0394067	0.0199634	-8.86187	30.4518	30.0883	4.69119	0.0324938	0.0050513	0.0328841	8.83614	254379	1.63636e+06	1.65602e+06	-81.1639	0.0000000E+000	0.0000000E+000	0.0000000E+000	81.1639	0.0000000E+000	0.0000000E+000	0.0000000E+000	-81.1639	0.0000000E+000	0.0000000E+000	0.0000000E+000	-8.83614	0.0000000E+000	0.0000000E+000	0.0000000E+000	8.83614	6.43277	81.1639	-2.21296e-06	-4.13917e-07	-2.06195e-10	-4.13711e-07	0.289379	202513	100.882	202412
1.00006	32.528	3.14553	32.6798	-5.52344	19.495	0.289516	-0.00211392	50594	468.735	1	12	0.00456324	0.000139635	0	3.7555e-05	6.79177e-05	2.8878e-06	-45.9763	0.020681	0.0143724	0.0148708	-5.54696	32.6955	32.5424	3.1604	0.0304579	0.00294534	0.0306	5.52344	468736	4.84722e+06	4.86983e+06	-84.4766	0.0000000E+000	0.0000000E+000	0.0000000E+000	84.4766	0.0000000E+000	0.0000000E+000	0.0000000E+000	-84.4766	0.0000000E+000	0.0000000E+000	0.0000000E+000	-5.52344	0.0000000E+000	0.0000000E+000	0.0000000E+000	5.52344	10.341	84.4766	2.75013e-06	-6.12015e-07	-1.43573e-10	-6.11871e-07	0.289448	136957	32.1287	136925
0.316193	34.1064	2.81545	34.2224	-4.71902	33.84	0.289524	-0.000512876	178780	1210.03	1	12	0.00456214	0.000133309	0	3.65406e-05	-8.3915e-06	3.26546e-06	59.5955	0.0244955	0.0123972	-0.0211267	-4.68207	34.233	34.1188	2.79432	0.0291216	0.00240396	0.0292206	4.71902	1.21003e+06	1.46583e+07	1.47081e+07	-85.281	0.0000000E+000	0.0000000E+000	0.0000000E+000	85.281	0.0000000E+000	0.0000000E+000	0.0000000E+000	-85.281	0.0000000E+000	0.0000000E+000	0.0000000E+000	-4.71902	0.0000000E+000	0.0000000E+000	0.0000000E+000	4.71902	12.114	85.281	-5.90115e-06	-1.4849e-07	4.3038e-12	-1.48494e-07	0.289532	564511	16.3617	564527
0.0999041	35.8635	4.26594	36.1163	-6.78343	79.0491	0.289513	-0.00128715	373441	5210.1	1	12	0.00456727	0.00012646	0	-3.72222e-05	0.000277768	2.12437e-06	-28.9647	0.0167987	0.0146975	0.00813514	-6.79349	36.1318	35.8782	4.27408	0.0274945	0.00327046	0.0276883	6.78343	5.2101e+06	4.38009e+07	4.41097e+07	-83.2166	0.0000000E+000	0.0000000E+000	0.0000000E+000	83.2166	0.0000000E+000	0.0000000E+000	0.0000000E+000	-83.2166	0.0000000E+000	0.0000000E+000	0.0000000E+000	-6.78343	0.0000000E+000	0.0000000E+000	0.0000000E+000	6.78343	8.40693	83.2166	-2.98123e-05	-3.72645e-07	-3.57528e-10	-3.72288e-07	0.289235	224926	215.802	224710
0.0315922	38.7952	8.86029	39.7941	-12.8649	221.932	0.28952	-0.000985256	568581	28187.1	1	12	0.00456577	0.000114735	0	4.09287e-05	8.6995e-05	2.46952e-06	11.444	0.0215237	0.0210958	-0.00427054	-12.8522	39.8137	38.8162	8.85602	0.0244986	0.00559514	0.0251294	12.8649	2.81871e+07	1.23419e+08	1.26597e+08	-77.1351	0.0000000E+000	0.0000000E+000	0.0000000E+000	77.1351	0.0000000E+000	0.0000000E+000	0.0000000E+000	-77.1351	0.0000000E+000	0.0000000E+000	0.0000000E+000	-12.8649	0.0000000E+000	0.0000000E+000	0.0000000E+000	12.8649	4.37854	77.1351	7.8963e-05	-2.85251e-07	-8.57124e-11	-2.85165e-07	0.289433	293852	88.2969	293764
0.0100092	44.5647	20.2559	48.9521	-24.4431	673.154	0.289519	0.000320991	785001	134410	1	12	0.00456518	9.3258e-05	0	0.00020931	0.000239613	2.51802e-06	-3.34111	0.0270006	0.0269547	0.0015736	-24.4318	48.9773	44.5916	20.2575	0.0185972	0.00845295	0.0204281	24.4431	1.3441e+08	2.95712e+08	3.24826e+08	-65.5569	0.0000000E+000	0.0000000E+000	0.0000000E+000	65.5569	0.0000000E+000	0.0000000E+000	0.0000000E+000	-65.5569	0.0000000E+000	0.0000000E+000	0.0000000E+000	-24.4431	0.0000000E+000	0.0000000E+000	0.0000000E+000	24.4431	2.20008	65.5569	-5.41696e-05	9.2933e-08	7.69137e-11	9.28561e-08	0.28928	901956	746.482	901210