File: txt/19160_R306_UA713_SOC00_C08.mpt
EC-Lab ASCII FILE
Nb header lines : 65

Potentio Electrochemical Impedance Spectroscopy

Run on channel : 8 (SN 65398)
Grouped channel(s) : 5, 6, 7, 8
User :
CE vs. WE compliance from -10 V to 10 V
Electrode connection : standard
Potential control : Ewe
Ewe ctrl range : min = -10.00 V, max = 10.00 V
Safety Limits :
	Do not start on E overload
Acquisition started on : 11/12/2025 13:01:01.674
Loaded Setting File :  C:\Users\Celltest\OneDrive - store-dot.com\Documents\EC-Lab\Data\@Biologic Test Protocols\anode half cell EIS SOC00.mps
Saved on :
	File : 19157_R306_UA713_SOC00_C08.mpr
	Directory : C:\Users\Celltest\OneDrive - store-dot.com\Documents\EC-Lab\Data\Charmaine\
	Host : 169.254.61.224
Device : VMP-3e (SN .003165)
Address : USB
EC-LAB for windows v11.62 (software)
Internet server v27.00 (firmware)
Command interpretor v12.03 (firmware)
Electrode material :
Initial state :
Electrolyte :
Comments :
Electrode surface area : 0.001 cm²
Characteristic mass : 0.001 g
Equivalent Weight : 0.000 g/eq.
Density : 0.000 g/cm3
Volume (V) : 0.001 cm³
Record Ece
Cycle Definition : Charge/Discharge alternance
Mode                Single sine
E (V)               0.0000
vs.                 Eoc
tE (h:m:s)          0:00:0.0000
record              0
dI                  0.000
unit dI             mA
dt (s)              0.000
fi                  100.000
unit fi             kHz
ff                  10.000
unit ff             mHz
Nd                  6
Points              per decade
spacing             Logarithmic
Va (mV)             5.0
pw                  0.10
Na                  2
corr                0
E range min (V)     -10.000
E range max (V)     10.000
I Range             Auto
Bandwidth           5
nc cycles           0
goto Ns'            0
nr cycles           0
inc. cycle          0

freq/Hz	Re(Z)/Ohm	-Im(Z)/Ohm	|Z|/Ohm	Phase(Z)/deg	time/s	<Ewe>/V	<I>/mA	Cs/µF	Cp/µF	cycle number	I Range	|Ewe|/V	|I|/A	Ns	(Q-Qo)/mA.h	<Ece>/V	|Ece|/V	Phase(Zce)/deg	|Zce|/Ohm	Re(Zce)/Ohm	-Im(Zce)/Ohm	Phase(Zwe-ce)/deg	|Zwe-ce|/Ohm	Re(Zwe-ce)/Ohm	-Im(Zwe-ce)/Ohm	Re(Y)/Ohm-1	Im(Y)/Ohm-1	|Y|/Ohm-1	Phase(Y)/deg	Re(C)/nF	Im(C)/nF	|C|/nF	Phase(C)/deg	Re(M)	Im(M)	|M|	Phase(M)/deg	Re(Permittivity)	Im(Permittivity)	|Permittivity|	Phase(Permittivity)/deg	Re(Resistivity)/Ohm.cm	Im(Resistivity)/Ohm.cm	|Resistivity|/Ohm.cm	Phase(Resistivity)/deg	Re(Conductivity)/mS/cm	Im(Conductivity)/mS/cm	|Conductivity|/mS/cm	Phase(Conductivity)/deg	Tan(Delta)	Loss Angle(Delta)/deg	dq/mA.h	Pwe/W	Pce/W	Pwe-ce/W	<Ewe-Ece>/V	Rwe/Ohm	Rce/Ohm	Rwe-ce/Ohm		Ewe-Ece/V
100004	2.20913	0.829192	2.35962	-20.5735	1.91055	0.286535	-0.049923	1.91933	0.237014	1	9	0.00450497	0.00190919	0	-8.3778e-06	-2.46612e-05	4.20637e-05	102.601	0.0220322	-0.0048065	-0.0215015	-20.1234	2.34764	2.20432	0.807691	0.396768	0.148926	0.423797	20.5735	237.014	631.452	674.468	-69.4265	0.0000000E+000	0.0000000E+000	0.0000000E+000	69.4265	0.0000000E+000	0.0000000E+000	0.0000000E+000	-69.4265	0.0000000E+000	0.0000000E+000	0.0000000E+000	-20.5735	0.0000000E+000	0.0000000E+000	0.0000000E+000	20.5735	2.6642	69.4265	-8.3778e-06	-1.43047e-05	1.23116e-09	-1.43059e-05	0.286559	5739.53	0.493984	5740.02
31621.1	3.02323	1.27849	3.28245	-22.923	3.30955	0.286525	-0.0455704	3.9368	0.597236	1	9	0.00511183	0.00155732	0	-3.06652e-05	-2.46612e-05	6.40617e-06	-55.4099	0.00411358	0.00233529	0.00338644	-22.9616	3.28592	3.02556	1.28188	0.280592	0.11866	0.304651	22.923	597.236	1412.27	1533.36	-67.077	0.0000000E+000	0.0000000E+000	0.0000000E+000	67.077	0.0000000E+000	0.0000000E+000	0.0000000E+000	-67.077	0.0000000E+000	0.0000000E+000	0.0000000E+000	-22.923	0.0000000E+000	0.0000000E+000	0.0000000E+000	22.923	2.36468	67.077	-5.36684e-06	-1.3057e-05	1.12382e-09	-1.30582e-05	0.28655	6287.53	0.541167	6288.07
10002.2	4.07712	1.56931	4.36871	-21.052	4.49056	0.28663	-0.0220628	10.1395	1.30835	1	10	0.00455557	0.00104277	0	-4.48387e-05	-6.28373e-05	1.88752e-05	-37.9455	0.018101	0.0142744	0.0111305	-21.1207	4.38603	4.09139	1.58044	0.213623	0.0822246	0.228901	21.052	1308.35	3399.15	3642.26	-68.948	0.0000000E+000	0.0000000E+000	0.0000000E+000	68.948	0.0000000E+000	0.0000000E+000	0.0000000E+000	-68.948	0.0000000E+000	0.0000000E+000	0.0000000E+000	-21.052	0.0000000E+000	0.0000000E+000	0.0000000E+000	21.052	2.59804	68.948	-4.66746e-06	-6.32387e-06	1.38637e-09	-6.32525e-06	0.286693	12991.5	2.8481	12994.4
3163.08	5.25626	2.01174	5.62809	-20.9434	5.39067	0.286521	-0.0226655	25.0114	3.19565	1	10	0.00464648	0.000825588	0	-5.07616e-05	0.000108955	8.09447e-06	67.4245	0.0098045	0.00376396	-0.00905322	-20.8437	5.62838	5.26003	2.00269	0.165941	0.0635111	0.17768	20.9434	3195.65	8349.58	8940.23	-69.0566	0.0000000E+000	0.0000000E+000	0.0000000E+000	69.0566	0.0000000E+000	0.0000000E+000	0.0000000E+000	-69.0566	0.0000000E+000	0.0000000E+000	0.0000000E+000	-20.9434	0.0000000E+000	0.0000000E+000	0.0000000E+000	20.9434	2.61279	69.0566	-2.88483e-06	-6.49413e-06	-2.46952e-09	-6.49166e-06	0.286412	12641.3	4.8071	12636.5
1000.32	6.78265	2.81289	7.3428	-22.5247	6.74378	0.28659	-0.00204945	56.5624	8.30063	1	10	0.00453014	0.00061695	0	-5.18681e-05	0.000185307	1.41429e-05	18.9588	0.022924	0.0216804	-0.00744773	-22.4065	7.35999	6.80433	2.80545	0.125799	0.0521711	0.136188	22.5247	8300.63	20015.1	21668	-67.4753	0.0000000E+000	0.0000000E+000	0.0000000E+000	67.4753	0.0000000E+000	0.0000000E+000	0.0000000E+000	-67.4753	0.0000000E+000	0.0000000E+000	0.0000000E+000	-22.5247	0.0000000E+000	0.0000000E+000	0.0000000E+000	22.5247	2.41127	67.4753	6.78516e-08	-5.87352e-07	-3.79778e-10	-5.86972e-07	0.286405	139837	90.4181	139747
316.316	8.98042	4.19321	9.91115	-25.0292	8.09307	0.286562	-0.00409543	119.992	21.4782	1	10	0.00449311	0.000453339	0	-5.30479e-05	0.000280748	1.37726e-05	-19.6252	0.0303803	0.0286155	0.0102037	-25.0127	9.9414	9.00903	4.20342	0.0914215	0.0426873	0.100896	25.0292	21478.2	45998.9	50766.2	-64.9708	0.0000000E+000	0.0000000E+000	0.0000000E+000	64.9708	0.0000000E+000	0.0000000E+000	0.0000000E+000	-64.9708	0.0000000E+000	0.0000000E+000	0.0000000E+000	-25.0292	0.0000000E+000	0.0000000E+000	0.0000000E+000	25.0292	2.14166	64.9708	-1.31378e-07	-1.17359e-06	-1.14978e-09	-1.17245e-06	0.286281	69971	68.5514	69902.5
100.032	12.7801	6.48032	14.3292	-26.8878	9.65179	0.286577	-0.00232846	245.519	50.2148	1	10	0.00488058	0.000340603	0	-5.40688e-05	0.000166219	1.06428e-05	14.5288	0.0312469	0.0302477	-0.00783883	-26.8053	14.3527	12.8104	6.47248	0.062243	0.031561	0.0697874	26.8878	50214.8	99031.1	111035	-63.1122	0.0000000E+000	0.0000000E+000	0.0000000E+000	63.1122	0.0000000E+000	0.0000000E+000	0.0000000E+000	-63.1122	0.0000000E+000	0.0000000E+000	0.0000000E+000	-26.8878	0.0000000E+000	0.0000000E+000	0.0000000E+000	26.8878	1.97215	63.1122	-6.15177e-07	-6.67283e-07	-3.87034e-10	-6.66896e-07	0.286411	123076	71.3861	123005
31.6296	19.1337	7.68294	20.6186	-21.8774	11.2156	0.286608	-0.00326113	654.937	90.9358	1	11	0.00487248	0.000236315	0	-5.55385e-05	3.2603e-05	3.02894e-06	69.2062	0.0128174	0.00455026	-0.0119825	-21.8418	20.6184	19.1383	7.67096	0.045007	0.0180721	0.0484998	21.8774	90935.8	226468	244043	-68.1226	0.0000000E+000	0.0000000E+000	0.0000000E+000	68.1226	0.0000000E+000	0.0000000E+000	0.0000000E+000	-68.1226	0.0000000E+000	0.0000000E+000	0.0000000E+000	-21.8774	0.0000000E+000	0.0000000E+000	0.0000000E+000	21.8774	2.49042	68.1226	-7.33104e-07	-9.34666e-07	-1.06323e-10	-9.34559e-07	0.286575	87885.9	9.99744	87875.9
10.0032	25.1045	6.29187	25.881	-14.07	12.5478	0.286607	-0.002724	2528.73	149.451	1	11	0.00486699	0.000188053	0	-5.52729e-05	-0.000196454	6.29899e-06	12.5846	0.0334958	0.0326911	-0.00729809	-14.0368	25.9109	25.1372	6.28457	0.0374793	0.00939331	0.0386384	14.07	149451	596310	614753	-75.93	0.0000000E+000	0.0000000E+000	0.0000000E+000	75.93	0.0000000E+000	0.0000000E+000	0.0000000E+000	-75.93	0.0000000E+000	0.0000000E+000	0.0000000E+000	-14.07	0.0000000E+000	0.0000000E+000	0.0000000E+000	14.07	3.99	75.93	2.61244e-07	-7.80716e-07	5.35139e-10	-7.81251e-07	0.286803	105215	72.1196	105288
3.1604	28.9667	4.32433	29.2877	-8.49078	14.0644	0.286616	-0.002016	11645.5	253.879	1	11	0.00487003	0.000166282	0	-5.78367e-05	-4.37492e-05	3.48135e-06	-3.17322	0.0209364	0.0209043	0.00115893	-8.48698	29.3085	28.9876	4.32549	0.0337698	0.00504137	0.034144	8.49078	253879	1.70062e+06	1.71946e+06	-81.5092	0.0000000E+000	0.0000000E+000	0.0000000E+000	81.5092	0.0000000E+000	0.0000000E+000	0.0000000E+000	-81.5092	0.0000000E+000	0.0000000E+000	0.0000000E+000	-8.49078	0.0000000E+000	0.0000000E+000	0.0000000E+000	8.49078	6.69853	81.5092	-2.78534e-07	-5.7782e-07	8.81986e-11	-5.77908e-07	0.28666	142171	21.701	142192
1.00006	31.2049	2.95436	31.3444	-5.40842	19.7016	0.286626	-0.000481124	53867.8	478.559	1	12	0.00487523	0.000155537	0	-5.29047e-05	5.16911e-05	1.63301e-06	-138.136	0.0104992	-0.00781904	0.00700681	-5.42253	31.3373	31.1971	2.96137	0.0317616	0.00300706	0.0319036	5.40842	478559	5.05469e+06	5.07729e+06	-84.5916	0.0000000E+000	0.0000000E+000	0.0000000E+000	84.5916	0.0000000E+000	0.0000000E+000	0.0000000E+000	-84.5916	0.0000000E+000	0.0000000E+000	0.0000000E+000	-5.40842	0.0000000E+000	0.0000000E+000	0.0000000E+000	5.40842	10.5623	84.5916	-3.02879e-07	-1.37903e-07	-2.48698e-11	-1.37878e-07	0.286574	595742	107.438	595634
0.316193	32.5861	2.63232	32.6923	-4.61835	34.047	0.286624	-0.000770661	191218	1239.7	1	12	0.00487185	0.000149021	0	-7.88609e-05	8.98672e-05	2.69407e-06	-46.2343	0.0180784	0.012505	0.0130558	-4.63938	32.7058	32.5986	2.64537	0.030489	0.00246291	0.0305883	4.61835	1.2397e+06	1.53465e+07	1.53965e+07	-85.3817	0.0000000E+000	0.0000000E+000	0.0000000E+000	85.3817	0.0000000E+000	0.0000000E+000	0.0000000E+000	-85.3817	0.0000000E+000	0.0000000E+000	0.0000000E+000	-4.61835	0.0000000E+000	0.0000000E+000	0.0000000E+000	4.61835	12.3792	85.3817	-1.03085e-05	-2.2089e-07	-6.92571e-11	-2.2082e-07	0.286534	371919	116.611	371802
0.0999041	33.9023	4.15319	34.1558	-6.98419	79.2562	0.28661	-0.00154635	383580	5671.4	1	12	0.00487487	0.000142725	0	-4.2941e-05	-5.57311e-06	2.01746e-06	-1.77152	0.0141353	0.0141286	0.000436978	-6.98204	34.1698	33.9164	4.15362	0.0290604	0.00356003	0.0292776	6.98419	5.6714e+06	4.62954e+07	4.66415e+07	-83.0158	0.0000000E+000	0.0000000E+000	0.0000000E+000	83.0158	0.0000000E+000	0.0000000E+000	0.0000000E+000	-83.0158	0.0000000E+000	0.0000000E+000	0.0000000E+000	-6.98419	0.0000000E+000	0.0000000E+000	0.0000000E+000	6.98419	8.16296	83.0158	3.00855e-05	-4.43201e-07	8.618e-12	-4.43209e-07	0.286616	185346	3.60403	185349
0.0315922	36.5485	8.65203	37.5586	-13.3183	222.14	0.286617	0.000767711	582267	30898.7	1	12	0.00487072	0.000129683	0	4.50629e-05	0.000166219	2.26533e-06	3.84007	0.0174682	0.017429	-0.00116987	-13.3105	37.5753	36.5659	8.65086	0.025909	0.00613337	0.0266251	13.3183	3.08986e+07	1.30524e+08	1.34132e+08	-76.6817	0.0000000E+000	0.0000000E+000	0.0000000E+000	76.6817	0.0000000E+000	0.0000000E+000	0.0000000E+000	-76.6817	0.0000000E+000	0.0000000E+000	0.0000000E+000	-13.3183	0.0000000E+000	0.0000000E+000	0.0000000E+000	13.3183	4.22427	76.6817	-3.54669e-06	2.20039e-07	1.27608e-10	2.19912e-07	0.286451	373340	216.513	373124
0.0100092	41.8378	19.1769	46.0234	-24.625	673.362	0.286617	-0.000385935	829170	143960	1	12	0.00487015	0.000105819	0	-0.00055113	0.000108955	1.59035e-06	29.3545	0.0150289	0.0130993	-0.00736736	-24.6098	46.0323	41.8509	19.1695	0.019752	0.00905359	0.0217281	24.625	1.4396e+08	3.14075e+08	3.45496e+08	-65.375	0.0000000E+000	0.0000000E+000	0.0000000E+000	65.375	0.0000000E+000	0.0000000E+000	0.0000000E+000	-65.375	0.0000000E+000	0.0000000E+000	0.0000000E+000	-24.625	0.0000000E+000	0.0000000E+000	0.0000000E+000	24.625	2.18168	65.375	-0.00025895	-1.10615e-07	-4.20496e-11	-1.10573e-07	0.286508	742656	282.315	742373