File: txt/19189_R297_UC94_SOC50_C06.mpt
EC-Lab ASCII FILE
Nb header lines : 65

Potentio Electrochemical Impedance Spectroscopy

Run on channel : 6 (SN 65795)
Grouped channel(s) : 5, 6, 7, 8
User :
CE vs. WE compliance from -10 V to 10 V
Electrode connection : standard
Potential control : Ewe
Ewe ctrl range : min = -10.00 V, max = 10.00 V
Safety Limits :
	Do not start on E overload
Acquisition started on : 11/11/2025 16:20:58.367
Loaded Setting File :  C:\Users\Celltest\OneDrive - store-dot.com\Documents\EC-Lab\Data\@Biologic Test Protocols\cathode half cell EIS SOC50.mps
Saved on :
	File : 19187_R297_UC94_SOC50_C06.mpr
	Directory : C:\Users\Celltest\OneDrive - store-dot.com\Documents\EC-Lab\Data\Michael\
	Host : 169.254.61.224
Device : VMP-3e (SN .003165)
Address : USB
EC-LAB for windows v11.62 (software)
Internet server v27.00 (firmware)
Command interpretor v12.03 (firmware)
Electrode material :
Initial state :
Electrolyte :
Comments :
Electrode surface area : 0.001 cm²
Characteristic mass : 0.001 g
Equivalent Weight : 0.000 g/eq.
Density : 0.000 g/cm3
Volume (V) : 0.001 cm³
Record Ece
Cycle Definition : Charge/Discharge alternance
Mode                Multi sine
E (V)               0.0000
vs.                 Eoc
tE (h:m:s)          0:00:0.0000
record              0
dI                  0.000
unit dI             mA
dt (s)              0.000
fi                  1.000
unit fi             MHz
ff                  0.100
unit ff             mHz
Nd                  10
Points              per decade
spacing             Logarithmic
Va (mV)             5.0
pw                  0.10
Na                  2
corr                0
E range min (V)     -10.000
E range max (V)     10.000
I Range             Auto
Bandwidth           5
nc cycles           0
goto Ns'            0
nr cycles           0
inc. cycle          0

freq/Hz	Re(Z)/Ohm	-Im(Z)/Ohm	|Z|/Ohm	Phase(Z)/deg	time/s	<Ewe>/V	<I>/mA	Cs/µF	Cp/µF	cycle number	I Range	|Ewe|/V	|I|/A	Ns	(Q-Qo)/mA.h	<Ece>/V	|Ece|/V	Phase(Zce)/deg	|Zce|/Ohm	Re(Zce)/Ohm	-Im(Zce)/Ohm	Phase(Zwe-ce)/deg	|Zwe-ce|/Ohm	Re(Zwe-ce)/Ohm	-Im(Zwe-ce)/Ohm	Re(Y)/Ohm-1	Im(Y)/Ohm-1	|Y|/Ohm-1	Phase(Y)/deg	Re(C)/nF	Im(C)/nF	|C|/nF	Phase(C)/deg	Re(M)	Im(M)	|M|	Phase(M)/deg	Re(Permittivity)	Im(Permittivity)	|Permittivity|	Phase(Permittivity)/deg	Re(Resistivity)/Ohm.cm	Im(Resistivity)/Ohm.cm	|Resistivity|/Ohm.cm	Phase(Resistivity)/deg	Re(Conductivity)/mS/cm	Im(Conductivity)/mS/cm	|Conductivity|/mS/cm	Phase(Conductivity)/deg	Tan(Delta)	Loss Angle(Delta)/deg	dq/mA.h	Pwe/W	Pce/W	Pwe-ce/W	<Ewe-Ece>/V	Rwe/Ohm	Rce/Ohm	Rwe-ce/Ohm		Ewe-Ece/V
1.00002e+06	2.28767	2.60568	3.46742	-48.7183	2.23452	3.87773	-0.0051098	0.0610789	0.0344922	1	10	0.000197333	5.69107e-05	0	-1.53949e-05	2.58056e-05	0.000196426	-61.7825	3.45148	1.63193	3.0413	-55.2353	6.87398	3.9196	5.64698	0.190275	0.216725	0.288399	48.7183	34.4922	30.2826	45.8993	-41.2817	0.0000000E+000	0.0000000E+000	0.0000000E+000	41.2817	0.0000000E+000	0.0000000E+000	0.0000000E+000	-41.2817	0.0000000E+000	0.0000000E+000	0.0000000E+000	-48.7183	0.0000000E+000	0.0000000E+000	0.0000000E+000	48.7183	0.877956	41.2817	-1.53949e-05	-1.98144e-05	-1.31861e-10	-1.98143e-05	3.8777	758880	5.05022	758875
251206	0.655407	0.139496	0.670088	-12.0154	4.94355	3.87754	0.0483436	4.54181	0.196828	1	9	0.0014924	0.00222717	0	1.78602e-05	-0.000184273	7.49065e-05	64.6798	0.033633	0.014384	-0.0304019	-9.25095	0.678618	0.669791	0.109094	1.45965	0.310669	1.49234	12.0154	196.828	924.778	945.492	-77.9846	0.0000000E+000	0.0000000E+000	0.0000000E+000	77.9846	0.0000000E+000	0.0000000E+000	0.0000000E+000	-77.9846	0.0000000E+000	0.0000000E+000	0.0000000E+000	-12.0154	0.0000000E+000	0.0000000E+000	0.0000000E+000	12.0154	4.6984	77.9846	7.29108e-06	0.000187454	-8.90841e-09	0.000187463	3.87772	80207.9	3.81173	80211.7
63093.8	0.927983	0.431257	1.0233	-24.9255	7.12156	3.87743	0.0360512	5.84922	1.03888	1	9	0.00530975	0.00518887	0	2.61006e-05	-5.05865e-05	3.81522e-05	73.9314	0.00735271	0.00203514	-0.00706544	-24.5182	1.02219	0.930018	0.424191	0.886212	0.411845	0.977235	24.9255	1038.88	2235.48	2465.09	-65.0745	0.0000000E+000	0.0000000E+000	0.0000000E+000	65.0745	0.0000000E+000	0.0000000E+000	0.0000000E+000	-65.0745	0.0000000E+000	0.0000000E+000	0.0000000E+000	-24.9255	0.0000000E+000	0.0000000E+000	0.0000000E+000	24.9255	2.15181	65.0745	-1.76654e-07	0.000139786	-1.82371e-09	0.000139788	3.87748	107553	1.40319	107555
15847.7	1.3958	0.738737	1.57924	-27.8904	9.42152	3.87739	0.0316557	13.5945	2.97475	1	9	0.00517675	0.00327801	0	5.35867e-05	-1.23905e-05	7.69475e-06	70.1799	0.00234738	0.000795923	-0.00220833	-27.806	1.57891	1.39659	0.736529	0.559666	0.296208	0.633218	27.8904	2974.75	5620.61	6359.27	-62.1096	0.0000000E+000	0.0000000E+000	0.0000000E+000	62.1096	0.0000000E+000	0.0000000E+000	0.0000000E+000	-62.1096	0.0000000E+000	0.0000000E+000	0.0000000E+000	-27.8904	0.0000000E+000	0.0000000E+000	0.0000000E+000	27.8904	1.88944	62.1096	5.24894e-06	0.000122741	-3.92228e-10	0.000122742	3.8774	122486	0.391414	122487
3983.6	2.15618	1.21726	2.47605	-29.4466	11.394	3.87736	0.00975264	32.8217	7.93245	1	9	0.00536234	0.00216568	0	6.47932e-05	-8.87826e-05	5.98606e-06	40.6514	0.00276405	0.00209705	-0.00180066	-29.3865	2.477	2.15828	1.21546	0.351695	0.198547	0.403869	29.4466	7932.45	14051.1	16135.6	-60.5534	0.0000000E+000	0.0000000E+000	0.0000000E+000	60.5534	0.0000000E+000	0.0000000E+000	0.0000000E+000	-60.5534	0.0000000E+000	0.0000000E+000	0.0000000E+000	-29.4466	0.0000000E+000	0.0000000E+000	0.0000000E+000	29.4466	1.77134	60.5534	7.88635e-07	3.78145e-05	-8.65865e-10	3.78154e-05	3.87745	397570	9.10344	397579
1000.32	3.39088	1.97326	3.92324	-30.1964	14.2678	3.87732	-0.039178	80.6301	20.3974	1	10	0.00502959	0.001282	0	5.64365e-05	-0.000317959	7.69138e-06	62.6722	0.00599953	0.00275426	-0.00532995	-30.1089	3.92295	3.39364	1.96793	0.220304	0.128202	0.254891	30.1964	20397.4	35051.2	40554.2	-59.8036	0.0000000E+000	0.0000000E+000	0.0000000E+000	59.8036	0.0000000E+000	0.0000000E+000	0.0000000E+000	-59.8036	0.0000000E+000	0.0000000E+000	0.0000000E+000	-30.1964	0.0000000E+000	0.0000000E+000	0.0000000E+000	30.1964	1.71842	59.8036	-3.91331e-06	-0.000151906	1.2457e-08	-0.000151918	3.87764	98966.9	8.11576	98975
251.044	5.89878	2.79118	6.52582	-25.3226	16.9681	3.87733	-0.0377097	227.134	41.5516	1	10	0.00484103	0.000741827	0	2.74075e-05	-6.96846e-05	1.05776e-05	-45.4057	0.0142589	0.0100109	0.0101537	-25.3655	6.53921	5.90879	2.80134	0.138513	0.0655418	0.153237	25.3226	41551.6	87813.6	97148.2	-64.6774	0.0000000E+000	0.0000000E+000	0.0000000E+000	64.6774	0.0000000E+000	0.0000000E+000	0.0000000E+000	-64.6774	0.0000000E+000	0.0000000E+000	0.0000000E+000	-25.3226	0.0000000E+000	0.0000000E+000	0.0000000E+000	25.3226	2.11336	64.6774	-4.51845e-06	-0.000146213	2.62779e-09	-0.000146216	3.8774	102820	1.84792	102822
63.0823	8.50361	1.79659	8.69132	-11.9297	19.6869	3.87734	-0.0361334	1404.31	60.0053	1	10	0.0048051	0.000552862	0	1.03236e-06	-6.96846e-05	8.10033e-06	-74.8228	0.0146516	0.00383588	0.0141406	-12.0156	8.69801	8.50744	1.81073	0.112572	0.0237836	0.115057	11.9297	60005.3	284017	290286	-78.0703	0.0000000E+000	0.0000000E+000	0.0000000E+000	78.0703	0.0000000E+000	0.0000000E+000	0.0000000E+000	-78.0703	0.0000000E+000	0.0000000E+000	0.0000000E+000	-11.9297	0.0000000E+000	0.0000000E+000	0.0000000E+000	11.9297	4.73319	78.0703	-4.8443e-06	-0.000140101	2.51794e-09	-0.000140104	3.8774	107306	1.92854	107308
15.8576	9.34996	0.758592	9.38068	-4.63843	22.345	3.87733	-0.0384811	13230.5	86.5213	1	10	0.00481883	0.000513698	0	-2.65316e-05	0.000197688	3.5348e-06	71.4435	0.00688109	0.00218983	-0.00652334	-4.59764	9.38234	9.35215	0.752069	0.106253	0.00862065	0.106602	4.63843	86521.4	1.06641e+06	1.06991e+06	-85.3616	0.0000000E+000	0.0000000E+000	0.0000000E+000	85.3616	0.0000000E+000	0.0000000E+000	0.0000000E+000	-85.3616	0.0000000E+000	0.0000000E+000	0.0000000E+000	-4.63843	0.0000000E+000	0.0000000E+000	0.0000000E+000	4.63843	12.3254	85.3616	-4.76161e-06	-0.000149204	-7.60725e-09	-0.000149196	3.87713	100759	5.13727	100754
3.97785	9.64744	0.468665	9.65882	-2.78119	25.5034	3.87735	-0.0339779	85370.8	200.995	1	11	0.00481638	0.000498651	0	-5.52872e-05	6.70757e-06	5.93557e-06	121.751	0.0119033	-0.0062638	-0.0101219	-2.72299	9.65208	9.64118	0.458543	0.10341	0.00502359	0.103532	2.78119	200995	4.13748e+06	4.14236e+06	-87.2188	0.0000000E+000	0.0000000E+000	0.0000000E+000	87.2188	0.0000000E+000	0.0000000E+000	0.0000000E+000	-87.2188	0.0000000E+000	0.0000000E+000	0.0000000E+000	-2.78119	0.0000000E+000	0.0000000E+000	0.0000000E+000	2.78119	20.585	87.2188	-7.01409e-06	-0.000131744	-2.27909e-10	-0.000131744	3.87734	114114	0.19741	114114
1.00469	10.2367	0.641381	10.2568	-3.58518	240.317	3.87734	-0.0283797	246985	965.782	1	11	0.00500299	0.000487773	0	-0.00350689	6.40017e-05	6.88443e-07	-3.27621	0.0014114	0.00140909	8.06609e-05	-3.58513	10.2582	10.2381	0.641462	0.0973055	0.00609667	0.0974964	3.58518	965782	1.54143e+07	1.54445e+07	-86.4148	0.0000000E+000	0.0000000E+000	0.0000000E+000	86.4148	0.0000000E+000	0.0000000E+000	0.0000000E+000	-86.4148	0.0000000E+000	0.0000000E+000	0.0000000E+000	-3.58518	0.0000000E+000	0.0000000E+000	0.0000000E+000	3.58518	15.9604	86.4148	-0.00341227	-0.000110038	-1.81635e-09	-0.000110036	3.87728	136624	2.2552	136622
0.251173	10.8362	1.32593	10.9171	-6.97609	240.318	3.87734	-0.0283797	477887	7049.47	1	11	0.00502871	0.000460629	0	-0.00350689	6.40017e-05	7.66541e-07	-13.7355	0.00166412	0.00161653	0.000395128	-6.97712	10.9187	10.8379	1.32633	0.0909216	0.0111253	0.0915998	6.97609	7.04947e+06	5.76121e+07	5.80418e+07	-83.0239	0.0000000E+000	0.0000000E+000	0.0000000E+000	83.0239	0.0000000E+000	0.0000000E+000	0.0000000E+000	-83.0239	0.0000000E+000	0.0000000E+000	0.0000000E+000	-6.97609	0.0000000E+000	0.0000000E+000	0.0000000E+000	6.97609	8.17254	83.0239	0.000000000000000E+000	-0.000110038	-1.81635e-09	-0.000110036	3.87728	136624	2.2552	136622
0.0602816	12.1597	2.49672	12.4133	-11.6032	240.319	3.87734	-0.0283797	1.05746e+06	42778.7	1	11	0.00502165	0.000404537	0	-0.00350689	6.40017e-05	1.01218e-06	-29.1391	0.00250207	0.00218541	0.00121834	-11.6066	12.4157	12.1618	2.49794	0.0789123	0.0162029	0.0805585	11.6032	4.27787e+07	2.08343e+08	2.1269e+08	-78.3968	0.0000000E+000	0.0000000E+000	0.0000000E+000	78.3968	0.0000000E+000	0.0000000E+000	0.0000000E+000	-78.3968	0.0000000E+000	0.0000000E+000	0.0000000E+000	-11.6032	0.0000000E+000	0.0000000E+000	0.0000000E+000	11.6032	4.87025	78.3968	0.000000000000000E+000	-0.000110038	-1.81635e-09	-0.000110036	3.87728	136624	2.2552	136622
0.00796479	17.0875	4.74187	17.7332	-15.5097	20329.2	3.87734	0.000228728	4.21402e+06	301316	1	11	0.00501588	0.000282853	0	-0.0332805	-0.000165175	3.99183e-07	-162.629	0.00141128	-0.00134691	0.000421348	-15.5121	17.732	17.0861	4.74229	0.0543379	0.0150791	0.0563914	15.5097	3.01316e+08	1.0858e+09	1.12683e+09	-74.4903	0.0000000E+000	0.0000000E+000	0.0000000E+000	74.4903	0.0000000E+000	0.0000000E+000	0.0000000E+000	-74.4903	0.0000000E+000	0.0000000E+000	0.0000000E+000	-15.5097	0.0000000E+000	0.0000000E+000	0.0000000E+000	15.5097	3.60352	74.4903	-0.0297736	8.86856e-07	-3.77801e-11	8.86893e-07	3.8775	1.69517e+07	722.145	1.69525e+07
0.0019912	20.3472	7.93286	21.8389	-21.2995	20329.2	3.87734	0.000228728	1.00757e+07	1.32945e+06	1	11	0.00503069	0.000230354	0	-0.0332805	-0.000165175	3.92348e-07	58.3578	0.00170324	0.000893542	-0.00145003	-21.2951	21.8392	20.3481	7.93141	0.0426621	0.0166329	0.0457898	21.2995	1.32945e+09	3.40995e+09	3.65995e+09	-68.7005	0.0000000E+000	0.0000000E+000	0.0000000E+000	68.7005	0.0000000E+000	0.0000000E+000	0.0000000E+000	-68.7005	0.0000000E+000	0.0000000E+000	0.0000000E+000	-21.2995	0.0000000E+000	0.0000000E+000	0.0000000E+000	21.2995	2.56493	68.7005	0.000000000000000E+000	8.86856e-07	-3.77801e-11	8.86893e-07	3.8775	1.69517e+07	722.145	1.69525e+07
0.000497799	22.1676	20.9593	30.5073	-43.3951	20329.2	3.87734	0.000228728	1.52542e+07	7.20004e+06	1	11	0.00503039	0.000164891	0	-0.0332805	-0.000165175	5.60644e-07	94.5032	0.00340008	-0.000266954	-0.00338958	-43.3908	30.5048	22.1673	20.9559	0.0238184	0.02252	0.0327791	43.3951	7.20005e+09	7.61514e+09	1.048e+10	-46.6049	0.0000000E+000	0.0000000E+000	0.0000000E+000	46.6049	0.0000000E+000	0.0000000E+000	0.0000000E+000	-46.6049	0.0000000E+000	0.0000000E+000	0.0000000E+000	-43.3951	0.0000000E+000	0.0000000E+000	0.0000000E+000	43.3951	1.05765	46.6049	0.000000000000000E+000	8.86856e-07	-3.77801e-11	8.86893e-07	3.8775	1.69517e+07	722.145	1.69525e+07
9.95598e-05	22.1017	137.384	139.15	-80.8608	20329.2	3.87734	0.000228728	1.16359e+07	1.13424e+07	1	11	0.00503655	3.61951e-05	0	-0.0332805	-0.000165175	3.91787e-06	127.707	0.108243	-0.0662034	-0.0856371	-80.8821	139.055	22.0355	137.298	0.00114146	0.00709525	0.00718648	80.8608	1.13424e+10	1.82472e+09	1.14882e+10	-9.13921	0.0000000E+000	0.0000000E+000	0.0000000E+000	9.13921	0.0000000E+000	0.0000000E+000	0.0000000E+000	-9.13921	0.0000000E+000	0.0000000E+000	0.0000000E+000	-80.8608	0.0000000E+000	0.0000000E+000	0.0000000E+000	80.8608	0.160876	9.13922	0.000000000000000E+000	8.86856e-07	-3.77801e-11	8.86893e-07	3.8775	1.69517e+07	722.145	1.69525e+07