File: txt/19187_R297_UC94_SOC50_C05.mpt
EC-Lab ASCII FILE
Nb header lines : 66

Potentio Electrochemical Impedance Spectroscopy

Run on channel : 5 (SN 65912)
Grouped channel(s) : 5, 6, 7, 8
User :
CE vs. WE compliance from -10 V to 10 V
Electrode connection : standard
Potential control : Ewe
Ewe ctrl range : min = -10.00 V, max = 10.00 V
Safety Limits :
	Do not start on E overload
Acquisition started on : 11/11/2025 16:20:58.367
Loaded Setting File :  C:\Users\Celltest\OneDrive - store-dot.com\Documents\EC-Lab\Data\@Biologic Test Protocols\cathode half cell EIS SOC50.mps
Saved on :
	File : 19187_R297_UC94_SOC50_C05.mpr
	Directory : C:\Users\Celltest\OneDrive - store-dot.com\Documents\EC-Lab\Data\Michael\
	Host : 169.254.61.224
Device : VMP-3e (SN .003165)
Address : USB
EC-LAB for windows v11.62 (software)
Internet server v27.00 (firmware)
Command interpretor v12.03 (firmware)
Electrode material :
Initial state :
Electrolyte :
Comments :
Electrode surface area : 0.001 cm²
Characteristic mass : 0.001 g
Equivalent Weight : 0.000 g/eq.
Density : 0.000 g/cm3
Volume (V) : 0.001 cm³
Record Ece
Cycle Definition : Charge/Discharge alternance
Mode                Multi sine
E (V)               0.0000
vs.                 Eoc
tE (h:m:s)          0:00:0.0000
record              0
dI                  0.000
unit dI             mA
dt (s)              0.000
fi                  1.000
unit fi             MHz
ff                  0.100
unit ff             mHz
Nd                  10
Points              per decade
spacing             Logarithmic
Va (mV)             5.0
pw                  0.10
Na                  2
corr                0
E range min (V)     -10.000
E range max (V)     10.000
I Range             Auto
Bandwidth           5
nc cycles           0
goto Ns'            0
nr cycles           0
inc. cycle          0

freq/Hz	Re(Z)/Ohm	-Im(Z)/Ohm	|Z|/Ohm	Phase(Z)/deg	time/s	<Ewe>/V	<I>/mA	Cs/µF	Cp/µF	cycle number	I Range	|Ewe|/V	|I|/A	Ns	(Q-Qo)/mA.h	<Ece>/V	|Ece|/V	Phase(Zce)/deg	|Zce|/Ohm	Re(Zce)/Ohm	-Im(Zce)/Ohm	Phase(Zwe-ce)/deg	|Zwe-ce|/Ohm	Re(Zwe-ce)/Ohm	-Im(Zwe-ce)/Ohm	Re(Y)/Ohm-1	Im(Y)/Ohm-1	|Y|/Ohm-1	Phase(Y)/deg	Re(C)/nF	Im(C)/nF	|C|/nF	Phase(C)/deg	Re(M)	Im(M)	|M|	Phase(M)/deg	Re(Permittivity)	Im(Permittivity)	|Permittivity|	Phase(Permittivity)/deg	Re(Resistivity)/Ohm.cm	Im(Resistivity)/Ohm.cm	|Resistivity|/Ohm.cm	Phase(Resistivity)/deg	Re(Conductivity)/mS/cm	Im(Conductivity)/mS/cm	|Conductivity|/mS/cm	Phase(Conductivity)/deg	Tan(Delta)	Loss Angle(Delta)/deg	dq/mA.h	Pwe/W	Pce/W	Pwe-ce/W	<Ewe-Ece>/V	Rwe/Ohm	Rce/Ohm	Rwe-ce/Ohm		Ewe-Ece/V
1.00002e+06	0.961846	-0.175076	0.97765	10.3161	2.69452	3.88212	0.074607	-0.909047	-0.0291522	1	9	0.000216172	0.000221114	0	2.38754e-05	0.000237322	0.000182726	-1.0247	0.826389	0.826257	0.0147787	5.12266	1.79527	1.7881	-0.160297	1.00633	-0.183172	1.02286	-10.3161	-29.1522	160.159	162.79	-100.316	0.0000000E+000	0.0000000E+000	0.0000000E+000	100.316	0.0000000E+000	0.0000000E+000	0.0000000E+000	-100.316	0.0000000E+000	0.0000000E+000	0.0000000E+000	10.3161	0.0000000E+000	0.0000000E+000	0.0000000E+000	-10.3161	5.49389	79.6839	2.38754e-05	0.000289633	1.77058e-08	0.000289615	3.88188	52034.3	3.18096	52031.1
251206	0.695077	0.190458	0.720698	-15.3235	4.99656	3.88051	-0.0429963	3.32653	0.232317	1	9	0.00197395	0.00273895	0	9.85929e-06	-0.000220868	6.32399e-05	112.28	0.0230891	-0.00875373	-0.0213654	-13.8406	0.706846	0.686323	0.169092	1.33822	0.366684	1.38754	15.3235	232.317	847.843	879.096	-74.6765	0.0000000E+000	0.0000000E+000	0.0000000E+000	74.6765	0.0000000E+000	0.0000000E+000	0.0000000E+000	-74.6765	0.0000000E+000	0.0000000E+000	0.0000000E+000	-15.3235	0.0000000E+000	0.0000000E+000	0.0000000E+000	15.3235	3.64951	74.6765	-6.47726e-06	-0.000166848	9.49648e-09	-0.000166857	3.88073	90252.3	5.1369	90257.5
63093.8	0.998633	0.464551	1.1014	-24.9472	7.29454	3.88025	-0.0316753	5.43	0.966004	1	9	0.00531022	0.00482135	0	-4.89233e-05	-6.81378e-05	2.21897e-05	94.3568	0.00460238	-0.000349628	-0.00458908	-24.738	1.09915	0.998283	0.459962	0.823224	0.382953	0.907938	24.9472	966.004	2076.59	2290.28	-65.0528	0.0000000E+000	0.0000000E+000	0.0000000E+000	65.0528	0.0000000E+000	0.0000000E+000	0.0000000E+000	-65.0528	0.0000000E+000	0.0000000E+000	0.0000000E+000	-24.9472	0.0000000E+000	0.0000000E+000	0.0000000E+000	24.9472	2.14967	65.0528	5.85136e-06	-0.000122908	2.15829e-09	-0.00012291	3.88032	122501	2.15113	122503
15847.7	1.49964	0.832531	1.71523	-29.0371	9.59255	3.88023	-0.0294782	12.063	2.84191	1	9	0.00498236	0.00290478	0	-8.68454e-05	0.000160957	5.69725e-06	-57.5895	0.00196134	0.00105124	0.00165582	-29.0684	1.71695	1.50069	0.834187	0.509731	0.28298	0.583012	29.0371	2841.91	5119.12	5855.07	-60.9629	0.0000000E+000	0.0000000E+000	0.0000000E+000	60.9629	0.0000000E+000	0.0000000E+000	0.0000000E+000	-60.9629	0.0000000E+000	0.0000000E+000	0.0000000E+000	-29.0371	0.0000000E+000	0.0000000E+000	0.0000000E+000	29.0371	1.8013	60.9629	-3.07775e-06	-0.000114382	-4.74472e-09	-0.000114378	3.88007	131631	5.46019	131625
3983.6	2.35831	1.42144	2.75356	-31.079	11.5671	3.88009	-0.125855	28.107	7.49002	1	9	0.0049222	0.00178758	0	-0.000106123	0.000141866	2.14426e-06	-14.596	0.00119954	0.00116082	0.000302286	-31.0719	2.75472	2.35947	1.42174	0.311036	0.187473	0.363166	31.079	7490.02	12426.7	14509.4	-58.921	0.0000000E+000	0.0000000E+000	0.0000000E+000	58.921	0.0000000E+000	0.0000000E+000	0.0000000E+000	-58.921	0.0000000E+000	0.0000000E+000	0.0000000E+000	-31.079	0.0000000E+000	0.0000000E+000	0.0000000E+000	31.079	1.6591	58.921	-8.27869e-06	-0.000488328	-1.78545e-08	-0.00048831	3.87995	30829.9	1.12722	30828.7
1000.32	3.8488	2.45978	4.56769	-32.5828	14.4408	3.88014	-0.0335277	64.6822	18.7579	1	10	0.00486003	0.001064	0	-0.000116437	-6.81378e-05	1.00307e-05	-79.4414	0.00942735	0.00172748	0.00926773	-32.6689	4.57414	3.85053	2.46905	0.184473	0.117897	0.218929	32.5828	18757.9	29350.4	34832.5	-57.4172	0.0000000E+000	0.0000000E+000	0.0000000E+000	57.4172	0.0000000E+000	0.0000000E+000	0.0000000E+000	-57.4172	0.0000000E+000	0.0000000E+000	0.0000000E+000	-32.5828	0.0000000E+000	0.0000000E+000	0.0000000E+000	32.5828	1.56469	57.4172	-3.29082e-06	-0.000130092	2.28451e-09	-0.000130095	3.88021	115729	2.03228	115731
251.044	7.05024	3.53223	7.88559	-26.6113	17.142	3.88014	-0.0332485	179.482	36.0123	1	10	0.00476355	0.000604083	0	-0.000141395	0.000122774	4.45785e-06	-53.92	0.00737955	0.00434592	0.00596411	-26.6359	7.89215	7.05458	3.5382	0.11338	0.0568043	0.126814	26.6113	36012.3	71879.5	80396.2	-63.3887	0.0000000E+000	0.0000000E+000	0.0000000E+000	63.3887	0.0000000E+000	0.0000000E+000	0.0000000E+000	-63.3887	0.0000000E+000	0.0000000E+000	0.0000000E+000	-26.6113	0.0000000E+000	0.0000000E+000	0.0000000E+000	26.6113	1.99597	63.3887	-3.80778e-06	-0.000129009	-4.08206e-09	-0.000129005	3.88002	116701	3.69263	116698
63.0823	10.3074	2.26381	10.5531	-12.3872	19.862	3.88017	-0.0279575	1114.48	51.2855	1	10	0.00474495	0.000449627	0	-0.000163492	-0.000201776	1.6424e-05	20.3424	0.0365282	0.03425	-0.0126983	-12.2802	10.5838	10.3417	2.25111	0.0925532	0.0203274	0.0947591	12.3872	51285.5	233509	239075	-77.6128	0.0000000E+000	0.0000000E+000	0.0000000E+000	77.6128	0.0000000E+000	0.0000000E+000	0.0000000E+000	-77.6128	0.0000000E+000	0.0000000E+000	0.0000000E+000	-12.3872	0.0000000E+000	0.0000000E+000	0.0000000E+000	12.3872	4.55313	77.6128	-3.51211e-06	-0.00010848	5.64117e-09	-0.000108486	3.88037	138788	7.21725	138795
15.8576	11.3338	0.937635	11.3725	-4.72927	22.5201	3.88017	-0.0344884	10704.1	72.7623	1	10	0.00474954	0.000417634	0	-0.00018247	2.73182e-05	1.61174e-05	37.1667	0.0385921	0.0307533	-0.0233149	-4.59976	11.4012	11.3645	0.91432	0.0876322	0.00724975	0.0879315	4.72927	72762.3	879522	882527	-85.2707	0.0000000E+000	0.0000000E+000	0.0000000E+000	85.2707	0.0000000E+000	0.0000000E+000	0.0000000E+000	-85.2707	0.0000000E+000	0.0000000E+000	0.0000000E+000	-4.72927	0.0000000E+000	0.0000000E+000	0.0000000E+000	4.72927	12.0876	85.2707	-2.28576e-06	-0.000133821	-9.42162e-10	-0.00013382	3.88014	112506	0.7921	112506
3.97785	11.695	0.498603	11.7057	-2.44126	25.7303	3.88019	-0.0162859	80244.7	145.591	1	11	0.00474599	0.000405444	0	-0.000199525	-6.81378e-05	1.99011e-06	-134.51	0.00490846	-0.00344098	0.00350038	-2.4591	11.7024	11.6916	0.502104	0.0853513	0.00363885	0.0854288	2.44126	145591	3.41493e+06	3.41803e+06	-87.5587	0.0000000E+000	0.0000000E+000	0.0000000E+000	87.5587	0.0000000E+000	0.0000000E+000	0.0000000E+000	-87.5587	0.0000000E+000	0.0000000E+000	0.0000000E+000	-2.44126	0.0000000E+000	0.0000000E+000	0.0000000E+000	2.44126	23.4556	87.5587	1.0399e-06	-6.31923e-05	1.10968e-09	-6.31934e-05	3.88026	238255	4.18387	238260
1.00469	12.4999	0.659504	12.5173	-3.02016	240.542	3.88017	-0.012711	240198	666.78	1	11	0.00507521	0.000405456	0	-0.00245936	-0.000316324	5.76214e-07	-7.11351	0.00142115	0.00141021	0.000175989	-3.02063	12.5187	12.5013	0.65968	0.0797785	0.00420916	0.0798894	3.02016	666780	1.26378e+07	1.26554e+07	-86.9798	0.0000000E+000	0.0000000E+000	0.0000000E+000	86.9798	0.0000000E+000	0.0000000E+000	0.0000000E+000	-86.9798	0.0000000E+000	0.0000000E+000	0.0000000E+000	-3.02016	0.0000000E+000	0.0000000E+000	0.0000000E+000	3.02016	18.9535	86.9798	-0.00223995	-4.93209e-05	4.0208e-09	-4.9325e-05	3.88049	305260	24.8858	305285
0.251173	13.0958	1.3294	13.1631	-5.79644	240.546	3.88017	-0.012711	476641	4861.69	1	11	0.00510405	0.000387755	0	-0.00245936	-0.000316324	5.49827e-07	-7.87586	0.00141797	0.0014046	0.000194301	-5.79667	13.1645	13.0972	1.32959	0.0755817	0.00767257	0.0759702	5.79644	4.86169e+06	4.7892e+07	4.81381e+07	-84.2036	0.0000000E+000	0.0000000E+000	0.0000000E+000	84.2036	0.0000000E+000	0.0000000E+000	0.0000000E+000	-84.2036	0.0000000E+000	0.0000000E+000	0.0000000E+000	-5.79644	0.0000000E+000	0.0000000E+000	0.0000000E+000	5.79644	9.8509	84.2036	0.000000000000000E+000	-4.93209e-05	4.0208e-09	-4.9325e-05	3.88049	305260	24.8858	305285
0.0602816	14.5507	2.64036	14.7883	-10.285	240.55	3.88017	-0.012711	999934	31875.8	1	11	0.00509333	0.000344415	0	-0.00245936	-0.000316324	8.50299e-07	-2.07336	0.00246882	0.0024672	8.93194e-05	-10.2836	14.7908	14.5532	2.64045	0.0665344	0.0120733	0.0676209	10.285	3.18758e+07	1.75663e+08	1.78532e+08	-79.7151	0.0000000E+000	0.0000000E+000	0.0000000E+000	79.7151	0.0000000E+000	0.0000000E+000	0.0000000E+000	-79.7151	0.0000000E+000	0.0000000E+000	0.0000000E+000	-10.285	0.0000000E+000	0.0000000E+000	0.0000000E+000	10.285	5.51087	79.7151	0.000000000000000E+000	-4.93209e-05	4.0208e-09	-4.9325e-05	3.88049	305260	24.8858	305285
0.00796479	19.3529	4.43942	19.8555	-12.9198	20329.4	3.88018	-0.00133721	4.50111e+06	225014	1	11	0.00508788	0.000256245	0	-0.035904	4.64095e-05	1.38813e-07	96.271	0.000541719	-5.91731e-05	-0.000538477	-12.9183	19.8554	19.3528	4.43888	0.0490888	0.0112606	0.0503638	12.9198	2.25014e+08	9.80908e+08	1.00639e+09	-77.0802	0.0000000E+000	0.0000000E+000	0.0000000E+000	77.0802	0.0000000E+000	0.0000000E+000	0.0000000E+000	-77.0802	0.0000000E+000	0.0000000E+000	0.0000000E+000	-12.9198	0.0000000E+000	0.0000000E+000	0.0000000E+000	12.9198	4.35932	77.0802	-0.0334447	-5.18861e-06	-6.2059e-11	-5.18854e-06	3.88014	2.90171e+06	34.7063	2.90167e+06
0.0019912	22.1583	7.87157	23.5149	-19.5572	20329.5	3.88018	-0.00133721	1.01542e+07	1.13784e+06	1	11	0.00510123	0.000216936	0	-0.035904	4.64095e-05	6.11734e-07	-61.1175	0.00281988	0.00136204	0.00246912	-19.5618	23.517	22.1596	7.87403	0.0400728	0.0142356	0.0425263	19.5572	1.13784e+09	3.20299e+09	3.39909e+09	-70.4428	0.0000000E+000	0.0000000E+000	0.0000000E+000	70.4428	0.0000000E+000	0.0000000E+000	0.0000000E+000	-70.4428	0.0000000E+000	0.0000000E+000	0.0000000E+000	-19.5572	0.0000000E+000	0.0000000E+000	0.0000000E+000	19.5572	2.81497	70.4428	0.000000000000000E+000	-5.18861e-06	-6.2059e-11	-5.18854e-06	3.88014	2.90171e+06	34.7063	2.90167e+06
0.000497799	24.0649	21.8692	32.5174	-42.2633	20329.5	3.88018	-0.00133721	1.46195e+07	6.61253e+06	1	11	0.00510154	0.000156886	0	-0.035904	4.64095e-05	5.06569e-07	-134.871	0.00322889	-0.00227801	0.00228832	-42.269	32.5173	24.0626	21.8715	0.0227589	0.0206824	0.0307528	42.2633	6.61253e+09	7.27643e+09	9.83219e+09	-47.7367	0.0000000E+000	0.0000000E+000	0.0000000E+000	47.7367	0.0000000E+000	0.0000000E+000	0.0000000E+000	-47.7367	0.0000000E+000	0.0000000E+000	0.0000000E+000	-42.2633	0.0000000E+000	0.0000000E+000	0.0000000E+000	42.2633	1.1004	47.7367	0.000000000000000E+000	-5.18861e-06	-6.2059e-11	-5.18854e-06	3.88014	2.90171e+06	34.7063	2.90167e+06
0.00019912	21.5725	50.6607	55.0625	-66.9346	20329.5	3.88018	-0.00133721	1.57774e+07	1.33557e+07	1	11	0.0051022	9.2662e-05	0	-0.035904	4.64095e-05	1.60931e-06	-77.2356	0.0173675	0.0038372	0.0169383	-66.9378	55.0796	21.5763	50.6776	0.00711522	0.0167094	0.0181612	66.9346	1.33557e+10	5.68715e+09	1.45161e+10	-23.0654	0.0000000E+000	0.0000000E+000	0.0000000E+000	23.0654	0.0000000E+000	0.0000000E+000	0.0000000E+000	-23.0654	0.0000000E+000	0.0000000E+000	0.0000000E+000	-66.9346	0.0000000E+000	0.0000000E+000	0.0000000E+000	66.9346	0.425822	23.0654	0.000000000000000E+000	-5.18861e-06	-6.2059e-11	-5.18854e-06	3.88014	2.90171e+06	34.7063	2.90167e+06

9.95598e-05	26.3288	137.971	140.461	-79.1963	20329.5	3.88018	-0.00133721	1.15864e+07	1.11793e+07	1	11	0.00509945	3.63051e-05	0	-0.035904	4.64095e-05	1.34577e-06	-38.5077	0.0370685	0.029007	0.0230796	-79.1864	140.489	26.3578	137.994	0.0013345	0.00699322	0.00711941	79.1963	1.11793e+10	2.13332e+09	1.1381e+10	-10.8037	0.0000000E+000	0.0000000E+000	0.0000000E+000	10.8037	0.0000000E+000	0.0000000E+000	0.0000000E+000	-10.8037	0.0000000E+000	0.0000000E+000	0.0000000E+000	-79.1963	0.0000000E+000	0.0000000E+000	0.0000000E+000	79.1963	0.190828	10.8037	0.000000000000000E+000	-5.18861e-06	-6.2059e-11	-5.18854e-06	3.88014	2.90171e+06	34.7063	2.90167e+06