File: txt/19191_R297_UC94_SOC50_C08.mpt
EC-Lab ASCII FILE
Nb header lines : 65

Potentio Electrochemical Impedance Spectroscopy

Run on channel : 8 (SN 65398)
Grouped channel(s) : 5, 6, 7, 8
User :
CE vs. WE compliance from -10 V to 10 V
Electrode connection : standard
Potential control : Ewe
Ewe ctrl range : min = -10.00 V, max = 10.00 V
Safety Limits :
	Do not start on E overload
Acquisition started on : 11/11/2025 16:20:58.367
Loaded Setting File :  C:\Users\Celltest\OneDrive - store-dot.com\Documents\EC-Lab\Data\@Biologic Test Protocols\cathode half cell EIS SOC50.mps
Saved on :
	File : 19187_R297_UC94_SOC50_C08.mpr
	Directory : C:\Users\Celltest\OneDrive - store-dot.com\Documents\EC-Lab\Data\Michael\
	Host : 169.254.61.224
Device : VMP-3e (SN .003165)
Address : USB
EC-LAB for windows v11.62 (software)
Internet server v27.00 (firmware)
Command interpretor v12.03 (firmware)
Electrode material :
Initial state :
Electrolyte :
Comments :
Electrode surface area : 0.001 cm²
Characteristic mass : 0.001 g
Equivalent Weight : 0.000 g/eq.
Density : 0.000 g/cm3
Volume (V) : 0.001 cm³
Record Ece
Cycle Definition : Charge/Discharge alternance
Mode                Multi sine
E (V)               0.0000
vs.                 Eoc
tE (h:m:s)          0:00:0.0000
record              0
dI                  0.000
unit dI             mA
dt (s)              0.000
fi                  1.000
unit fi             MHz
ff                  0.100
unit ff             mHz
Nd                  10
Points              per decade
spacing             Logarithmic
Va (mV)             5.0
pw                  0.10
Na                  2
corr                0
E range min (V)     -10.000
E range max (V)     10.000
I Range             Auto
Bandwidth           5
nc cycles           0
goto Ns'            0
nr cycles           0
inc. cycle          0

freq/Hz	Re(Z)/Ohm	-Im(Z)/Ohm	|Z|/Ohm	Phase(Z)/deg	time/s	<Ewe>/V	<I>/mA	Cs/µF	Cp/µF	cycle number	I Range	|Ewe|/V	|I|/A	Ns	(Q-Qo)/mA.h	<Ece>/V	|Ece|/V	Phase(Zce)/deg	|Zce|/Ohm	Re(Zce)/Ohm	-Im(Zce)/Ohm	Phase(Zwe-ce)/deg	|Zwe-ce|/Ohm	Re(Zwe-ce)/Ohm	-Im(Zwe-ce)/Ohm	Re(Y)/Ohm-1	Im(Y)/Ohm-1	|Y|/Ohm-1	Phase(Y)/deg	Re(C)/nF	Im(C)/nF	|C|/nF	Phase(C)/deg	Re(M)	Im(M)	|M|	Phase(M)/deg	Re(Permittivity)	Im(Permittivity)	|Permittivity|	Phase(Permittivity)/deg	Re(Resistivity)/Ohm.cm	Im(Resistivity)/Ohm.cm	|Resistivity|/Ohm.cm	Phase(Resistivity)/deg	Re(Conductivity)/mS/cm	Im(Conductivity)/mS/cm	|Conductivity|/mS/cm	Phase(Conductivity)/deg	Tan(Delta)	Loss Angle(Delta)/deg	dq/mA.h	Pwe/W	Pce/W	Pwe-ce/W	<Ewe-Ece>/V	Rwe/Ohm	Rce/Ohm	Rwe-ce/Ohm		Ewe-Ece/V
1.00002e+06	1.05998	-0.282746	1.09704	14.9356	2.69356	3.881	-0.0603397	-0.562881	-0.0373903	1	9	0.000245267	0.00022357	0	-1.71198e-05	0.000420472	0.00020112	1.25335	0.899582	0.899367	-0.0196769	8.77427	1.98255	1.95935	-0.302422	0.880744	-0.234935	0.91154	-14.9356	-37.3903	140.172	145.073	-104.936	0.0000000E+000	0.0000000E+000	0.0000000E+000	104.936	0.0000000E+000	0.0000000E+000	0.0000000E+000	-104.936	0.0000000E+000	0.0000000E+000	0.0000000E+000	14.9356	0.0000000E+000	0.0000000E+000	0.0000000E+000	-14.9356	3.74889	75.0644	-1.71198e-05	-0.000234178	-2.53712e-08	-0.000234153	3.88058	64319.1	6.96842	64312.2
251206	0.787481	0.178524	0.807464	-12.7732	4.99253	3.88056	-0.0773782	3.54889	0.173476	1	9	0.00218758	0.0027092	0	-6.28513e-05	0.00015324	7.66528e-05	83.9033	0.0282935	0.00300496	-0.0281335	-10.7718	0.804665	0.790486	0.150391	1.2078	0.273811	1.23845	12.7732	173.476	765.216	784.633	-77.2268	0.0000000E+000	0.0000000E+000	0.0000000E+000	77.2268	0.0000000E+000	0.0000000E+000	0.0000000E+000	-77.2268	0.0000000E+000	0.0000000E+000	0.0000000E+000	-12.7732	0.0000000E+000	0.0000000E+000	0.0000000E+000	12.7732	4.41107	77.2268	-5.87022e-06	-0.000300271	-1.18574e-08	-0.000300259	3.8804	50150.5	1.9804	50148.5
63093.8	1.05239	0.439045	1.1403	-22.6453	7.29454	3.8805	-0.0402876	5.74545	0.85173	1	9	0.00528592	0.00463554	0	-5.6836e-05	0.00015324	4.14209e-05	85.6152	0.0089355	0.000683157	-0.00890935	-22.2179	1.13753	1.05308	0.430136	0.809352	0.337652	0.87696	22.6453	851.73	2041.6	2212.14	-67.3547	0.0000000E+000	0.0000000E+000	0.0000000E+000	67.3547	0.0000000E+000	0.0000000E+000	0.0000000E+000	-67.3547	0.0000000E+000	0.0000000E+000	0.0000000E+000	-22.6453	0.0000000E+000	0.0000000E+000	0.0000000E+000	22.6453	2.397	67.3547	-1.31561e-05	-0.000156336	-6.17364e-09	-0.00015633	3.88035	96320.2	3.80364	96316.4
15847.7	1.51968	0.775726	1.70621	-27.0422	9.59252	3.88049	-0.0463888	12.9463	2.67606	1	9	0.00498542	0.00292192	0	-6.13176e-05	9.59754e-05	5.31934e-06	-100.213	0.00182049	-0.000322783	0.00179165	-27.1007	1.70674	1.51935	0.777517	0.522016	0.266466	0.586093	27.0422	2676.06	5242.5	5886.01	-62.9578	0.0000000E+000	0.0000000E+000	0.0000000E+000	62.9578	0.0000000E+000	0.0000000E+000	0.0000000E+000	-62.9578	0.0000000E+000	0.0000000E+000	0.0000000E+000	-27.0422	0.0000000E+000	0.0000000E+000	0.0000000E+000	27.0422	1.95904	62.9578	-3.81671e-06	-0.000180011	-4.45218e-09	-0.000180007	3.88039	83651.4	2.06894	83649.4
3983.6	2.32213	1.32652	2.67431	-29.7372	11.567	3.88029	-0.129685	30.1183	7.41025	1	9	0.00491563	0.00183809	0	-9.16744e-05	7.68873e-05	9.2595e-06	61.5288	0.00503756	0.00240149	-0.00442831	-29.6293	2.67421	2.32453	1.32209	0.324685	0.185476	0.373928	29.7372	7410.25	12972	14939.4	-60.2628	0.0000000E+000	0.0000000E+000	0.0000000E+000	60.2628	0.0000000E+000	0.0000000E+000	0.0000000E+000	-60.2628	0.0000000E+000	0.0000000E+000	0.0000000E+000	-29.7372	0.0000000E+000	0.0000000E+000	0.0000000E+000	29.7372	1.75055	60.2628	-1.12331e-05	-0.000503214	-9.9711e-09	-0.000503204	3.88021	29921	0.592879	29920.4
1000.32	3.73056	2.30641	4.38595	-31.7264	14.4408	3.8804	-0.0467374	68.9833	19.0761	1	10	0.00485587	0.00110714	0	-0.00010921	-0.000171257	2.4969e-05	-19.4872	0.0225527	0.0212608	0.00752348	-31.6642	4.408	3.75182	2.31394	0.19393	0.119897	0.228001	31.7264	19076.1	30855.1	36275.8	-58.2736	0.0000000E+000	0.0000000E+000	0.0000000E+000	58.2736	0.0000000E+000	0.0000000E+000	0.0000000E+000	-58.2736	0.0000000E+000	0.0000000E+000	0.0000000E+000	-31.7264	0.0000000E+000	0.0000000E+000	0.0000000E+000	31.7264	1.61747	58.2736	-5.49042e-06	-0.00018136	8.00412e-09	-0.000181368	3.88057	83025.7	3.66425	83029.3
251.044	6.70793	3.25995	7.45812	-25.9191	17.141	3.8804	-0.0453275	194.473	37.1554	1	10	0.00474235	0.000635864	0	-0.000141627	5.3507e-07	7.74644e-06	-34.0352	0.0121825	0.0100956	0.00681859	-25.9322	7.47018	6.71802	3.26677	0.120595	0.0586074	0.134082	25.9191	37155.4	76453.8	85004.2	-64.0809	0.0000000E+000	0.0000000E+000	0.0000000E+000	64.0809	0.0000000E+000	0.0000000E+000	0.0000000E+000	-64.0809	0.0000000E+000	0.0000000E+000	0.0000000E+000	-25.9191	0.0000000E+000	0.0000000E+000	0.0000000E+000	25.9191	2.05768	64.0809	-5.97203e-06	-0.000175889	-2.42534e-11	-0.000175889	3.8804	85608.1	0.0118045	85608.1
63.0823	9.7294	2.07727	9.94868	-12.0519	19.8609	3.88041	-0.0421358	1214.56	52.9509	1	10	0.00474324	0.00047677	0	-0.00017467	-0.000171257	1.06531e-05	-49.6915	0.0223442	0.0144545	0.0170391	-12.1304	9.96639	9.74386	2.0943	0.0983003	0.0209875	0.100516	12.0519	52950.9	248009	253599	-77.9481	0.0000000E+000	0.0000000E+000	0.0000000E+000	77.9481	0.0000000E+000	0.0000000E+000	0.0000000E+000	-77.9481	0.0000000E+000	0.0000000E+000	0.0000000E+000	-12.0519	0.0000000E+000	0.0000000E+000	0.0000000E+000	12.0519	4.68375	77.9481	-4.68664e-06	-0.000163504	7.21607e-09	-0.000163511	3.88058	92092.9	4.06442	92097
15.8576	10.6392	0.815852	10.6704	-4.38509	22.5191	3.8804	-0.0495422	12301.9	71.9175	1	10	0.00473075	0.000443353	0	-0.000209784	-3.7641e-05	1.21769e-05	35.7318	0.0274655	0.0222954	-0.0160396	-4.29025	10.6914	10.6614	0.799813	0.093443	0.00716558	0.0937173	4.38509	71917.5	937843	940596	-85.6149	0.0000000E+000	0.0000000E+000	0.0000000E+000	85.6149	0.0000000E+000	0.0000000E+000	0.0000000E+000	-85.6149	0.0000000E+000	0.0000000E+000	0.0000000E+000	-4.38509	0.0000000E+000	0.0000000E+000	0.0000000E+000	4.38509	13.0405	85.6149	-7.2178e-06	-0.000192244	1.86482e-09	-0.000192245	3.88043	78325	0.759777	78325.8
3.97785	10.9554	0.498509	10.9667	-2.60537	25.7283	3.88046	-0.0245475	80259.8	165.841	1	11	0.00473675	0.00043192	0	-0.000238996	0.000172328	4.58214e-06	6.19139	0.0106088	0.0105469	-0.00114416	-2.5969	10.9772	10.9659	0.497365	0.0910907	0.00414495	0.0911849	2.60537	165840	3.64456e+06	3.64833e+06	-87.3946	0.0000000E+000	0.0000000E+000	0.0000000E+000	87.3946	0.0000000E+000	0.0000000E+000	0.0000000E+000	-87.3946	0.0000000E+000	0.0000000E+000	0.0000000E+000	-2.60537	0.0000000E+000	0.0000000E+000	0.0000000E+000	2.60537	21.9763	87.3946	-4.38767e-06	-9.52555e-05	-4.23021e-09	-9.52512e-05	3.88029	158080	7.02018	158073
1.00469	11.3917	0.630675	11.4091	-3.16881	240.54	3.88045	-0.0178361	251178	767.513	1	11	0.00519841	0.000455635	0	-0.00304567	7.68873e-05	9.83994e-07	-3.30163	0.00215961	0.00215602	0.000124377	-3.16884	11.4113	11.3939	0.630799	0.087515	0.00484506	0.087649	3.16881	767512	1.38634e+07	1.38846e+07	-86.8312	0.0000000E+000	0.0000000E+000	0.0000000E+000	86.8312	0.0000000E+000	0.0000000E+000	0.0000000E+000	-86.8312	0.0000000E+000	0.0000000E+000	0.0000000E+000	-3.16881	0.0000000E+000	0.0000000E+000	0.0000000E+000	3.16881	18.0627	86.8312	-0.00275979	-6.9212e-05	-1.37137e-09	-6.92106e-05	3.88037	217562	4.31077	217557
0.251173	11.9754	1.24709	12.0401	-5.94523	240.545	3.88045	-0.0178361	508100	5451.07	1	11	0.00522482	0.000433951	0	-0.00304567	7.68873e-05	1.14197e-06	-9.06317	0.00263156	0.00259871	0.000414533	-5.94591	12.0428	11.978	1.2475	0.0826089	0.00860271	0.0830556	5.94523	5.45107e+06	5.23448e+07	5.26278e+07	-84.0548	0.0000000E+000	0.0000000E+000	0.0000000E+000	84.0548	0.0000000E+000	0.0000000E+000	0.0000000E+000	-84.0548	0.0000000E+000	0.0000000E+000	0.0000000E+000	-5.94523	0.0000000E+000	0.0000000E+000	0.0000000E+000	5.94523	9.60266	84.0548	0.000000000000000E+000	-6.9212e-05	-1.37137e-09	-6.92106e-05	3.88037	217562	4.31077	217557
0.0602816	13.2256	2.42143	13.4455	-10.3751	240.55	3.88045	-0.0178361	1.09035e+06	35363.4	1	11	0.00521722	0.000388028	0	-0.00304567	7.68873e-05	7.4022e-07	-3.63482	0.00190764	0.00190381	0.000120939	-10.3742	13.4474	13.2275	2.42155	0.0731584	0.0133943	0.0743745	10.3751	3.53634e+07	1.93152e+08	1.96363e+08	-79.6249	0.0000000E+000	0.0000000E+000	0.0000000E+000	79.6249	0.0000000E+000	0.0000000E+000	0.0000000E+000	-79.6249	0.0000000E+000	0.0000000E+000	0.0000000E+000	-10.3751	0.0000000E+000	0.0000000E+000	0.0000000E+000	10.3751	5.46192	79.6249	0.000000000000000E+000	-6.9212e-05	-1.37137e-09	-6.92106e-05	3.88037	217562	4.31077	217557
0.00796479	17.3331	4.4504	17.8953	-14.4001	20329.5	3.8805	-0.000976533	4.49001e+06	277694	1	11	0.00521199	0.000291249	0	-0.0380766	0.00015324	3.34693e-07	-59.7139	0.00114916	0.000579545	0.000992325	-14.4027	17.8961	17.3337	4.45139	0.054125	0.013897	0.0558806	14.4001	2.77694e+08	1.08154e+09	1.11662e+09	-75.5999	0.0000000E+000	0.0000000E+000	0.0000000E+000	75.5999	0.0000000E+000	0.0000000E+000	0.0000000E+000	-75.5999	0.0000000E+000	0.0000000E+000	0.0000000E+000	-14.4001	0.0000000E+000	0.0000000E+000	0.0000000E+000	14.4001	3.89472	75.5999	-0.0350309	-3.78944e-06	-1.49643e-10	-3.78929e-06	3.88035	3.97376e+06	156.922	3.9736e+06
0.0019912	20.162	7.68389	21.5765	-20.8622	20329.5	3.8805	-0.000976533	1.04022e+07	1.31924e+06	1	11	0.00522693	0.00024225	0	-0.0380766	0.00015324	8.79958e-07	59.0907	0.00363243	0.00186591	-0.00311656	-20.8528	21.5772	20.1638	7.68077	0.0433081	0.0165051	0.0463467	20.8622	1.31924e+09	3.46159e+09	3.70446e+09	-69.1377	0.0000000E+000	0.0000000E+000	0.0000000E+000	69.1377	0.0000000E+000	0.0000000E+000	0.0000000E+000	-69.1377	0.0000000E+000	0.0000000E+000	0.0000000E+000	-20.8622	0.0000000E+000	0.0000000E+000	0.0000000E+000	20.8622	2.62393	69.1377	0.000000000000000E+000	-3.78944e-06	-1.49643e-10	-3.78929e-06	3.88035	3.97376e+06	156.922	3.9736e+06
0.000497799	21.4408	20.9461	29.9741	-44.3313	20329.5	3.8805	-0.000976533	1.52638e+07	7.45378e+06	1	11	0.00522858	0.000174437	0	-0.0380766	0.00015324	1.31153e-06	11.9152	0.00751867	0.00735668	-0.00155234	-44.3193	29.9783	21.4482	20.9445	0.0238643	0.0233137	0.0333622	44.3313	7.45378e+09	7.62983e+09	1.06665e+10	-45.6687	0.0000000E+000	0.0000000E+000	0.0000000E+000	45.6687	0.0000000E+000	0.0000000E+000	0.0000000E+000	-45.6687	0.0000000E+000	0.0000000E+000	0.0000000E+000	-44.3313	0.0000000E+000	0.0000000E+000	0.0000000E+000	44.3313	1.02362	45.6687	0.000000000000000E+000	-3.78944e-06	-1.49643e-10	-3.78929e-06	3.88035	3.97376e+06	156.922	3.9736e+06
9.95598e-05	19.8762	141.884	143.27	-82.0255	20329.5	3.8805	-0.000976533	1.12668e+07	1.105e+07	1	11	0.00523055	3.65084e-05	0	-0.0380766	0.00015324	3.77354e-06	-43.9333	0.103361	0.074435	0.0717138	-82	143.351	19.9507	141.956	0.000968336	0.00691235	0.00697985	82.0255	1.105e+10	1.54797e+09	1.11579e+10	-7.97454	0.0000000E+000	0.0000000E+000	0.0000000E+000	7.97454	0.0000000E+000	0.0000000E+000	0.0000000E+000	-7.97454	0.0000000E+000	0.0000000E+000	0.0000000E+000	-82.0255	0.0000000E+000	0.0000000E+000	0.0000000E+000	82.0255	0.140088	7.97455	0.000000000000000E+000	-3.78944e-06	-1.49643e-10	-3.78929e-06	3.88035	3.97376e+06	156.922	3.9736e+06