File: txt/19190_R297_UC94_SOC50_C07.mpt
EC-Lab ASCII FILE
Nb header lines : 65

Potentio Electrochemical Impedance Spectroscopy

Run on channel : 7 (SN 66126)
Grouped channel(s) : 5, 6, 7, 8
User :
CE vs. WE compliance from -10 V to 10 V
Electrode connection : standard
Potential control : Ewe
Ewe ctrl range : min = -10.00 V, max = 10.00 V
Safety Limits :
	Do not start on E overload
Acquisition started on : 11/11/2025 16:20:58.367
Loaded Setting File :  C:\Users\Celltest\OneDrive - store-dot.com\Documents\EC-Lab\Data\@Biologic Test Protocols\cathode half cell EIS SOC50.mps
Saved on :
	File : 19187_R297_UC94_SOC50_C07.mpr
	Directory : C:\Users\Celltest\OneDrive - store-dot.com\Documents\EC-Lab\Data\Michael\
	Host : 169.254.61.224
Device : VMP-3e (SN .003165)
Address : USB
EC-LAB for windows v11.62 (software)
Internet server v27.00 (firmware)
Command interpretor v12.03 (firmware)
Electrode material :
Initial state :
Electrolyte :
Comments :
Electrode surface area : 0.001 cm²
Characteristic mass : 0.001 g
Equivalent Weight : 0.000 g/eq.
Density : 0.000 g/cm3
Volume (V) : 0.001 cm³
Record Ece
Cycle Definition : Charge/Discharge alternance
Mode                Multi sine
E (V)               0.0000
vs.                 Eoc
tE (h:m:s)          0:00:0.0000
record              0
dI                  0.000
unit dI             mA
dt (s)              0.000
fi                  1.000
unit fi             MHz
ff                  0.100
unit ff             mHz
Nd                  10
Points              per decade
spacing             Logarithmic
Va (mV)             5.0
pw                  0.10
Na                  2
corr                0
E range min (V)     -10.000
E range max (V)     10.000
I Range             Auto
Bandwidth           5
nc cycles           0
goto Ns'            0
nr cycles           0
inc. cycle          0

freq/Hz	Re(Z)/Ohm	-Im(Z)/Ohm	|Z|/Ohm	Phase(Z)/deg	time/s	<Ewe>/V	<I>/mA	Cs/µF	Cp/µF	cycle number	I Range	|Ewe|/V	|I|/A	Ns	(Q-Qo)/mA.h	<Ece>/V	|Ece|/V	Phase(Zce)/deg	|Zce|/Ohm	Re(Zce)/Ohm	-Im(Zce)/Ohm	Phase(Zwe-ce)/deg	|Zwe-ce|/Ohm	Re(Zwe-ce)/Ohm	-Im(Zwe-ce)/Ohm	Re(Y)/Ohm-1	Im(Y)/Ohm-1	|Y|/Ohm-1	Phase(Y)/deg	Re(C)/nF	Im(C)/nF	|C|/nF	Phase(C)/deg	Re(M)	Im(M)	|M|	Phase(M)/deg	Re(Permittivity)	Im(Permittivity)	|Permittivity|	Phase(Permittivity)/deg	Re(Resistivity)/Ohm.cm	Im(Resistivity)/Ohm.cm	|Resistivity|/Ohm.cm	Phase(Resistivity)/deg	Re(Conductivity)/mS/cm	Im(Conductivity)/mS/cm	|Conductivity|/mS/cm	Phase(Conductivity)/deg	Tan(Delta)	Loss Angle(Delta)/deg	dq/mA.h	Pwe/W	Pce/W	Pwe-ce/W	<Ewe-Ece>/V	Rwe/Ohm	Rce/Ohm	Rwe-ce/Ohm		Ewe-Ece/V
1.00002e+06	2.76187	2.6552	3.83119	-43.8719	2.23353	3.87901	-0.0451191	0.0599398	0.0287901	1	10	0.000216607	5.6538e-05	0	-2.39801e-05	7.0268e-05	0.000204231	-62.4465	3.61227	1.67095	3.20257	-52.8837	7.34597	4.43282	5.85777	0.188164	0.180897	0.261016	43.8719	28.7901	29.9467	41.5412	-46.1281	0.0000000E+000	0.0000000E+000	0.0000000E+000	46.1281	0.0000000E+000	0.0000000E+000	0.0000000E+000	-46.1281	0.0000000E+000	0.0000000E+000	0.0000000E+000	-43.8719	0.0000000E+000	0.0000000E+000	0.0000000E+000	43.8719	1.04017	46.1281	-2.39801e-05	-0.000175017	-3.17043e-09	-0.000175014	3.87894	85972.6	1.55739	85971.1
251206	0.763079	0.173218	0.782492	-12.7893	4.93956	3.87923	0.0682238	3.65761	0.179235	1	9	0.00183374	0.00234346	0	7.76007e-06	-0.000139562	5.58398e-05	91.9655	0.0238279	-0.000817241	-0.0238139	-11.0894	0.776765	0.762261	0.149404	1.24626	0.2829	1.27797	12.7893	179.235	789.586	809.674	-77.2107	0.0000000E+000	0.0000000E+000	0.0000000E+000	77.2107	0.0000000E+000	0.0000000E+000	0.0000000E+000	-77.2107	0.0000000E+000	0.0000000E+000	0.0000000E+000	-12.7893	0.0000000E+000	0.0000000E+000	0.0000000E+000	12.7893	4.40532	77.2107	6.27984e-06	0.000264656	-9.52143e-09	0.000264665	3.87936	56860.3	2.04564	56862.3
63093.8	1.04863	0.464851	1.14704	-23.9074	7.24152	3.87924	0.0646865	5.4265	0.891224	1	9	0.00531909	0.00463722	0	0.000105353	-0.000292165	4.05209e-05	73.0029	0.00873819	0.00255438	-0.0083565	-23.4737	1.14603	1.05118	0.456494	0.797007	0.353308	0.871806	23.9074	891.224	2010.46	2199.14	-66.0926	0.0000000E+000	0.0000000E+000	0.0000000E+000	66.0926	0.0000000E+000	0.0000000E+000	0.0000000E+000	-66.0926	0.0000000E+000	0.0000000E+000	0.0000000E+000	-23.9074	0.0000000E+000	0.0000000E+000	0.0000000E+000	23.9074	2.25584	66.0926	5.55632e-06	0.000250934	-1.88991e-08	0.000250953	3.87953	59969.9	4.51663	59974.4
15847.7	1.55429	0.790285	1.74366	-26.9513	9.54152	3.87924	0.0662875	12.7078	2.61044	1	9	0.00511885	0.00293569	0	0.000127377	-8.23354e-05	4.61208e-06	-32.4874	0.00157104	0.00132518	0.000843825	-26.9563	1.74523	1.55561	0.791129	0.511218	0.259932	0.573506	26.9513	2610.44	5134.06	5759.6	-63.0487	0.0000000E+000	0.0000000E+000	0.0000000E+000	63.0487	0.0000000E+000	0.0000000E+000	0.0000000E+000	-63.0487	0.0000000E+000	0.0000000E+000	0.0000000E+000	-26.9513	0.0000000E+000	0.0000000E+000	0.0000000E+000	26.9513	1.96674	63.0487	4.14479e-06	0.000257145	-5.45781e-09	0.000257151	3.87932	58521.4	1.24209	58522.6
3983.6	2.33321	1.23284	2.6389	-27.8515	11.2661	3.87914	-0.0165628	32.4068	7.07308	1	9	0.00493493	0.00187008	0	0.000144779	-0.000234939	1.3293e-05	-89.5149	0.00710825	6.01825e-05	0.007108	-27.9872	2.64228	2.33327	1.23995	0.33505	0.177037	0.378946	27.8515	7073.08	13386.1	15139.9	-62.1485	0.0000000E+000	0.0000000E+000	0.0000000E+000	62.1485	0.0000000E+000	0.0000000E+000	0.0000000E+000	-62.1485	0.0000000E+000	0.0000000E+000	0.0000000E+000	-27.8515	0.0000000E+000	0.0000000E+000	0.0000000E+000	27.8515	1.89254	62.1485	-2.10028e-06	-6.42493e-05	3.89123e-09	-6.42532e-05	3.87938	234209	14.1848	234223
1000.32	3.57963	2.13035	4.16559	-30.7582	14.1408	3.87916	-0.0335785	74.6844	19.5335	1	10	0.0047655	0.00114402	0	0.000135772	-0.000463844	1.11641e-05	4.45175	0.00975867	0.00972923	-0.000757463	-30.681	4.17356	3.58936	2.12959	0.206293	0.122772	0.240062	30.7582	19533.5	32822.1	38194.8	-59.2418	0.0000000E+000	0.0000000E+000	0.0000000E+000	59.2418	0.0000000E+000	0.0000000E+000	0.0000000E+000	-59.2418	0.0000000E+000	0.0000000E+000	0.0000000E+000	-30.7582	0.0000000E+000	0.0000000E+000	0.0000000E+000	30.7582	1.6803	59.2418	-4.46988e-06	-0.000130256	1.55752e-08	-0.000130272	3.87962	115525	13.8137	115539
251.044	6.39686	3.19687	7.15121	-26.5538	16.841	3.87916	-0.034781	198.31	39.631	1	10	0.00463533	0.000648188	0	0.000111617	-0.000254014	4.78551e-06	153.795	0.00738291	-0.00662408	-0.0032602	-26.5542	7.14382	6.39024	3.19361	0.125086	0.0625123	0.139837	26.5538	39631	79300.8	88652.4	-63.4462	0.0000000E+000	0.0000000E+000	0.0000000E+000	63.4462	0.0000000E+000	0.0000000E+000	0.0000000E+000	-63.4462	0.0000000E+000	0.0000000E+000	0.0000000E+000	-26.5538	0.0000000E+000	0.0000000E+000	0.0000000E+000	26.5538	2.00098	63.4462	-4.3322e-06	-0.000134921	8.83486e-09	-0.00013493	3.87941	111531	7.30325	111538
63.0823	9.44915	2.11786	9.68358	-12.6331	19.5619	3.87916	-0.0291373	1191.28	56.9821	1	10	0.00461066	0.000476132	0	8.63411e-05	-0.000254014	5.82343e-06	41.1406	0.0122307	0.00921091	-0.00804669	-12.5747	9.69081	9.45836	2.10981	0.100768	0.0225853	0.103268	12.6331	56982.1	254234	260541	-77.3669	0.0000000E+000	0.0000000E+000	0.0000000E+000	77.3669	0.0000000E+000	0.0000000E+000	0.0000000E+000	-77.3669	0.0000000E+000	0.0000000E+000	0.0000000E+000	-12.6331	0.0000000E+000	0.0000000E+000	0.0000000E+000	12.6331	4.46165	77.3669	-3.52056e-06	-0.000113028	7.40128e-09	-0.000113035	3.87941	133134	8.71784	133142
15.8576	10.4548	0.885141	10.4922	-4.83932	22.222	3.87916	-0.0342375	11338.9	80.6977	1	10	0.00461568	0.000439915	0	6.44569e-05	-0.000234939	1.41881e-05	9.84212	0.0322519	0.0317772	-0.00551294	-4.79481	10.5234	10.4866	0.879628	0.094969	0.0080404	0.0953087	4.83932	80697.7	953158	956568	-85.1607	0.0000000E+000	0.0000000E+000	0.0000000E+000	85.1607	0.0000000E+000	0.0000000E+000	0.0000000E+000	-85.1607	0.0000000E+000	0.0000000E+000	0.0000000E+000	-4.83932	0.0000000E+000	0.0000000E+000	0.0000000E+000	4.83932	11.8115	85.1607	-3.30256e-06	-0.000132813	8.04371e-09	-0.000132821	3.87939	113302	6.86204	113308
3.97785	10.7834	0.531637	10.7965	-2.82248	25.3384	3.87919	-0.0226321	75258.6	182.482	1	11	0.0046157	0.000427518	0	4.29619e-05	-0.000120486	6.79921e-06	-117.351	0.0159039	-0.007307	0.0141259	-2.89931	10.7899	10.7761	0.545763	0.0925102	0.00456088	0.0926226	2.82248	182482	3.70136e+06	3.70585e+06	-87.1775	0.0000000E+000	0.0000000E+000	0.0000000E+000	87.1775	0.0000000E+000	0.0000000E+000	0.0000000E+000	-87.1775	0.0000000E+000	0.0000000E+000	0.0000000E+000	-2.82248	0.0000000E+000	0.0000000E+000	0.0000000E+000	2.82248	20.2834	87.1775	3.41809e-07	-8.77944e-05	2.72686e-09	-8.77971e-05	3.87931	171402	5.32368	171407
1.00469	11.3463	0.67102	11.3661	-3.38454	240.153	3.87916	-0.0171766	236076	822.809	1	11	0.00505705	0.000444924	0	-0.00267934	-0.000387542	4.36041e-07	12.4967	0.000980035	0.000956817	-0.000212063	-3.38318	11.367	11.3472	0.670808	0.0878275	0.00519413	0.0879809	3.38454	822809	1.39129e+07	1.39372e+07	-86.6155	0.0000000E+000	0.0000000E+000	0.0000000E+000	86.6155	0.0000000E+000	0.0000000E+000	0.0000000E+000	-86.6155	0.0000000E+000	0.0000000E+000	0.0000000E+000	-3.38454	0.0000000E+000	0.0000000E+000	0.0000000E+000	3.38454	16.909	86.6155	-0.00267853	-6.66306e-05	6.65664e-09	-6.66373e-05	3.87954	225840	22.5623	225863
0.251173	11.9723	1.33794	12.0468	-6.37655	240.159	3.87916	-0.0171766	473597	5841.72	1	11	0.00508959	0.000422484	0	-0.00267934	-0.000387542	3.82932e-07	15.6415	0.000906381	0.000872815	-0.000244376	-6.37493	12.0476	11.9731	1.3377	0.082496	0.00921922	0.0830096	6.37655	5.84172e+06	5.22732e+07	5.25986e+07	-83.6235	0.0000000E+000	0.0000000E+000	0.0000000E+000	83.6235	0.0000000E+000	0.0000000E+000	0.0000000E+000	-83.6235	0.0000000E+000	0.0000000E+000	0.0000000E+000	-6.37655	0.0000000E+000	0.0000000E+000	0.0000000E+000	6.37655	8.94826	83.6235	0.000000000000000E+000	-6.66306e-05	6.65664e-09	-6.66373e-05	3.87954	225840	22.5623	225863
0.0602816	13.3181	2.5146	13.5534	-10.6921	240.164	3.87916	-0.0171766	1.04995e+06	36141.3	1	11	0.00507609	0.000374524	0	-0.00267934	-0.000387542	2.53915e-07	-110.037	0.000677968	-0.00023229	0.000636932	-10.695	13.5533	13.3179	2.51523	0.072501	0.0136889	0.073782	10.6921	3.61413e+07	1.91416e+08	1.94798e+08	-79.3079	0.0000000E+000	0.0000000E+000	0.0000000E+000	79.3079	0.0000000E+000	0.0000000E+000	0.0000000E+000	-79.3079	0.0000000E+000	0.0000000E+000	0.0000000E+000	-10.6921	0.0000000E+000	0.0000000E+000	0.0000000E+000	10.6921	5.29633	79.3079	0.000000000000000E+000	-6.66306e-05	6.65664e-09	-6.66373e-05	3.87954	225840	22.5623	225863
0.00796479	17.98	4.54627	18.5459	-14.1899	20329.1	3.87912	-0.000640609	4.39532e+06	264124	1	11	0.00507197	0.000273483	0	-0.0344273	-0.00027309	3.8446e-07	4.01647	0.00140579	0.00140234	-9.84661e-05	-14.1886	18.5472	17.9814	4.54617	0.0522752	0.0132179	0.0539204	14.1899	2.64124e+08	1.04458e+09	1.07745e+09	-75.8101	0.0000000E+000	0.0000000E+000	0.0000000E+000	75.8101	0.0000000E+000	0.0000000E+000	0.0000000E+000	-75.8101	0.0000000E+000	0.0000000E+000	0.0000000E+000	-14.1899	0.0000000E+000	0.0000000E+000	0.0000000E+000	14.1899	3.95489	75.8101	-0.0317479	-2.485e-06	1.74944e-10	-2.48517e-06	3.87939	6.05536e+06	426.297	6.05579e+06
0.0019912	20.8337	8.04855	22.3344	-21.1227	20329.1	3.87912	-0.000640609	9.93089e+06	1.28967e+06	1	11	0.00508068	0.000227483	0	-0.0344273	-0.00027309	1.01957e-06	-78.0504	0.00448198	0.000927998	0.00438486	-21.1323	22.3368	20.8347	8.05294	0.0417657	0.0161351	0.0447741	21.1227	1.28967e+09	3.33831e+09	3.57876e+09	-68.8773	0.0000000E+000	0.0000000E+000	0.0000000E+000	68.8773	0.0000000E+000	0.0000000E+000	0.0000000E+000	-68.8773	0.0000000E+000	0.0000000E+000	0.0000000E+000	-21.1227	0.0000000E+000	0.0000000E+000	0.0000000E+000	21.1227	2.58851	68.8773	0.000000000000000E+000	-2.485e-06	1.74944e-10	-2.48517e-06	3.87939	6.05536e+06	426.297	6.05579e+06
0.000497799	22.8723	22.2442	31.9053	-44.2024	20329.1	3.87912	-0.000640609	1.43731e+07	6.98647e+06	1	11	0.0050825	0.0001593	0	-0.0344273	-0.00027309	1.05166e-06	-109.598	0.00660175	-0.0022143	0.00621932	-44.2132	31.908	22.8701	22.2504	0.022469	0.021852	0.0313428	44.2024	6.98647e+09	7.18374e+09	1.00208e+10	-45.7976	0.0000000E+000	0.0000000E+000	0.0000000E+000	45.7976	0.0000000E+000	0.0000000E+000	0.0000000E+000	-45.7976	0.0000000E+000	0.0000000E+000	0.0000000E+000	-44.2024	0.0000000E+000	0.0000000E+000	0.0000000E+000	44.2024	1.02824	45.7976	0.000000000000000E+000	-2.485e-06	1.74944e-10	-2.48517e-06	3.87939	6.05536e+06	426.297	6.05579e+06
9.95598e-05	23.8388	144.747	146.697	-80.6478	20329.1	3.87912	-0.000640609	1.1044e+07	1.07523e+07	1	11	0.00508052	3.46327e-05	0	-0.0344273	-0.00027309	4.86209e-06	-49.4514	0.14039	0.0912666	0.106676	-80.6194	146.817	23.9301	144.854	0.00110775	0.00672615	0.00681675	80.6478	1.07523e+10	1.77083e+09	1.08972e+10	-9.35223	0.0000000E+000	0.0000000E+000	0.0000000E+000	9.35223	0.0000000E+000	0.0000000E+000	0.0000000E+000	-9.35223	0.0000000E+000	0.0000000E+000	0.0000000E+000	-80.6478	0.0000000E+000	0.0000000E+000	0.0000000E+000	80.6478	0.164693	9.35223	0.000000000000000E+000	-2.485e-06	1.74944e-10	-2.48517e-06	3.87939	6.05536e+06	426.297	6.05579e+06