File: txt/19255_UA646_UC61_FC_SOC0_C02.mpt
EC-Lab ASCII FILE
Nb header lines : 65

Potentio Electrochemical Impedance Spectroscopy

Run on channel : 2 (SN 66139)
User :
CE vs. WE compliance from -10 V to 10 V
Electrode connection : standard
Potential control : Ewe
Ewe ctrl range : min = -5.00 V, max = 5.00 V
Safety Limits :
	Do not start on E overload
Acquisition started on : 12/11/2025 11:03:37.991
Technique started on : 12/11/2025 11:03:40.225
Loaded Setting File :  C:\Users\Celltest\OneDrive - store-dot.com\Documents\EC-Lab\Data\John\19254_UA646_UC61_FC_SOC0.mps
Saved on :
	File : 19255_UA646_UC61_FC_SOC0_C02.mpr
	Directory : C:\Users\Celltest\OneDrive - store-dot.com\Documents\EC-Lab\Data\John\
	Host : 169.254.61.224
Device : VMP-3e (SN .003165)
Address : USB
EC-LAB for windows v11.62 (software)
Internet server v27.00 (firmware)
Command interpretor v12.03 (firmware)
Electrode material :
Initial state :
Electrolyte :
Comments :
Electrode surface area : 0.001 cm²
Characteristic mass : 0.001 g
Equivalent Weight : 0.000 g/eq.
Density : 0.000 g/cm3
Volume (V) : 0.001 cm³
Record Ece
Cycle Definition : Charge/Discharge alternance
Mode                Multi sine
E (V)               0.0000
vs.                 Eoc
tE (h:m:s)          0:00:0.0000
record              0
dI                  0.000
unit dI             mA
dt (s)              0.000
fi                  1.000
unit fi             MHz
ff                  0.100
unit ff             mHz
Nd                  10
Points              per decade
spacing             Logarithmic
Va (mV)             5.0
pw                  0.10
Na                  2
corr                0
E range min (V)     -5.000
E range max (V)     5.000
I Range             Auto
Bandwidth           5
nc cycles           0
goto Ns'            0
nr cycles           0
inc. cycle          0

freq/Hz	Re(Z)/Ohm	-Im(Z)/Ohm	|Z|/Ohm	Phase(Z)/deg	time/s	<Ewe>/V	<I>/mA	Cs/µF	Cp/µF	cycle number	I Range	|Ewe|/V	|I|/A	Ns	(Q-Qo)/mA.h	<Ece>/V	|Ece|/V	Phase(Zce)/deg	|Zce|/Ohm	Re(Zce)/Ohm	-Im(Zce)/Ohm	Phase(Zwe-ce)/deg	|Zwe-ce|/Ohm	Re(Zwe-ce)/Ohm	-Im(Zwe-ce)/Ohm	Re(Y)/Ohm-1	Im(Y)/Ohm-1	|Y|/Ohm-1	Phase(Y)/deg	Re(C)/nF	Im(C)/nF	|C|/nF	Phase(C)/deg	Re(M)	Im(M)	|M|	Phase(M)/deg	Re(Permittivity)	Im(Permittivity)	|Permittivity|	Phase(Permittivity)/deg	Re(Resistivity)/Ohm.cm	Im(Resistivity)/Ohm.cm	|Resistivity|/Ohm.cm	Phase(Resistivity)/deg	Re(Conductivity)/mS/cm	Im(Conductivity)/mS/cm	|Conductivity|/mS/cm	Phase(Conductivity)/deg	Tan(Delta)	Loss Angle(Delta)/deg	dq/mA.h	Pwe/W	Pce/W	Pwe-ce/W	<Ewe-Ece>/V	Rwe/Ohm	Rce/Ohm	Rwe-ce/Ohm		Ewe-Ece/V
1.00002e+06	1.98126	2.63061	3.29325	-53.0145	2.23353	2.6487	-0.0125724	0.0605	0.0386028	1	10	0.000210701	6.39796e-05	0	-5.76389e-06	0.000156172	0.000172542	-72.7246	2.69683	0.800864	2.57518	-61.8786	5.90258	2.78213	5.20579	0.18268	0.242553	0.303651	53.0145	38.6028	29.074	48.3267	-36.9855	0.0000000E+000	0.0000000E+000	0.0000000E+000	36.9855	0.0000000E+000	0.0000000E+000	0.0000000E+000	-36.9855	0.0000000E+000	0.0000000E+000	0.0000000E+000	-53.0145	0.0000000E+000	0.0000000E+000	0.0000000E+000	53.0145	0.753157	36.9855	-5.76389e-06	-3.33005e-05	-1.96345e-09	-3.32986e-05	2.64855	210676	12.4218	210664
251206	1.49875	0.354137	1.54002	-13.2945	4.94056	2.64874	0.00175284	1.78903	0.0946035	1	9	0.00378692	0.002459	0	-6.87658e-06	-1.5646e-05	2.5736e-05	96.5582	0.010466	-0.00119535	-0.0103976	-12.9274	1.5365	1.49756	0.343739	0.63194	0.14932	0.649341	13.2945	94.6035	400.374	411.399	-76.7055	0.0000000E+000	0.0000000E+000	0.0000000E+000	76.7055	0.0000000E+000	0.0000000E+000	0.0000000E+000	-76.7055	0.0000000E+000	0.0000000E+000	0.0000000E+000	-13.2945	0.0000000E+000	0.0000000E+000	0.0000000E+000	13.2945	4.23212	76.7055	-1.50252e-07	4.64282e-06	-2.7425e-11	4.64285e-06	2.64875	1.51111e+06	8.92606	1.51112e+06
63093.8	1.97931	0.621856	2.0747	-17.4416	7.24452	2.64859	-0.00524938	4.05643	0.36443	1	9	0.00535826	0.00258267	0	3.26097e-07	-1.5646e-05	2.32935e-05	52.1297	0.00901916	0.00553665	-0.00711974	-17.2085	2.07786	1.98484	0.614736	0.459838	0.144471	0.481998	17.4416	364.43	1159.95	1215.85	-72.5584	0.0000000E+000	0.0000000E+000	0.0000000E+000	72.5584	0.0000000E+000	0.0000000E+000	0.0000000E+000	-72.5584	0.0000000E+000	0.0000000E+000	0.0000000E+000	-17.4416	0.0000000E+000	0.0000000E+000	0.0000000E+000	17.4416	3.1829	72.5584	-2.06616e-06	-1.39035e-05	8.21318e-11	-1.39035e-05	2.64861	504553	2.98054	504556
15847.7	2.63768	0.848207	2.77071	-17.8264	9.54455	2.64858	0.00387583	11.84	1.10962	1	9	0.00507266	0.00183082	0	-3.26212e-06	-9.20094e-05	2.52083e-05	-73.8448	0.0137688	0.00383105	0.0132251	-18.0618	2.77843	2.64151	0.861432	0.343591	0.110489	0.360919	17.8264	1109.62	3450.61	3624.63	-72.1736	0.0000000E+000	0.0000000E+000	0.0000000E+000	72.1736	0.0000000E+000	0.0000000E+000	0.0000000E+000	-72.1736	0.0000000E+000	0.0000000E+000	0.0000000E+000	-17.8264	0.0000000E+000	0.0000000E+000	0.0000000E+000	17.8264	3.10971	72.1736	-1.98988e-06	1.02654e-05	-3.56613e-10	1.02658e-05	2.64867	683357	23.7392	683380
3983.6	3.39544	1.08062	3.56325	-17.6541	11.1471	2.64848	-0.00390856	36.9717	3.40038	1	9	0.00531195	0.00149076	0	-4.94223e-06	-0.000149282	7.8239e-06	132.246	0.00524826	-0.0035285	-0.00388509	-17.6117	3.55871	3.39191	1.07674	0.267426	0.0851104	0.280643	17.6541	3400.38	10684.3	11212.4	-72.3459	0.0000000E+000	0.0000000E+000	0.0000000E+000	72.3459	0.0000000E+000	0.0000000E+000	0.0000000E+000	-72.3459	0.0000000E+000	0.0000000E+000	0.0000000E+000	-17.6541	0.0000000E+000	0.0000000E+000	0.0000000E+000	17.6541	3.14211	72.3459	-7.92829e-07	-1.03517e-05	5.83477e-10	-1.03523e-05	2.64863	677609	38.1936	677648
1000.32	4.26928	1.76919	4.62134	-22.5092	14.0219	2.64854	-0.0176945	89.9302	13.1802	1	10	0.00526702	0.00113972	0	-1.71409e-05	9.88991e-05	9.57863e-06	-49.5593	0.0084044	0.0054516	0.0063964	-22.5565	4.62883	4.27473	1.77559	0.199903	0.0828399	0.216387	22.5092	13180.2	31805.3	34428.1	-67.4908	0.0000000E+000	0.0000000E+000	0.0000000E+000	67.4908	0.0000000E+000	0.0000000E+000	0.0000000E+000	-67.4908	0.0000000E+000	0.0000000E+000	0.0000000E+000	-22.5092	0.0000000E+000	0.0000000E+000	0.0000000E+000	22.5092	2.41312	67.4908	-1.61556e-06	-4.68648e-05	-1.74997e-09	-4.6863e-05	2.64845	149682	5.58924	149676
251.044	6.04898	3.70371	7.09278	-31.4786	16.7231	2.64854	-0.0181565	171.172	46.6738	1	10	0.00517699	0.000729896	0	-3.16885e-05	0.00011799	8.2412e-06	80.5606	0.0112909	0.00185175	-0.0111381	-31.394	7.08855	6.05083	3.69257	0.12024	0.0736213	0.140988	31.4786	46673.8	76228.6	89382.6	-58.5214	0.0000000E+000	0.0000000E+000	0.0000000E+000	58.5214	0.0000000E+000	0.0000000E+000	0.0000000E+000	-58.5214	0.0000000E+000	0.0000000E+000	0.0000000E+000	-31.4786	0.0000000E+000	0.0000000E+000	0.0000000E+000	31.4786	1.63322	58.5214	-1.91691e-06	-4.80881e-05	-2.14228e-09	-4.8086e-05	2.64842	145873	6.4985	145867
63.0823	10.9772	6.34171	12.6774	-30.0158	19.444	2.64854	-0.016767	397.838	99.5544	1	10	0.00515328	0.000406494	0	-4.44723e-05	0.00011799	7.41243e-06	-72.8251	0.018235	0.0053846	0.0174219	-30.0717	12.6908	10.9826	6.35913	0.0683018	0.0394592	0.0788807	30.0158	99554.4	172324	199014	-59.9842	0.0000000E+000	0.0000000E+000	0.0000000E+000	59.9842	0.0000000E+000	0.0000000E+000	0.0000000E+000	-59.9842	0.0000000E+000	0.0000000E+000	0.0000000E+000	-30.0158	0.0000000E+000	0.0000000E+000	0.0000000E+000	30.0158	1.73095	59.9842	-2.26515e-06	-4.44081e-05	-1.97833e-09	-4.44061e-05	2.64843	157962	7.03704	157955
15.8576	17.3725	6.202	18.4464	-19.6466	22.346	2.64856	-0.0135412	1618.27	182.933	1	11	0.00514088	0.000278693	0	-5.56283e-05	6.07174e-05	3.07723e-05	-40.1799	0.110417	0.0843606	0.0712397	-19.7662	18.5498	17.4569	6.27324	0.0510552	0.0182267	0.0542111	19.6466	182933	512417	544091	-70.3534	0.0000000E+000	0.0000000E+000	0.0000000E+000	70.3534	0.0000000E+000	0.0000000E+000	0.0000000E+000	-70.3534	0.0000000E+000	0.0000000E+000	0.0000000E+000	-19.6466	0.0000000E+000	0.0000000E+000	0.0000000E+000	19.6466	2.80112	70.3534	-9.13189e-07	-3.58647e-05	-8.22186e-10	-3.58639e-05	2.6485	195593	4.4839	195588
3.97785	22.3518	6.25435	23.2103	-15.6324	25.2594	2.64858	-0.0126311	6397.2	464.505	1	11	0.00515042	0.000221902	0	-6.39517e-05	-0.0001111	8.11576e-06	14.8087	0.0365736	0.0353588	-0.00934795	-15.5867	23.2419	22.3872	6.245	0.0414906	0.0116096	0.0430842	15.6324	464505	1.66005e+06	1.72381e+06	-74.3676	0.0000000E+000	0.0000000E+000	0.0000000E+000	74.3676	0.0000000E+000	0.0000000E+000	0.0000000E+000	-74.3676	0.0000000E+000	0.0000000E+000	0.0000000E+000	-15.6324	0.0000000E+000	0.0000000E+000	0.0000000E+000	15.6324	3.5738	74.3676	6.66692e-07	-3.34544e-05	1.40331e-09	-3.34558e-05	2.64869	209688	8.79579	209696
1.00469	28.4576	7.60674	29.4567	-14.9653	240.985	2.6485	-0.0201177	20825.1	1388.73	1	11	0.0049809	0.000169092	0	-0.00154088	7.98082e-05	1.27589e-06	-15.056	0.00754551	0.00728649	0.00196004	-14.9654	29.4642	28.4649	7.6087	0.0327967	0.00876659	0.0339481	14.9653	1.38873e+06	5.19537e+06	5.37777e+06	-75.0347	0.0000000E+000	0.0000000E+000	0.0000000E+000	75.0347	0.0000000E+000	0.0000000E+000	0.0000000E+000	-75.0347	0.0000000E+000	0.0000000E+000	0.0000000E+000	-14.9653	0.0000000E+000	0.0000000E+000	0.0000000E+000	14.9653	3.7411	75.0347	-0.00145166	-5.32815e-05	-1.60555e-09	-5.32799e-05	2.64842	131650	3.96707	131646
0.251173	35.2122	9.7129	36.5272	-15.421	240.99	2.6485	-0.0201177	65237.5	4612.78	1	11	0.00500903	0.000137131	0	-0.00154088	7.98082e-05	1.31466e-06	-13.4428	0.00958688	0.00932422	0.00222871	-15.4204	36.5368	35.2215	9.71513	0.0263912	0.00727974	0.0273769	15.421	4.61278e+06	1.67227e+07	1.73472e+07	-74.579	0.0000000E+000	0.0000000E+000	0.0000000E+000	74.579	0.0000000E+000	0.0000000E+000	0.0000000E+000	-74.579	0.0000000E+000	0.0000000E+000	0.0000000E+000	-15.421	0.0000000E+000	0.0000000E+000	0.0000000E+000	15.421	3.6253	74.579	0.000000000000000E+000	-5.32815e-05	-1.60555e-09	-5.32799e-05	2.64842	131650	3.96707	131646
0.0602816	43.1898	15.8208	45.9963	-20.1182	240.996	2.6485	-0.0201177	166881	19743.2	1	11	0.00500177	0.000108743	0	-0.00154088	7.98082e-05	2.54086e-07	-45.3879	0.00233657	0.00164098	0.00166335	-20.1195	45.9984	43.1914	15.8225	0.0204144	0.00747797	0.0217409	20.1182	1.97433e+07	5.38978e+07	5.74001e+07	-69.8818	0.0000000E+000	0.0000000E+000	0.0000000E+000	69.8818	0.0000000E+000	0.0000000E+000	0.0000000E+000	-69.8818	0.0000000E+000	0.0000000E+000	0.0000000E+000	-20.1182	0.0000000E+000	0.0000000E+000	0.0000000E+000	20.1182	2.72994	69.8818	0.000000000000000E+000	-5.32815e-05	-1.60555e-09	-5.32799e-05	2.64842	131650	3.96707	131646
0.00796479	70.2359	57.2064	90.585	-39.1625	20329.9	2.64843	-0.00239454	349302	139309	1	11	0.00499455	5.51366e-05	0	-0.0377812	0.000194353	2.26811e-06	-7.27794	0.0411363	0.0408049	0.00521126	-39.1487	90.62	70.2767	57.2116	0.00855945	0.00697159	0.0110394	39.1625	1.39309e+08	1.71038e+08	2.20592e+08	-50.8375	0.0000000E+000	0.0000000E+000	0.0000000E+000	50.8375	0.0000000E+000	0.0000000E+000	0.0000000E+000	-50.8375	0.0000000E+000	0.0000000E+000	0.0000000E+000	-39.1625	0.0000000E+000	0.0000000E+000	0.0000000E+000	39.1625	1.22776	50.8375	-0.0362403	-6.34178e-06	-4.65387e-10	-6.34131e-06	2.64824	1.10603e+06	81.1652	1.10595e+06
0.0019912	113.16	156.37	193.02	-54.1079	20329.9	2.64843	-0.00239454	511156	335471	1	11	0.00500809	2.5946e-05	0	-0.0377812	0.000194353	1.2853e-06	-39.1072	0.0495375	0.0384395	0.031247	-54.1041	193.068	113.198	156.401	0.00303731	0.00419709	0.00518081	54.1079	3.35471e+08	2.4277e+08	4.14099e+08	-35.8921	0.0000000E+000	0.0000000E+000	0.0000000E+000	35.8921	0.0000000E+000	0.0000000E+000	0.0000000E+000	-35.8921	0.0000000E+000	0.0000000E+000	0.0000000E+000	-54.1079	0.0000000E+000	0.0000000E+000	0.0000000E+000	54.1079	0.723669	35.8921	0.000000000000000E+000	-6.34178e-06	-4.65387e-10	-6.34131e-06	2.64824	1.10603e+06	81.1652	1.10595e+06
0.000497799	251.005	434.059	501.408	-59.9603	20329.9	2.64843	-0.00239454	736576	551990	1	11	0.00500952	9.99091e-06	0	-0.0377812	0.000194353	1.26704e-06	16.3965	0.126819	0.121662	-0.035799	-59.9462	501.438	251.126	434.023	0.000998387	0.0017265	0.00199438	59.9603	5.5199e+08	3.19202e+08	6.37639e+08	-30.0397	0.0000000E+000	0.0000000E+000	0.0000000E+000	30.0397	0.0000000E+000	0.0000000E+000	0.0000000E+000	-30.0397	0.0000000E+000	0.0000000E+000	0.0000000E+000	-59.9603	0.0000000E+000	0.0000000E+000	0.0000000E+000	59.9603	0.578274	30.0397	0.000000000000000E+000	-6.34178e-06	-4.65387e-10	-6.34131e-06	2.64824	1.10603e+06	81.1652	1.10595e+06
9.95598e-05	-846.775	1143.75	1423.09	-126.514	20329.9	2.64843	-0.00239454	1.39767e+06	902819	1	11	0.00501575	3.52454e-06	0	-0.0377812	0.000194353	2.34203e-06	95.675	0.664492	-0.0657087	-0.661236	-126.532	1422.6	-846.841	1143.09	-0.00041812	0.000564761	0.000702694	126.514	9.02819e+08	-6.68401e+08	1.12332e+09	36.5144	0.0000000E+000	0.0000000E+000	0.0000000E+000	-36.5144	0.0000000E+000	0.0000000E+000	0.0000000E+000	36.5144	0.0000000E+000	0.0000000E+000	0.0000000E+000	-126.514	0.0000000E+000	0.0000000E+000	0.0000000E+000	126.514	0.740349	36.5143	0.000000000000000E+000	-6.34178e-06	-4.65387e-10	-6.34131e-06	2.64824	1.10603e+06	81.1652	1.10595e+06