File: txt/19254_UA646_UC61_FC_SOC0_C01.mpt
EC-Lab ASCII FILE
Nb header lines : 65

Potentio Electrochemical Impedance Spectroscopy

Run on channel : 1 (SN 66354)
User :
CE vs. WE compliance from -10 V to 10 V
Electrode connection : standard
Potential control : Ewe
Ewe ctrl range : min = -5.00 V, max = 5.00 V
Safety Limits :
	Do not start on E overload
Acquisition started on : 12/11/2025 11:03:24.246
Technique started on : 12/11/2025 11:03:26.940
Loaded Setting File :  C:\Users\Celltest\OneDrive - store-dot.com\Documents\EC-Lab\Data\@Biologic Test Protocols\cathode half cell EIS SOC50.mps
Saved on :
	File : 19254_UA646_UC61_FC_SOC0_C01.mpr
	Directory : C:\Users\Celltest\OneDrive - store-dot.com\Documents\EC-Lab\Data\John\
	Host : 169.254.61.224
Device : VMP-3e (SN .003165)
Address : USB
EC-LAB for windows v11.62 (software)
Internet server v27.00 (firmware)
Command interpretor v12.03 (firmware)
Electrode material :
Initial state :
Electrolyte :
Comments :
Electrode surface area : 0.001 cm²
Characteristic mass : 0.001 g
Equivalent Weight : 0.000 g/eq.
Density : 0.000 g/cm3
Volume (V) : 0.001 cm³
Record Ece
Cycle Definition : Charge/Discharge alternance
Mode                Multi sine
E (V)               0.0000
vs.                 Eoc
tE (h:m:s)          0:00:0.0000
record              0
dI                  0.000
unit dI             mA
dt (s)              0.000
fi                  1.000
unit fi             MHz
ff                  0.100
unit ff             mHz
Nd                  10
Points              per decade
spacing             Logarithmic
Va (mV)             5.0
pw                  0.10
Na                  2
corr                0
E range min (V)     -5.000
E range max (V)     5.000
I Range             Auto
Bandwidth           5
nc cycles           0
goto Ns'            0
nr cycles           0
inc. cycle          0

freq/Hz	Re(Z)/Ohm	-Im(Z)/Ohm	|Z|/Ohm	Phase(Z)/deg	time/s	<Ewe>/V	<I>/mA	Cs/µF	Cp/µF	cycle number	I Range	|Ewe|/V	|I|/A	Ns	(Q-Qo)/mA.h	<Ece>/V	|Ece|/V	Phase(Zce)/deg	|Zce|/Ohm	Re(Zce)/Ohm	-Im(Zce)/Ohm	Phase(Zwe-ce)/deg	|Zwe-ce|/Ohm	Re(Zwe-ce)/Ohm	-Im(Zwe-ce)/Ohm	Re(Y)/Ohm-1	Im(Y)/Ohm-1	|Y|/Ohm-1	Phase(Y)/deg	Re(C)/nF	Im(C)/nF	|C|/nF	Phase(C)/deg	Re(M)	Im(M)	|M|	Phase(M)/deg	Re(Permittivity)	Im(Permittivity)	|Permittivity|	Phase(Permittivity)/deg	Re(Resistivity)/Ohm.cm	Im(Resistivity)/Ohm.cm	|Resistivity|/Ohm.cm	Phase(Resistivity)/deg	Re(Conductivity)/mS/cm	Im(Conductivity)/mS/cm	|Conductivity|/mS/cm	Phase(Conductivity)/deg	Tan(Delta)	Loss Angle(Delta)/deg	dq/mA.h	Pwe/W	Pce/W	Pwe-ce/W	<Ewe-Ece>/V	Rwe/Ohm	Rce/Ohm	Rwe-ce/Ohm		Ewe-Ece/V
1.00002e+06	2.1512	2.70742	3.458	-51.5308	2.69356	2.64991	0.00455386	0.0587837	0.0360344	1	10	0.000231253	6.68747e-05	0	6.77408e-07	-0.000254775	0.000191658	-75.2464	2.86592	0.729843	2.77143	-62.2625	6.19017	2.88104	5.47885	0.1799	0.226415	0.289184	51.5308	36.0344	28.6314	46.0243	-38.4692	0.0000000E+000	0.0000000E+000	0.0000000E+000	38.4692	0.0000000E+000	0.0000000E+000	0.0000000E+000	-38.4692	0.0000000E+000	0.0000000E+000	0.0000000E+000	-51.5308	0.0000000E+000	0.0000000E+000	0.0000000E+000	51.5308	0.794558	38.4692	6.77408e-07	1.20673e-05	-1.16021e-09	1.20685e-05	2.65017	581905	55.9471	581961
251206	1.55215	0.46023	1.61894	-16.5157	5.39652	2.64955	0.041534	1.37662	0.111251	1	9	0.00417658	0.00257982	0	2.96565e-05	0.000107694	6.09328e-05	106.783	0.023619	-0.00682006	-0.0226129	-15.8114	1.6061	1.54533	0.437617	0.592203	0.175595	0.617688	16.5157	111.251	375.198	391.344	-73.4843	0.0000000E+000	0.0000000E+000	0.0000000E+000	73.4843	0.0000000E+000	0.0000000E+000	0.0000000E+000	-73.4843	0.0000000E+000	0.0000000E+000	0.0000000E+000	-16.5157	0.0000000E+000	0.0000000E+000	0.0000000E+000	16.5157	3.37255	73.4843	4.99765e-06	0.000110046	4.47296e-09	0.000110042	2.64944	63792.2	2.59291	63789.6
63093.8	2.14378	0.708794	2.25792	-18.2953	7.69455	2.64952	0.0574789	3.55888	0.3507	1	9	0.00544599	0.00241195	0	6.55476e-05	0.000432008	2.29527e-05	87.3544	0.00951622	0.000439256	-0.00950607	-18.0625	2.25537	2.14422	0.699288	0.420498	0.139028	0.442885	18.2953	350.7	1060.71	1117.18	-71.7047	0.0000000E+000	0.0000000E+000	0.0000000E+000	71.7047	0.0000000E+000	0.0000000E+000	0.0000000E+000	-71.7047	0.0000000E+000	0.0000000E+000	0.0000000E+000	-18.2953	0.0000000E+000	0.0000000E+000	0.0000000E+000	18.2953	3.02455	71.7047	7.47413e-06	0.000152292	2.48313e-08	0.000152267	2.64909	46095.6	7.51595	46088.1
15847.7	2.87265	0.911419	3.01377	-17.6029	10.1185	2.6495	0.0535671	11.0189	1.00775	1	9	0.00489174	0.00162313	0	0.000105304	0.000432008	1.06181e-05	-34.7478	0.00654175	0.00537514	0.00372857	-17.6395	3.02002	2.87802	0.915147	0.316274	0.100346	0.331811	17.6029	1007.75	3176.27	3332.31	-72.3971	0.0000000E+000	0.0000000E+000	0.0000000E+000	72.3971	0.0000000E+000	0.0000000E+000	0.0000000E+000	-72.3971	0.0000000E+000	0.0000000E+000	0.0000000E+000	-17.6029	0.0000000E+000	0.0000000E+000	0.0000000E+000	17.6029	3.15184	72.3971	5.91405e-06	0.000141926	2.31414e-08	0.000141903	2.64907	49461.3	8.0648	49453.3
3983.6	3.68124	1.07038	3.8337	-16.2126	11.8411	2.64926	-0.0105476	37.3255	2.90968	1	9	0.00476854	0.00124385	0	0.000125253	5.0462e-05	1.19207e-05	60.4298	0.00958372	0.00472947	-0.00833546	-16.0734	3.83593	3.68597	1.06205	0.250471	0.0728285	0.260844	16.2126	2909.69	10007	10421.4	-73.7874	0.0000000E+000	0.0000000E+000	0.0000000E+000	73.7874	0.0000000E+000	0.0000000E+000	0.0000000E+000	-73.7874	0.0000000E+000	0.0000000E+000	0.0000000E+000	-16.2126	0.0000000E+000	0.0000000E+000	0.0000000E+000	16.2126	3.43919	73.7874	-1.38965e-06	-2.79433e-05	-5.32253e-10	-2.79427e-05	2.64921	251172	4.78423	251167
1000.32	4.56498	1.65483	4.85566	-19.9258	14.6778	2.64948	-0.0109017	96.1454	11.167	1	10	0.00475317	0.000978891	0	0.000122255	0.000107694	8.47336e-06	12.6557	0.00865608	0.00844577	-0.00189648	-19.8709	4.86296	4.57342	1.65293	0.193616	0.0701868	0.205945	19.9258	11167	30805.1	32766.7	-70.0742	0.0000000E+000	0.0000000E+000	0.0000000E+000	70.0742	0.0000000E+000	0.0000000E+000	0.0000000E+000	-70.0742	0.0000000E+000	0.0000000E+000	0.0000000E+000	-19.9258	0.0000000E+000	0.0000000E+000	0.0000000E+000	19.9258	2.75858	70.0742	-5.46047e-07	-2.88839e-05	-1.17405e-09	-2.88827e-05	2.64937	243033	9.87861	243023
251.044	6.20234	3.37915	7.06312	-28.5824	17.3791	2.64947	-0.0122844	187.613	42.9421	1	10	0.00470474	0.0006661	0	0.000113746	6.95394e-05	3.76033e-06	-23.0531	0.00564529	0.00519447	0.00221061	-28.5779	7.06874	6.20754	3.38136	0.124326	0.0677351	0.14158	28.5824	42942.1	78819.2	89758	-61.4176	0.0000000E+000	0.0000000E+000	0.0000000E+000	61.4176	0.0000000E+000	0.0000000E+000	0.0000000E+000	-61.4176	0.0000000E+000	0.0000000E+000	0.0000000E+000	-28.5824	0.0000000E+000	0.0000000E+000	0.0000000E+000	28.5824	1.83547	61.4176	-9.29625e-07	-3.25473e-05	-8.54252e-10	-3.25464e-05	2.6494	215677	5.66077	215671
63.0823	10.6834	5.78773	12.1504	-28.4466	20.1	2.64947	-0.0102905	435.918	98.9095	1	10	0.00468849	0.00038587	0	0.00010653	0.000107694	9.96266e-06	-11.0112	0.0258187	0.0253434	0.00493139	-28.4102	12.1751	10.7087	5.79266	0.0723647	0.0392036	0.0823017	28.4466	98909.5	182574	207645	-61.5534	0.0000000E+000	0.0000000E+000	0.0000000E+000	61.5534	0.0000000E+000	0.0000000E+000	0.0000000E+000	-61.5534	0.0000000E+000	0.0000000E+000	0.0000000E+000	-28.4466	0.0000000E+000	0.0000000E+000	0.0000000E+000	28.4466	1.84587	61.5534	-1.43829e-06	-2.72645e-05	-1.10823e-09	-2.72633e-05	2.64936	257467	10.4653	257456
15.8576	16.6219	5.53143	17.5181	-18.4064	23.005	2.64951	-0.01112	1814.45	180.904	1	11	0.00469017	0.000267733	0	9.85099e-05	-0.000140311	1.11027e-05	67.7027	0.0414692	0.0157339	-0.0383684	-18.2712	17.5209	16.6376	5.49306	0.0541635	0.0180246	0.0570839	18.4064	180904	543614	572924	-71.5936	0.0000000E+000	0.0000000E+000	0.0000000E+000	71.5936	0.0000000E+000	0.0000000E+000	0.0000000E+000	-71.5936	0.0000000E+000	0.0000000E+000	0.0000000E+000	-18.4064	0.0000000E+000	0.0000000E+000	0.0000000E+000	18.4064	3.00498	71.5936	-1.60298e-07	-2.94626e-05	1.56026e-09	-2.94641e-05	2.64965	238265	12.6179	238277
3.97785	20.8322	5.38267	21.5163	-14.4874	25.9173	2.64953	-0.00980306	7433.16	465.193	1	11	0.00468331	0.000217663	0	9.01314e-05	-0.000197543	9.22991e-06	86.7882	0.0424045	0.00237583	-0.0423379	-14.3766	21.5081	20.8345	5.34033	0.0449985	0.0116268	0.0464764	14.4874	465194	1.8004e+06	1.85953e+06	-75.5126	0.0000000E+000	0.0000000E+000	0.0000000E+000	75.5126	0.0000000E+000	0.0000000E+000	0.0000000E+000	-75.5126	0.0000000E+000	0.0000000E+000	0.0000000E+000	-14.4874	0.0000000E+000	0.0000000E+000	0.0000000E+000	14.4874	3.87023	75.5126	-8.44591e-08	-2.59735e-05	1.93652e-09	-2.59755e-05	2.64973	270276	20.1512	270296
1.00469	25.7333	6.70234	26.5918	-14.5986	240.731	2.64946	-0.0184941	23635.2	1501.47	1	11	0.00500964	0.000188391	0	-0.00126675	-4.49245e-05	1.20094e-06	-10.9982	0.00637473	0.00625765	0.00121616	-14.5977	26.5981	25.7395	6.70355	0.0363915	0.00947832	0.0376056	14.5986	1.50147e+06	5.76483e+06	5.95716e+06	-75.4014	0.0000000E+000	0.0000000E+000	0.0000000E+000	75.4014	0.0000000E+000	0.0000000E+000	0.0000000E+000	-75.4014	0.0000000E+000	0.0000000E+000	0.0000000E+000	-14.5986	0.0000000E+000	0.0000000E+000	0.0000000E+000	14.5986	3.83945	75.4014	-0.0013368	-4.89995e-05	8.3084e-10	-4.90003e-05	2.6495	143259	2.42912	143262
0.251173	31.7439	9.40827	33.1088	-16.5088	240.733	2.64946	-0.0184941	67349.9	5438.38	1	11	0.0050388	0.000152189	0	-0.00126675	-4.49245e-05	1.23601e-06	0.957823	0.00812153	0.0081204	-0.000135763	-16.5046	33.1165	31.752	9.40813	0.0289584	0.00858269	0.0302035	16.5088	5.43838e+06	1.83493e+07	1.91383e+07	-73.4912	0.0000000E+000	0.0000000E+000	0.0000000E+000	73.4912	0.0000000E+000	0.0000000E+000	0.0000000E+000	-73.4912	0.0000000E+000	0.0000000E+000	0.0000000E+000	-16.5088	0.0000000E+000	0.0000000E+000	0.0000000E+000	16.5088	3.37404	73.4912	0.000000000000000E+000	-4.89995e-05	8.3084e-10	-4.90003e-05	2.6495	143259	2.42912	143262
0.0602816	39.7505	16.5271	43.0494	-22.5761	240.736	2.64946	-0.0184941	159749	23545	1	11	0.00502986	0.000116839	0	-0.00126675	-4.49245e-05	6.77548e-07	-34.2808	0.00579897	0.00479162	0.00326627	-22.5777	43.055	39.7553	16.5304	0.0214491	0.00891792	0.0232292	22.5761	2.3545e+07	5.66297e+07	6.13294e+07	-67.4239	0.0000000E+000	0.0000000E+000	0.0000000E+000	67.4239	0.0000000E+000	0.0000000E+000	0.0000000E+000	-67.4239	0.0000000E+000	0.0000000E+000	0.0000000E+000	-22.5761	0.0000000E+000	0.0000000E+000	0.0000000E+000	22.5761	2.40517	67.4239	0.000000000000000E+000	-4.89995e-05	8.3084e-10	-4.90003e-05	2.6495	143259	2.42912	143262
0.00796479	68.5668	60.158	91.2162	-41.2625	20329.6	2.64942	-0.00318609	332164	144476	1	11	0.00502189	5.50548e-05	0	-0.0392235	0.000412931	1.99157e-06	-1.95488	0.0361743	0.0361533	0.00123399	-41.2481	91.2442	68.603	60.1593	0.00824081	0.00723018	0.010963	41.2625	1.44476e+08	1.64671e+08	2.19065e+08	-48.7375	0.0000000E+000	0.0000000E+000	0.0000000E+000	48.7375	0.0000000E+000	0.0000000E+000	0.0000000E+000	-48.7375	0.0000000E+000	0.0000000E+000	0.0000000E+000	-41.2625	0.0000000E+000	0.0000000E+000	0.0000000E+000	41.2625	1.13978	48.7375	-0.0379568	-8.44129e-06	-1.31564e-09	-8.43997e-06	2.649	831556	129.604	831426
0.0019912	113.115	161.924	197.521	-55.0632	20329.6	2.64942	-0.00318609	493621	331736	1	11	0.00503456	2.54888e-05	0	-0.0392235	0.000412931	9.88133e-07	-19.0425	0.0387674	0.0366459	0.0126486	-55.0566	197.552	113.151	161.937	0.0028993	0.00415037	0.00506276	55.0632	3.31736e+08	2.31739e+08	4.04663e+08	-34.9368	0.0000000E+000	0.0000000E+000	0.0000000E+000	34.9368	0.0000000E+000	0.0000000E+000	0.0000000E+000	-34.9368	0.0000000E+000	0.0000000E+000	0.0000000E+000	-55.0632	0.0000000E+000	0.0000000E+000	0.0000000E+000	55.0632	0.698564	34.9368	0.000000000000000E+000	-8.44129e-06	-1.31564e-09	-8.43997e-06	2.649	831556	129.604	831426
0.000497799	250.297	452.414	517.037	-61.0465	20329.6	2.64942	-0.00318609	706692	541077	1	11	0.00503733	9.74269e-06	0	-0.0392235	0.000412931	9.55425e-07	14.6406	0.0980659	0.0948817	-0.0247867	-61.036	517.061	250.392	452.389	0.000936296	0.00169236	0.0019341	61.0465	5.41077e+08	2.9935e+08	6.18364e+08	-28.9535	0.0000000E+000	0.0000000E+000	0.0000000E+000	28.9535	0.0000000E+000	0.0000000E+000	0.0000000E+000	-28.9535	0.0000000E+000	0.0000000E+000	0.0000000E+000	-61.0465	0.0000000E+000	0.0000000E+000	0.0000000E+000	61.0465	0.553249	28.9535	0.000000000000000E+000	-8.44129e-06	-1.31564e-09	-8.43997e-06	2.649	831556	129.604	831426
9.95598e-05	-937.042	1294.18	1597.8	-125.906	20329.6	2.64942	-0.00318609	1.23521e+06	810379	1	11	0.00504068	3.15477e-06	0	-0.0392235	0.000412931	2.23585e-06	-107.709	0.708721	-0.215576	0.675139	-125.898	1598.47	-937.258	1294.86	-0.000367042	0.000506935	0.000625861	125.906	8.10379e+08	-5.86748e+08	1.00049e+09	35.9061	0.0000000E+000	0.0000000E+000	0.0000000E+000	-35.9061	0.0000000E+000	0.0000000E+000	0.0000000E+000	35.9061	0.0000000E+000	0.0000000E+000	0.0000000E+000	-125.906	0.0000000E+000	0.0000000E+000	0.0000000E+000	125.906	0.724042	35.9061	0.000000000000000E+000	-8.44129e-06	-1.31564e-09	-8.43997e-06	2.649	831556	129.604	831426