File: txt/19319_R313_UC98_SOC50_C03.mpt
EC-Lab ASCII FILE
Nb header lines : 65

Potentio Electrochemical Impedance Spectroscopy

Run on channel : 3 (SN 65921)
User :
CE vs. WE compliance from -10 V to 10 V
Electrode connection : standard
Potential control : Ewe
Ewe ctrl range : min = -10.00 V, max = 10.00 V
Safety Limits :
	Do not start on E overload
Acquisition started on : 11/18/2025 16:32:29.919
Technique started on : 11/18/2025 16:32:32.154
Loaded Setting File :  C:\Users\Celltest\OneDrive - store-dot.com\Documents\EC-Lab\Data\txt_done\19191_R297_UC94_SOC50_C08.mpr
Saved on :
	File : 19319_R313_UC98_SOC50_C03.mpr
	Directory : C:\Users\Celltest\OneDrive - store-dot.com\Documents\EC-Lab\Data\Michael\
	Host : 169.254.61.224
Device : VMP-3e (SN .003165)
Address : USB
EC-LAB for windows v11.62 (software)
Internet server v27.00 (firmware)
Command interpretor v12.03 (firmware)
Electrode material :
Initial state :
Electrolyte :
Comments :
Electrode surface area : 0.001 cm²
Characteristic mass : 0.001 g
Equivalent Weight : 0.000 g/eq.
Density : 0.000 g/cm3
Volume (V) : 0.001 cm³
Record Ece
Cycle Definition : Charge/Discharge alternance
Mode                Multi sine
E (V)               0.0000
vs.                 Eoc
tE (h:m:s)          0:00:0.0000
record              0
dI                  0.000
unit dI             mA
dt (s)              0.000
fi                  1.000
unit fi             MHz
ff                  0.100
unit ff             mHz
Nd                  10
Points              per decade
spacing             Logarithmic
Va (mV)             5.0
pw                  0.10
Na                  2
corr                0
E range min (V)     -10.000
E range max (V)     10.000
I Range             Auto
Bandwidth           5
nc cycles           0
goto Ns'            0
nr cycles           0
inc. cycle          0

freq/Hz	Re(Z)/Ohm	-Im(Z)/Ohm	|Z|/Ohm	Phase(Z)/deg	time/s	<Ewe>/V	<I>/mA	Cs/µF	Cp/µF	cycle number	I Range	|Ewe|/V	|I|/A	Ns	(Q-Qo)/mA.h	<Ece>/V	|Ece|/V	Phase(Zce)/deg	|Zce|/Ohm	Re(Zce)/Ohm	-Im(Zce)/Ohm	Phase(Zwe-ce)/deg	|Zwe-ce|/Ohm	Re(Zwe-ce)/Ohm	-Im(Zwe-ce)/Ohm	Re(Y)/Ohm-1	Im(Y)/Ohm-1	|Y|/Ohm-1	Phase(Y)/deg	Re(C)/nF	Im(C)/nF	|C|/nF	Phase(C)/deg	Re(M)	Im(M)	|M|	Phase(M)/deg	Re(Permittivity)	Im(Permittivity)	|Permittivity|	Phase(Permittivity)/deg	Re(Resistivity)/Ohm.cm	Im(Resistivity)/Ohm.cm	|Resistivity|/Ohm.cm	Phase(Resistivity)/deg	Re(Conductivity)/mS/cm	Im(Conductivity)/mS/cm	|Conductivity|/mS/cm	Phase(Conductivity)/deg	Tan(Delta)	Loss Angle(Delta)/deg	dq/mA.h	Pwe/W	Pce/W	Pwe-ce/W	<Ewe-Ece>/V	Rwe/Ohm	Rce/Ohm	Rwe-ce/Ohm		Ewe-Ece/V
1.00002e+06	0.986054	-0.217418	1.00974	12.4343	2.23455	3.88461	0.0416877	-0.73201	-0.0339382	1	9	0.000222313	0.000220169	0	-2.64876e-05	0.000231434	0.000202562	3.90295	0.920032	0.917898	-0.0626235	8.36731	1.92444	1.90395	-0.280041	0.967125	-0.213244	0.990355	-12.4343	-33.9382	153.92	157.617	-102.434	0.0000000E+000	0.0000000E+000	0.0000000E+000	102.434	0.0000000E+000	0.0000000E+000	0.0000000E+000	-102.434	0.0000000E+000	0.0000000E+000	0.0000000E+000	12.4343	0.0000000E+000	0.0000000E+000	0.0000000E+000	-12.4343	4.53529	77.5657	-2.64876e-05	0.00016194	9.64797e-09	0.000161931	3.88437	93183.4	5.55161	93177.8
251206	0.749713	0.260706	0.793749	-19.1747	4.53352	3.88419	-0.0229792	2.43018	0.262165	1	9	0.00203392	0.00256242	0	-3.99292e-05	-0.000284106	5.08975e-05	94.84	0.0198631	-0.00167592	-0.0197923	-17.8517	0.785875	0.748037	0.240914	1.18995	0.413794	1.25984	19.1747	262.165	753.908	798.19	-70.8253	0.0000000E+000	0.0000000E+000	0.0000000E+000	70.8253	0.0000000E+000	0.0000000E+000	0.0000000E+000	-70.8253	0.0000000E+000	0.0000000E+000	0.0000000E+000	-19.1747	0.0000000E+000	0.0000000E+000	0.0000000E+000	19.1747	2.8757	70.8253	-7.11682e-07	-8.92556e-05	6.52853e-09	-8.92621e-05	3.88447	169030	12.3636	169043
63093.8	1.17291	0.429167	1.24896	-20.0975	6.83553	3.88411	-0.0249558	5.8777	0.694002	1	9	0.00532028	0.00425976	0	-5.43376e-05	-9.31649e-05	2.53297e-05	80.58	0.00594627	0.000973228	-0.00586609	-19.8292	1.24787	1.17389	0.423301	0.751912	0.275124	0.800665	20.0975	694.002	1896.71	2019.69	-69.9025	0.0000000E+000	0.0000000E+000	0.0000000E+000	69.9025	0.0000000E+000	0.0000000E+000	0.0000000E+000	-69.9025	0.0000000E+000	0.0000000E+000	0.0000000E+000	-20.0975	0.0000000E+000	0.0000000E+000	0.0000000E+000	20.0975	2.733	69.9025	-9.7677e-06	-9.6931e-05	2.325e-09	-9.69333e-05	3.88421	155640	3.7332	155644
15847.7	1.55231	0.4182	1.60765	-15.0778	9.13554	3.8841	-0.0238743	24.0143	1.625	1	9	0.00519197	0.00322953	0	-6.83934e-05	0.00011687	9.09015e-06	-40.1844	0.0028147	0.00215035	0.00181618	-15.1203	1.6102	1.55446	0.420016	0.60061	0.161807	0.622024	15.0778	1625	6031.8	6246.86	-74.9222	0.0000000E+000	0.0000000E+000	0.0000000E+000	74.9222	0.0000000E+000	0.0000000E+000	0.0000000E+000	-74.9222	0.0000000E+000	0.0000000E+000	0.0000000E+000	-15.0778	0.0000000E+000	0.0000000E+000	0.0000000E+000	15.0778	3.71188	74.9222	-4.14396e-06	-9.273e-05	-2.79018e-09	-9.27272e-05	3.88398	162690	4.89522	162685
3983.6	1.88177	0.511512	1.95005	-15.207	10.8621	3.88399	-0.0607203	78.1068	5.37412	1	9	0.00543116	0.00278514	0	-7.93228e-05	-0.000169541	7.93117e-06	-48.8763	0.00284768	0.00187288	0.00214513	-15.2533	1.95242	1.88364	0.513657	0.49485	0.134513	0.512807	15.207	5374.12	19770.5	20487.9	-74.793	0.0000000E+000	0.0000000E+000	0.0000000E+000	74.793	0.0000000E+000	0.0000000E+000	0.0000000E+000	-74.793	0.0000000E+000	0.0000000E+000	0.0000000E+000	-15.207	0.0000000E+000	0.0000000E+000	0.0000000E+000	15.207	3.67884	74.793	-2.57756e-06	-0.000235837	1.02946e-08	-0.000235847	3.88416	63965.2	2.79216	63968
1000.32	2.34589	0.84828	2.49455	-19.8801	13.4898	3.88401	-0.0250677	187.561	21.6888	1	9	0.00529008	0.00212066	0	-0.000102944	-7.40708e-05	8.2272e-06	-0.87589	0.00387955	0.0038791	5.9305e-05	-19.8512	2.49822	2.34977	0.848339	0.376984	0.136319	0.400874	19.8801	21688.9	59979.7	63780.7	-70.1199	0.0000000E+000	0.0000000E+000	0.0000000E+000	70.1199	0.0000000E+000	0.0000000E+000	0.0000000E+000	-70.1199	0.0000000E+000	0.0000000E+000	0.0000000E+000	-19.8801	0.0000000E+000	0.0000000E+000	0.0000000E+000	19.8801	2.76546	70.1199	-5.57002e-06	-9.73632e-05	1.85678e-09	-9.73651e-05	3.88409	154941	2.95483	154944
251.044	3.44629	1.40967	3.72345	-22.2465	16.437	3.88404	-0.0698463	449.731	64.4608	1	10	0.00526127	0.00141301	0	-0.000143999	7.86817e-05	2.91927e-06	-138.405	0.00206599	-0.00154506	0.00137154	-22.275	3.72254	3.44475	1.41104	0.248577	0.101678	0.268568	22.2465	64460.8	157591	170264	-67.7535	0.0000000E+000	0.0000000E+000	0.0000000E+000	67.7535	0.0000000E+000	0.0000000E+000	0.0000000E+000	-67.7535	0.0000000E+000	0.0000000E+000	0.0000000E+000	-22.2465	0.0000000E+000	0.0000000E+000	0.0000000E+000	22.2465	2.44475	67.7535	-7.6402e-06	-0.000271286	-5.49563e-09	-0.00027128	3.88396	55608.3	1.1265	55607.2
63.0823	4.96215	1.03718	5.06938	-11.8059	19.157	3.88405	-0.0653418	2432.53	101.825	1	10	0.00523614	0.0010329	0	-0.000192065	-0.000150447	9.87753e-06	-35.1582	0.00956296	0.00781834	0.00550669	-11.8487	5.07817	4.96997	1.04269	0.19309	0.0403593	0.197263	11.8059	101825	487160	497688	-78.1941	0.0000000E+000	0.0000000E+000	0.0000000E+000	78.1941	0.0000000E+000	0.0000000E+000	0.0000000E+000	-78.1941	0.0000000E+000	0.0000000E+000	0.0000000E+000	-11.8059	0.0000000E+000	0.0000000E+000	0.0000000E+000	11.8059	4.78427	78.1941	-8.74062e-06	-0.000253791	9.83049e-09	-0.000253801	3.8842	59442	2.30246	59444.3
15.8576	5.44215	0.431475	5.45922	-4.53316	21.815	3.88402	-0.0710619	23260.9	145.304	1	10	0.00519913	0.000952356	0	-0.000233505	-0.000360482	1.58869e-05	42.8966	0.0166817	0.0122207	-0.0113548	-4.40449	5.47052	5.45437	0.420121	0.182603	0.0144775	0.183176	4.53316	145304	1.8327e+06	1.83845e+06	-85.4668	0.0000000E+000	0.0000000E+000	0.0000000E+000	85.4668	0.0000000E+000	0.0000000E+000	0.0000000E+000	-85.4668	0.0000000E+000	0.0000000E+000	0.0000000E+000	-4.53316	0.0000000E+000	0.0000000E+000	0.0000000E+000	4.53316	12.6129	85.4668	-4.2569e-06	-0.000276006	2.56165e-08	-0.000276032	3.88438	54656.9	5.07278	54662
3.97785	5.60787	0.229231	5.61255	-2.34076	24.7273	3.88405	-0.0625657	174541	291.155	1	10	0.00522808	0.000931497	0	-0.000284344	-0.000169541	7.95331e-06	27.6232	0.0085382	0.00756498	-0.00395877	-2.29728	5.61995	5.61544	0.225273	0.178023	0.00727701	0.178172	2.34076	291155	7.12276e+06	7.12871e+06	-87.6592	0.0000000E+000	0.0000000E+000	0.0000000E+000	87.6592	0.0000000E+000	0.0000000E+000	0.0000000E+000	-87.6592	0.0000000E+000	0.0000000E+000	0.0000000E+000	-2.34076	0.0000000E+000	0.0000000E+000	0.0000000E+000	2.34076	24.4638	87.6592	-2.38063e-06	-0.000243008	1.06075e-08	-0.000243019	3.88422	62079.6	2.70981	62082.3
1.00469	5.7453	0.28972	5.7526	-2.88682	240.086	3.88405	-0.0393068	546775	1386.87	1	11	0.00503787	0.000875755	0	-0.00621775	5.95877e-05	6.59911e-07	-1.16187	0.000753534	0.000753379	1.52794e-05	-2.8866	5.75335	5.74605	0.289735	0.173614	0.00875487	0.173834	2.88682	1.38687e+06	2.75024e+07	2.75374e+07	-87.1132	0.0000000E+000	0.0000000E+000	0.0000000E+000	87.1132	0.0000000E+000	0.0000000E+000	0.0000000E+000	-87.1132	0.0000000E+000	0.0000000E+000	0.0000000E+000	-2.88682	0.0000000E+000	0.0000000E+000	0.0000000E+000	2.88682	19.8305	87.1132	-0.00583254	-0.00015267	-2.3422e-09	-0.000152667	3.88399	98813.8	1.51596	98812.2
0.251173	6.0096	0.593016	6.03879	-5.6356	240.091	3.88405	-0.0393068	1.06851e+06	10304.2	1	11	0.00506712	0.000839096	0	-0.00621775	5.95877e-05	4.48988e-07	-10.4019	0.000535085	0.000526291	9.66101e-05	-5.63602	6.03932	6.01012	0.593113	0.164796	0.0162618	0.165596	5.6356	1.03042e+07	1.04422e+08	1.04929e+08	-84.3644	0.0000000E+000	0.0000000E+000	0.0000000E+000	84.3644	0.0000000E+000	0.0000000E+000	0.0000000E+000	-84.3644	0.0000000E+000	0.0000000E+000	0.0000000E+000	-5.6356	0.0000000E+000	0.0000000E+000	0.0000000E+000	5.6356	10.1339	84.3644	0.000000000000000E+000	-0.00015267	-2.3422e-09	-0.000152667	3.88399	98813.8	1.51596	98812.2
0.0602816	6.58669	1.12263	6.68168	-9.67249	240.097	3.88405	-0.0393068	2.35179e+06	66389.7	1	11	0.00505813	0.000757015	0	-0.00621775	5.95877e-05	4.58013e-07	32.7456	0.000605026	0.000508875	-0.000327264	-9.66899	6.68213	6.5872	1.1223	0.147535	0.0251458	0.149663	9.67249	6.63897e+07	3.89522e+08	3.95139e+08	-80.3275	0.0000000E+000	0.0000000E+000	0.0000000E+000	80.3275	0.0000000E+000	0.0000000E+000	0.0000000E+000	-80.3275	0.0000000E+000	0.0000000E+000	0.0000000E+000	-9.67249	0.0000000E+000	0.0000000E+000	0.0000000E+000	9.67249	5.8672	80.3275	0.000000000000000E+000	-0.00015267	-2.3422e-09	-0.000152667	3.88399	98813.8	1.51596	98812.2
0.00796479	8.40073	2.38744	8.73339	-15.8648	20328.9	3.88409	-0.000625648	8.36978e+06	625478	1	11	0.00505352	0.000578643	0	-0.0706661	-0.000112259	3.30212e-07	12.9658	0.000570665	0.000556116	-0.00012804	-15.863	8.73389	8.40129	2.38731	0.110142	0.0313016	0.114503	15.8648	6.25478e+08	2.20088e+09	2.28804e+09	-74.1352	0.0000000E+000	0.0000000E+000	0.0000000E+000	74.1352	0.0000000E+000	0.0000000E+000	0.0000000E+000	-74.1352	0.0000000E+000	0.0000000E+000	0.0000000E+000	-15.8648	0.0000000E+000	0.0000000E+000	0.0000000E+000	15.8648	3.51872	74.1352	-0.0644484	-2.43008e-06	7.02346e-11	-2.43015e-06	3.88421	6.20811e+06	179.428	6.20829e+06
0.0019912	10.0163	4.0387	10.7998	-21.96	20328.9	3.88409	-0.000625648	1.97909e+07	2.76766e+06	1	11	0.00506519	0.000469006	0	-0.0706661	-0.000112259	4.04884e-07	2.84723	0.000863282	0.000862216	-4.28818e-05	-21.9581	10.8006	10.0171	4.03865	0.0858758	0.0346263	0.0925939	21.96	2.76766e+09	6.86399e+09	7.40097e+09	-68.04	0.0000000E+000	0.0000000E+000	0.0000000E+000	68.04	0.0000000E+000	0.0000000E+000	0.0000000E+000	-68.04	0.0000000E+000	0.0000000E+000	0.0000000E+000	-21.96	0.0000000E+000	0.0000000E+000	0.0000000E+000	21.96	2.48007	68.04	0.000000000000000E+000	-2.43008e-06	7.02346e-11	-2.43015e-06	3.88421	6.20811e+06	179.428	6.20829e+06
0.000497799	10.5959	10.9496	15.237	-45.9406	20328.9	3.88409	-0.000625648	2.9199e+07	1.50788e+07	1	11	0.0050687	0.000332657	0	-0.0706661	-0.000112259	4.79308e-07	-92.76	0.00144085	-6.93802e-05	0.00143918	-45.9446	15.238	10.5958	10.951	0.0456392	0.0471628	0.0656297	45.9406	1.50788e+10	1.45916e+10	2.09829e+10	-44.0594	0.0000000E+000	0.0000000E+000	0.0000000E+000	44.0594	0.0000000E+000	0.0000000E+000	0.0000000E+000	-44.0594	0.0000000E+000	0.0000000E+000	0.0000000E+000	-45.9406	0.0000000E+000	0.0000000E+000	0.0000000E+000	45.9406	0.967694	44.0594	0.000000000000000E+000	-2.43008e-06	7.02346e-11	-2.43015e-06	3.88421	6.20811e+06	179.428	6.20829e+06
9.95598e-05	6.30228	78.7997	79.0513	-85.4273	20328.9	3.88409	-0.000625648	2.02867e+07	2.01578e+07	1	11	0.00506574	6.40817e-05	0	-0.0706661	-0.000112259	1.53525e-06	32.8052	0.0239578	0.0201369	-0.0129799	-85.412	79.04	6.32242	78.7867	0.00100851	0.0126097	0.01265	85.4273	2.01578e+10	1.61219e+09	2.02221e+10	-4.5727	0.0000000E+000	0.0000000E+000	0.0000000E+000	4.5727	0.0000000E+000	0.0000000E+000	0.0000000E+000	-4.5727	0.0000000E+000	0.0000000E+000	0.0000000E+000	-85.4273	0.0000000E+000	0.0000000E+000	0.0000000E+000	85.4273	0.0799785	4.57269	0.000000000000000E+000	-2.43008e-06	7.02346e-11	-2.43015e-06	3.88421	6.20811e+06	179.428	6.20829e+06