File: txt/19317_R313_UC97_SOC50_C01.mpt
EC-Lab ASCII FILE
Nb header lines : 65

Potentio Electrochemical Impedance Spectroscopy

Run on channel : 1 (SN 66354)
User :
CE vs. WE compliance from -10 V to 10 V
Electrode connection : standard
Potential control : Ewe
Ewe ctrl range : min = -10.00 V, max = 10.00 V
Safety Limits :
	Do not start on E overload
Acquisition started on : 11/18/2025 16:31:48.690
Technique started on : 11/18/2025 16:31:51.384
Loaded Setting File :  C:\Users\Celltest\OneDrive - store-dot.com\Documents\EC-Lab\Data\txt_done\19191_R297_UC94_SOC50_C08.mpr
Saved on :
	File : 19317_R313_UC97_SOC50_C01.mpr
	Directory : C:\Users\Celltest\OneDrive - store-dot.com\Documents\EC-Lab\Data\Michael\
	Host : 169.254.61.224
Device : VMP-3e (SN .003165)
Address : USB
EC-LAB for windows v11.62 (software)
Internet server v27.00 (firmware)
Command interpretor v12.03 (firmware)
Electrode material :
Initial state :
Electrolyte :
Comments :
Electrode surface area : 0.001 cm²
Characteristic mass : 0.001 g
Equivalent Weight : 0.000 g/eq.
Density : 0.000 g/cm3
Volume (V) : 0.001 cm³
Record Ece
Cycle Definition : Charge/Discharge alternance
Mode                Multi sine
E (V)               0.0000
vs.                 Eoc
tE (h:m:s)          0:00:0.0000
record              0
dI                  0.000
unit dI             mA
dt (s)              0.000
fi                  1.000
unit fi             MHz
ff                  0.100
unit ff             mHz
Nd                  10
Points              per decade
spacing             Logarithmic
Va (mV)             5.0
pw                  0.10
Na                  2
corr                0
E range min (V)     -10.000
E range max (V)     10.000
I Range             Auto
Bandwidth           5
nc cycles           0
goto Ns'            0
nr cycles           0
inc. cycle          0

freq/Hz	Re(Z)/Ohm	-Im(Z)/Ohm	|Z|/Ohm	Phase(Z)/deg	time/s	<Ewe>/V	<I>/mA	Cs/µF	Cp/µF	cycle number	I Range	|Ewe|/V	|I|/A	Ns	(Q-Qo)/mA.h	<Ece>/V	|Ece|/V	Phase(Zce)/deg	|Zce|/Ohm	Re(Zce)/Ohm	-Im(Zce)/Ohm	Phase(Zwe-ce)/deg	|Zwe-ce|/Ohm	Re(Zwe-ce)/Ohm	-Im(Zwe-ce)/Ohm	Re(Y)/Ohm-1	Im(Y)/Ohm-1	|Y|/Ohm-1	Phase(Y)/deg	Re(C)/nF	Im(C)/nF	|C|/nF	Phase(C)/deg	Re(M)	Im(M)	|M|	Phase(M)/deg	Re(Permittivity)	Im(Permittivity)	|Permittivity|	Phase(Permittivity)/deg	Re(Resistivity)/Ohm.cm	Im(Resistivity)/Ohm.cm	|Resistivity|/Ohm.cm	Phase(Resistivity)/deg	Re(Conductivity)/mS/cm	Im(Conductivity)/mS/cm	|Conductivity|/mS/cm	Phase(Conductivity)/deg	Tan(Delta)	Loss Angle(Delta)/deg	dq/mA.h	Pwe/W	Pce/W	Pwe-ce/W	<Ewe-Ece>/V	Rwe/Ohm	Rce/Ohm	Rwe-ce/Ohm		Ewe-Ece/V
1.00002e+06	1.06136	-0.236012	1.08728	12.5368	2.69352	3.88354	0.0863137	-0.67434	-0.0317733	1	9	0.000215991	0.000198653	0	-1.35195e-05	-0.000389938	0.000192914	-4.86594	0.971112	0.967612	0.0823742	4.33028	2.03478	2.02897	-0.153637	0.897797	-0.199641	0.919726	-12.5368	-31.7733	142.886	146.376	-102.537	0.0000000E+000	0.0000000E+000	0.0000000E+000	102.537	0.0000000E+000	0.0000000E+000	0.0000000E+000	-102.537	0.0000000E+000	0.0000000E+000	0.0000000E+000	12.5368	0.0000000E+000	0.0000000E+000	0.0000000E+000	-12.5368	4.49705	77.4632	-1.35195e-05	0.000335203	-3.3657e-08	0.000335237	3.88393	44993.4	4.51768	44997.9
251206	0.72642	0.258201	0.770943	-19.5674	4.99454	3.88324	0.039038	2.45376	0.275235	1	9	0.0019516	0.00253144	0	9.77051e-06	-8.3915e-06	6.10797e-05	113.889	0.0241284	-0.00977106	-0.0220615	-18.2373	0.754551	0.716649	0.23614	1.2222	0.434423	1.29711	19.5674	275.235	774.342	821.802	-70.4326	0.0000000E+000	0.0000000E+000	0.0000000E+000	70.4326	0.0000000E+000	0.0000000E+000	0.0000000E+000	-70.4326	0.0000000E+000	0.0000000E+000	0.0000000E+000	-19.5674	0.0000000E+000	0.0000000E+000	0.0000000E+000	19.5674	2.81339	70.4326	3.25371e-06	0.000151594	-3.27587e-10	0.000151594	3.88325	99473.5	0.214957	99473.7
63093.8	1.16123	0.454621	1.24705	-21.3803	7.29256	3.88319	0.0396713	5.54861	0.737422	1	9	0.00532184	0.00426755	0	-1.22334e-05	0.000163304	2.93493e-05	56.609	0.00687733	0.00378493	-0.00574211	-21.0716	1.2485	1.16501	0.448878	0.746708	0.292336	0.801894	21.3803	737.422	1883.58	2022.79	-68.6197	0.0000000E+000	0.0000000E+000	0.0000000E+000	68.6197	0.0000000E+000	0.0000000E+000	0.0000000E+000	-68.6197	0.0000000E+000	0.0000000E+000	0.0000000E+000	-21.3803	0.0000000E+000	0.0000000E+000	0.0000000E+000	21.3803	2.55428	68.6197	7.04965e-06	0.000154051	6.4785e-09	0.000154045	3.88302	97883.9	4.11643	97879.8
15847.7	1.56194	0.435594	1.62155	-15.5827	9.59355	3.88318	0.0374733	23.0554	1.66371	1	9	0.00508558	0.00313626	0	2.16269e-05	0.000220536	6.60328e-06	22.6478	0.00210547	0.00194311	-0.000810742	-15.5367	1.6232	1.56389	0.434784	0.594028	0.165662	0.616696	15.5827	1663.71	5965.7	6193.35	-74.4173	0.0000000E+000	0.0000000E+000	0.0000000E+000	74.4173	0.0000000E+000	0.0000000E+000	0.0000000E+000	-74.4173	0.0000000E+000	0.0000000E+000	0.0000000E+000	-15.5827	0.0000000E+000	0.0000000E+000	0.0000000E+000	15.5827	3.58577	74.4173	5.13801e-06	0.000145516	8.26422e-09	0.000145507	3.88296	103625	5.88516	103619
3983.6	1.89856	0.502115	1.96384	-14.8139	11.4421	3.88306	-0.0154651	79.5685	5.20161	1	9	0.00522995	0.00266313	0	3.49699e-05	0.000163304	1.57353e-05	-32.0998	0.00590859	0.0050053	0.00313979	-14.865	1.96948	1.90356	0.505255	0.492282	0.130195	0.509208	14.8139	5201.61	19667.9	20344.1	-75.1861	0.0000000E+000	0.0000000E+000	0.0000000E+000	75.1861	0.0000000E+000	0.0000000E+000	0.0000000E+000	-75.1861	0.0000000E+000	0.0000000E+000	0.0000000E+000	-14.8139	0.0000000E+000	0.0000000E+000	0.0000000E+000	14.8139	3.78112	75.1861	-2.48472e-06	-6.0052e-05	-2.52552e-09	-6.00495e-05	3.8829	251085	10.5595	251074
1000.32	2.32758	0.812459	2.46531	-19.2419	14.0708	3.88306	0.00208166	195.83	21.2687	1	9	0.00512641	0.00207942	0	2.90815e-05	0.000163304	1.31613e-05	75.5598	0.00632931	0.00157834	-0.00612936	-19.0953	2.46479	2.32916	0.80633	0.382969	0.133678	0.405629	19.2419	21268.7	60931.9	64537.2	-70.7581	0.0000000E+000	0.0000000E+000	0.0000000E+000	70.7581	0.0000000E+000	0.0000000E+000	0.0000000E+000	-70.7581	0.0000000E+000	0.0000000E+000	0.0000000E+000	-19.2419	0.0000000E+000	0.0000000E+000	0.0000000E+000	19.2419	2.86486	70.7581	1.97957e-06	8.08321e-06	3.39944e-10	8.08287e-06	3.8829	1.86537e+06	78.4491	1.86529e+06
251.044	3.41438	1.4368	3.70438	-22.8217	17.017	3.88309	-0.0509551	441.239	66.3797	1	10	0.00509349	0.00137499	0	6.0467e-06	0.000106072	1.54547e-05	77.115	0.0112398	0.00250642	-0.0109568	-22.6504	3.70245	3.41689	1.42584	0.248818	0.104705	0.269951	22.8217	66379.7	157744	171141	-67.1783	0.0000000E+000	0.0000000E+000	0.0000000E+000	67.1783	0.0000000E+000	0.0000000E+000	0.0000000E+000	-67.1783	0.0000000E+000	0.0000000E+000	0.0000000E+000	-22.8217	0.0000000E+000	0.0000000E+000	0.0000000E+000	22.8217	2.37638	67.1783	-6.35352e-06	-0.000197864	-5.40493e-09	-0.000197858	3.88299	76206.1	2.08168	76204
63.0823	4.98292	1.09576	5.10198	-12.4022	19.738	3.8831	-0.0477314	2302.48	106.207	1	10	0.00506059	0.000991887	0	-3.26564e-05	0.00012515	5.60579e-06	-25.3096	0.00565164	0.00510914	0.00241613	-12.4163	5.10749	4.98803	1.09818	0.191428	0.0420958	0.196002	12.4022	106207	482968	494508	-77.5978	0.0000000E+000	0.0000000E+000	0.0000000E+000	77.5978	0.0000000E+000	0.0000000E+000	0.0000000E+000	-77.5978	0.0000000E+000	0.0000000E+000	0.0000000E+000	-12.4022	0.0000000E+000	0.0000000E+000	0.0000000E+000	12.4022	4.54744	77.5978	-5.78255e-06	-0.000185346	-5.97356e-09	-0.00018534	3.88297	81353.2	2.62196	81350.6
15.8576	5.51567	0.441747	5.53333	-4.57902	22.396	3.88309	-0.0513987	22720.1	144.805	1	10	0.00505103	0.000912838	0	-6.16761e-05	-0.000180087	1.23634e-05	81.5438	0.0135439	0.00199168	-0.0133967	-4.43912	5.53426	5.51766	0.428351	0.180146	0.0144278	0.180723	4.57902	144805	1.80804e+06	1.81383e+06	-85.421	0.0000000E+000	0.0000000E+000	0.0000000E+000	85.421	0.0000000E+000	0.0000000E+000	0.0000000E+000	-85.421	0.0000000E+000	0.0000000E+000	0.0000000E+000	-4.57902	0.0000000E+000	0.0000000E+000	0.0000000E+000	4.57902	12.486	85.421	-2.86777e-06	-0.000199585	9.25624e-09	-0.000199595	3.88327	75548.4	3.50374	75551.9
3.97785	5.65677	0.218013	5.66097	-2.20709	25.3083	3.88311	-0.0378214	183523	272.189	1	10	0.00505271	0.000892552	0	-0.000106549	1.06858e-05	4.91148e-06	-73.8013	0.00550274	0.00153509	0.00528428	-2.25992	5.66271	5.65831	0.223297	0.176517	0.00680299	0.176648	2.20709	272189	7.0625e+06	7.06774e+06	-87.7929	0.0000000E+000	0.0000000E+000	0.0000000E+000	87.7929	0.0000000E+000	0.0000000E+000	0.0000000E+000	-87.7929	0.0000000E+000	0.0000000E+000	0.0000000E+000	-2.20709	0.0000000E+000	0.0000000E+000	0.0000000E+000	2.20709	25.947	87.7929	-9.93588e-06	-0.000146865	-4.04152e-10	-0.000146864	3.8831	102670	0.282533	102669
1.00469	5.81832	0.252244	5.82378	-2.48241	240.565	3.8831	-0.0292995	628009	1178.14	1	11	0.00500898	0.00086009	0	-0.00530549	-4.65461e-05	5.96966e-07	-1.30779	0.000694073	0.000693892	1.58411e-05	-2.48227	5.82447	5.81901	0.25226	0.171549	0.00743722	0.17171	2.48241	1.17814e+06	2.71753e+07	2.72008e+07	-87.5176	0.0000000E+000	0.0000000E+000	0.0000000E+000	87.5176	0.0000000E+000	0.0000000E+000	0.0000000E+000	-87.5176	0.0000000E+000	0.0000000E+000	0.0000000E+000	-2.48241	0.0000000E+000	0.0000000E+000	0.0000000E+000	2.48241	23.0662	87.5176	-0.00511686	-0.000113773	1.36378e-09	-0.000113774	3.88315	132531	1.58863	132533
0.251173	6.02534	0.52101	6.04782	-4.94207	240.567	3.8831	-0.0292995	1.21619e+06	9025.99	1	11	0.00503636	0.000832756	0	-0.00530549	-4.65461e-05	4.56047e-07	-2.64204	0.000547635	0.000547053	2.52437e-05	-4.94186	6.04837	6.02589	0.521036	0.164734	0.0142445	0.165349	4.94207	9.02599e+06	1.04383e+08	1.04773e+08	-85.0579	0.0000000E+000	0.0000000E+000	0.0000000E+000	85.0579	0.0000000E+000	0.0000000E+000	0.0000000E+000	-85.0579	0.0000000E+000	0.0000000E+000	0.0000000E+000	-4.94207	0.0000000E+000	0.0000000E+000	0.0000000E+000	4.94207	11.5647	85.0579	0.000000000000000E+000	-0.000113773	1.36378e-09	-0.000113774	3.88315	132531	1.58863	132533
0.0602816	6.56081	1.08365	6.6497	-9.37884	240.57	3.8831	-0.0292995	2.4364e+06	64702.1	1	11	0.005029	0.000756275	0	-0.00530549	-4.65461e-05	7.49832e-07	10.3946	0.00099148	0.000975209	-0.00017889	-9.37595	6.65063	6.56178	1.08347	0.148372	0.0245066	0.150383	9.37884	6.47021e+07	3.91732e+08	3.97039e+08	-80.6212	0.0000000E+000	0.0000000E+000	0.0000000E+000	80.6212	0.0000000E+000	0.0000000E+000	0.0000000E+000	-80.6212	0.0000000E+000	0.0000000E+000	0.0000000E+000	-9.37884	0.0000000E+000	0.0000000E+000	0.0000000E+000	9.37884	6.05438	80.6212	0.000000000000000E+000	-0.000113773	1.36378e-09	-0.000113774	3.88315	132531	1.58863	132533
0.00796479	8.35501	2.36072	8.68212	-15.7777	20329.5	3.88316	-4.02775e-06	8.4645e+06	625806	1	11	0.00502293	0.000578538	0	-0.0661997	-4.65461e-05	4.07308e-07	-8.48939	0.000704029	0.000696316	0.000103933	-15.7771	8.68281	8.3557	2.36082	0.11084	0.031318	0.115179	15.7777	6.25806e+08	2.21484e+09	2.30155e+09	-74.2223	0.0000000E+000	0.0000000E+000	0.0000000E+000	74.2223	0.0000000E+000	0.0000000E+000	0.0000000E+000	-74.2223	0.0000000E+000	0.0000000E+000	0.0000000E+000	-15.7777	0.0000000E+000	0.0000000E+000	0.0000000E+000	15.7777	3.53918	74.2223	-0.0608942	-1.56404e-08	1.87476e-13	-1.56406e-08	3.8832	9.64101e+08	11556.4	9.64112e+08
0.0019912	9.92208	4.05081	10.7171	-22.2083	20329.5	3.88316	-4.02775e-06	1.97317e+07	2.81897e+06	1	11	0.00503471	0.000469782	0	-0.0661997	-4.65461e-05	6.18125e-07	-46.7356	0.00131577	0.000901786	0.000958143	-22.2112	10.7183	9.92299	4.05177	0.0863866	0.0352683	0.0933086	22.2083	2.81897e+09	6.90482e+09	7.45809e+09	-67.7917	0.0000000E+000	0.0000000E+000	0.0000000E+000	67.7917	0.0000000E+000	0.0000000E+000	0.0000000E+000	-67.7917	0.0000000E+000	0.0000000E+000	0.0000000E+000	-22.2083	0.0000000E+000	0.0000000E+000	0.0000000E+000	22.2083	2.44941	67.7917	0.000000000000000E+000	-1.56404e-08	1.87476e-13	-1.56406e-08	3.8832	9.64101e+08	11556.4	9.64112e+08
0.000497799	10.5713	11.2138	15.4111	-46.6894	20329.5	3.88316	-4.02775e-06	2.85111e+07	1.50957e+07	1	11	0.00503922	0.000326987	0	-0.0661997	-4.65461e-05	5.34578e-07	-8.72044	0.00163486	0.00161596	0.000247866	-46.6857	15.4123	10.5729	11.214	0.0445104	0.0472159	0.0648885	46.6894	1.50957e+10	1.42307e+10	2.0746e+10	-43.3106	0.0000000E+000	0.0000000E+000	0.0000000E+000	43.3106	0.0000000E+000	0.0000000E+000	0.0000000E+000	-43.3106	0.0000000E+000	0.0000000E+000	0.0000000E+000	-46.6894	0.0000000E+000	0.0000000E+000	0.0000000E+000	46.6894	0.9427	43.3106	0.000000000000000E+000	-1.56404e-08	1.87476e-13	-1.56406e-08	3.8832	9.64101e+08	11556.4	9.64112e+08
9.95598e-05	5.9119	80.299	80.5163	-85.7893	20329.5	3.88316	-4.02775e-06	1.99079e+07	1.98006e+07	1	11	0.00503242	6.25019e-05	0	-0.0661997	-4.65461e-05	1.37564e-06	-49.2394	0.0220096	0.0143701	0.016671	-85.7799	80.534	5.92627	80.3157	0.000911925	0.0123863	0.0124198	85.7893	1.98006e+10	1.45779e+09	1.98542e+10	-4.21072	0.0000000E+000	0.0000000E+000	0.0000000E+000	4.21072	0.0000000E+000	0.0000000E+000	0.0000000E+000	-4.21072	0.0000000E+000	0.0000000E+000	0.0000000E+000	-85.7893	0.0000000E+000	0.0000000E+000	0.0000000E+000	85.7893	0.0736236	4.21072	0.000000000000000E+000	-1.56404e-08	1.87476e-13	-1.56406e-08	3.8832	9.64101e+08	11556.4	9.64112e+08