File: txt/19318_R313_UC97_SOC50_C02.mpt
EC-Lab ASCII FILE
Nb header lines : 65

Potentio Electrochemical Impedance Spectroscopy

Run on channel : 2 (SN 66139)
User :
CE vs. WE compliance from -10 V to 10 V
Electrode connection : standard
Potential control : Ewe
Ewe ctrl range : min = -10.00 V, max = 10.00 V
Safety Limits :
	Do not start on E overload
Acquisition started on : 11/18/2025 16:32:09.434
Technique started on : 11/18/2025 16:32:11.208
Loaded Setting File :  C:\Users\Celltest\OneDrive - store-dot.com\Documents\EC-Lab\Data\txt_done\19191_R297_UC94_SOC50_C08.mpr
Saved on :
	File : 19318_R313_UC97_SOC50_C02.mpr
	Directory : C:\Users\Celltest\OneDrive - store-dot.com\Documents\EC-Lab\Data\Michael\
	Host : 169.254.61.224
Device : VMP-3e (SN .003165)
Address : USB
EC-LAB for windows v11.62 (software)
Internet server v27.00 (firmware)
Command interpretor v12.03 (firmware)
Electrode material :
Initial state :
Electrolyte :
Comments :
Electrode surface area : 0.001 cm²
Characteristic mass : 0.001 g
Equivalent Weight : 0.000 g/eq.
Density : 0.000 g/cm3
Volume (V) : 0.001 cm³
Record Ece
Cycle Definition : Charge/Discharge alternance
Mode                Multi sine
E (V)               0.0000
vs.                 Eoc
tE (h:m:s)          0:00:0.0000
record              0
dI                  0.000
unit dI             mA
dt (s)              0.000
fi                  1.000
unit fi             MHz
ff                  0.100
unit ff             mHz
Nd                  10
Points              per decade
spacing             Logarithmic
Va (mV)             5.0
pw                  0.10
Na                  2
corr                0
E range min (V)     -10.000
E range max (V)     10.000
I Range             Auto
Bandwidth           5
nc cycles           0
goto Ns'            0
nr cycles           0
inc. cycle          0

freq/Hz	Re(Z)/Ohm	-Im(Z)/Ohm	|Z|/Ohm	Phase(Z)/deg	time/s	<Ewe>/V	<I>/mA	Cs/µF	Cp/µF	cycle number	I Range	|Ewe|/V	|I|/A	Ns	(Q-Qo)/mA.h	<Ece>/V	|Ece|/V	Phase(Zce)/deg	|Zce|/Ohm	Re(Zce)/Ohm	-Im(Zce)/Ohm	Phase(Zwe-ce)/deg	|Zwe-ce|/Ohm	Re(Zwe-ce)/Ohm	-Im(Zwe-ce)/Ohm	Re(Y)/Ohm-1	Im(Y)/Ohm-1	|Y|/Ohm-1	Phase(Y)/deg	Re(C)/nF	Im(C)/nF	|C|/nF	Phase(C)/deg	Re(M)	Im(M)	|M|	Phase(M)/deg	Re(Permittivity)	Im(Permittivity)	|Permittivity|	Phase(Permittivity)/deg	Re(Resistivity)/Ohm.cm	Im(Resistivity)/Ohm.cm	|Resistivity|/Ohm.cm	Phase(Resistivity)/deg	Re(Conductivity)/mS/cm	Im(Conductivity)/mS/cm	|Conductivity|/mS/cm	Phase(Conductivity)/deg	Tan(Delta)	Loss Angle(Delta)/deg	dq/mA.h	Pwe/W	Pce/W	Pwe-ce/W	<Ewe-Ece>/V	Rwe/Ohm	Rce/Ohm	Rwe-ce/Ohm		Ewe-Ece/V
1.00002e+06	1.88969	2.84832	3.41816	-56.4381	1.77355	3.88295	-0.118123	0.0558757	0.0387985	1	10	0.000195033	5.70579e-05	0	-5.19871e-05	-0.000131766	0.000178165	-68.8219	3.12253	1.12807	2.91164	-62.3491	6.50262	3.01776	5.75996	0.161735	0.243783	0.292555	56.4381	38.7985	25.7404	46.5607	-33.5619	0.0000000E+000	0.0000000E+000	0.0000000E+000	33.5619	0.0000000E+000	0.0000000E+000	0.0000000E+000	-33.5619	0.0000000E+000	0.0000000E+000	0.0000000E+000	-56.4381	0.0000000E+000	0.0000000E+000	0.0000000E+000	56.4381	0.663439	33.5619	-5.19871e-05	-0.000458665	1.55646e-08	-0.000458681	3.88308	32872.2	1.1155	32873.3
251206	0.766167	0.235105	0.801427	-17.0591	4.47653	3.88295	-0.0686047	2.69481	0.231912	1	9	0.00170912	0.00213259	0	-0.000112338	0.000250051	3.24095e-05	77.6494	0.0151972	0.00325058	-0.0148455	-15.9747	0.800323	0.769417	0.22026	1.19287	0.366045	1.24777	17.0591	231.912	755.761	790.543	-72.9409	0.0000000E+000	0.0000000E+000	0.0000000E+000	72.9409	0.0000000E+000	0.0000000E+000	0.0000000E+000	-72.9409	0.0000000E+000	0.0000000E+000	0.0000000E+000	-17.0591	0.0000000E+000	0.0000000E+000	0.0000000E+000	17.0591	3.25882	72.9409	-7.91915e-06	-0.000266389	-1.71547e-08	-0.000266372	3.8827	56599	3.64481	56595.3
63093.8	1.17016	0.451418	1.25422	-21.0953	6.65253	3.88286	-0.0766498	5.58798	0.72388	1	9	0.00529795	0.00422411	0	-0.000177605	4.00515e-05	1.74009e-05	53.3782	0.00411942	0.00245736	-0.00330621	-20.9141	1.25533	1.17262	0.448112	0.743877	0.286968	0.79731	21.0953	723.879	1876.44	2011.22	-68.9047	0.0000000E+000	0.0000000E+000	0.0000000E+000	68.9047	0.0000000E+000	0.0000000E+000	0.0000000E+000	-68.9047	0.0000000E+000	0.0000000E+000	0.0000000E+000	-21.0953	0.0000000E+000	0.0000000E+000	0.0000000E+000	21.0953	2.5922	68.9047	-1.29889e-05	-0.00029762	-3.06994e-09	-0.000297617	3.88282	50657.2	0.522526	50656.6
15847.7	1.57512	0.445156	1.63681	-15.7812	8.95452	3.88284	-0.0735584	22.5602	1.66866	1	9	0.00522291	0.0031909	0	-0.000234808	0.000211869	1.06424e-05	23.6616	0.00333525	0.00305486	-0.00133855	-15.7072	1.63939	1.57817	0.443817	0.587915	0.166155	0.610943	15.7812	1668.66	5904.31	6135.57	-74.2188	0.0000000E+000	0.0000000E+000	0.0000000E+000	74.2188	0.0000000E+000	0.0000000E+000	0.0000000E+000	-74.2188	0.0000000E+000	0.0000000E+000	0.0000000E+000	-15.7812	0.0000000E+000	0.0000000E+000	0.0000000E+000	15.7812	3.53835	74.2188	-6.19526e-06	-0.000285615	-1.55847e-08	-0.0002856	3.88263	52785.8	2.88028	52782.9
3983.6	1.92724	0.536906	2.00063	-15.5672	11.3191	3.88285	-0.0624591	74.4126	5.35932	1	9	0.00512788	0.00256313	0	-0.000281332	-5.54027e-05	1.12839e-05	45.6456	0.00440239	0.00307769	-0.00314783	-15.4568	2.00275	1.93031	0.533758	0.481507	0.134142	0.499843	15.5672	5359.32	19237.4	19970	-74.4328	0.0000000E+000	0.0000000E+000	0.0000000E+000	74.4328	0.0000000E+000	0.0000000E+000	0.0000000E+000	-74.4328	0.0000000E+000	0.0000000E+000	0.0000000E+000	-15.5672	0.0000000E+000	0.0000000E+000	0.0000000E+000	15.5672	3.58953	74.4328	-2.31039e-06	-0.000242519	3.46041e-09	-0.000242523	3.8829	62166.3	0.887024	62167.1
1000.32	2.42439	0.876826	2.57808	-19.8835	14.1248	3.88282	-0.0645077	181.454	20.9895	1	9	0.0053535	0.00207655	0	-0.000340279	0.000135506	1.11884e-05	-25.5097	0.00538799	0.00486273	0.00232042	-19.8952	2.58344	2.42925	0.879146	0.364762	0.131923	0.387886	19.8835	20989.5	58035.1	61714.1	-70.1165	0.0000000E+000	0.0000000E+000	0.0000000E+000	70.1165	0.0000000E+000	0.0000000E+000	0.0000000E+000	-70.1165	0.0000000E+000	0.0000000E+000	0.0000000E+000	-19.8835	0.0000000E+000	0.0000000E+000	0.0000000E+000	19.8835	2.76496	70.1165	-6.75345e-06	-0.000250472	-8.74116e-09	-0.000250463	3.88269	60191.6	2.10061	60189.5
251.044	3.53607	1.4413	3.81853	-22.1758	17.073	3.88283	-0.0879931	439.861	62.666	1	10	0.00521524	0.00136577	0	-0.000406454	0.000116415	8.72064e-06	-78.6491	0.00638514	0.0012567	0.00626025	-22.2556	3.82206	3.53733	1.44756	0.24251	0.0988468	0.261881	22.1758	62666	153744	166025	-67.8242	0.0000000E+000	0.0000000E+000	0.0000000E+000	67.8242	0.0000000E+000	0.0000000E+000	0.0000000E+000	-67.8242	0.0000000E+000	0.0000000E+000	0.0000000E+000	-22.1758	0.0000000E+000	0.0000000E+000	0.0000000E+000	22.1758	2.45339	67.8242	-1.18143e-05	-0.000341662	-1.02437e-08	-0.000341652	3.88271	44126.5	1.323	44125.2
63.0823	5.09584	1.095	5.21216	-12.1274	19.7949	3.88284	-0.0835787	2304.08	101.693	1	10	0.00515862	0.000989727	0	-0.00047238	9.7324e-05	8.59505e-06	73.2858	0.00868426	0.00249758	-0.00831736	-12.0322	5.21287	5.09834	1.08668	0.187577	0.0403069	0.191859	12.1274	101693	473252	484055	-77.8726	0.0000000E+000	0.0000000E+000	0.0000000E+000	77.8726	0.0000000E+000	0.0000000E+000	0.0000000E+000	-77.8726	0.0000000E+000	0.0000000E+000	0.0000000E+000	-12.1274	0.0000000E+000	0.0000000E+000	0.0000000E+000	12.1274	4.65373	77.8726	-1.00958e-05	-0.000324523	-8.13422e-09	-0.000324515	3.88274	46457.3	1.16446	46456.1
15.8576	5.63295	0.425407	5.64899	-4.31884	22.453	3.88282	-0.0843387	23592.8	133.797	1	10	0.00514622	0.000910999	0	-0.000539607	0.000116415	1.64836e-05	-64.3884	0.018094	0.00782147	0.0163162	-4.47763	5.65804	5.64077	0.441723	0.17652	0.013331	0.177023	4.31884	133797	1.77165e+06	1.77669e+06	-85.6812	0.0000000E+000	0.0000000E+000	0.0000000E+000	85.6812	0.0000000E+000	0.0000000E+000	0.0000000E+000	-85.6812	0.0000000E+000	0.0000000E+000	0.0000000E+000	-4.31884	0.0000000E+000	0.0000000E+000	0.0000000E+000	4.31884	13.2413	85.6812	-1.34131e-05	-0.000327472	-9.81828e-09	-0.000327462	3.8827	46038.4	1.38033	46037
3.97785	5.78485	0.245751	5.79007	-2.43256	25.3664	3.88283	-0.0757483	162808	293.291	1	10	0.00516339	0.000891768	0	-0.000603109	0.000173687	3.67619e-05	-33.9266	0.0412236	0.0342054	0.0230081	-2.64438	5.82526	5.81905	0.268759	0.172554	0.0073304	0.17271	2.43256	293291	6.90393e+06	6.91016e+06	-87.5674	0.0000000E+000	0.0000000E+000	0.0000000E+000	87.5674	0.0000000E+000	0.0000000E+000	0.0000000E+000	-87.5674	0.0000000E+000	0.0000000E+000	0.0000000E+000	-2.43256	0.0000000E+000	0.0000000E+000	0.0000000E+000	2.43256	23.5395	87.5674	-1.92542e-05	-0.000294118	-1.31565e-08	-0.000294105	3.88266	51259.6	2.29295	51257.3
1.00469	5.92887	0.297104	5.93631	-2.86877	240.623	3.88282	-0.0501566	533185	1335.55	1	11	0.00497975	0.000838863	0	-0.00714527	0.000135506	3.43039e-07	33.395	0.000408934	0.000341417	-0.00022508	-2.86644	5.93664	5.92921	0.296879	0.168244	0.00843093	0.168455	2.86877	1.33556e+06	2.66517e+07	2.66852e+07	-87.1312	0.0000000E+000	0.0000000E+000	0.0000000E+000	87.1312	0.0000000E+000	0.0000000E+000	0.0000000E+000	-87.1312	0.0000000E+000	0.0000000E+000	0.0000000E+000	-2.86877	0.0000000E+000	0.0000000E+000	0.0000000E+000	2.86877	19.9555	87.1312	-0.00641777	-0.000194749	-6.7965e-09	-0.000194742	3.88268	77413.9	2.70165	77411.2
0.251173	6.18636	0.624361	6.21778	-5.76309	240.627	3.88282	-0.0501566	1.01487e+06	10233.2	1	11	0.00500638	0.000805171	0	-0.00714527	0.000135506	3.93234e-07	89.2925	0.000488386	6.03051e-06	-0.000488349	-5.7586	6.21774	6.18636	0.623872	0.160016	0.0161497	0.160829	5.76309	1.02332e+07	1.01394e+08	1.01909e+08	-84.2369	0.0000000E+000	0.0000000E+000	0.0000000E+000	84.2369	0.0000000E+000	0.0000000E+000	0.0000000E+000	-84.2369	0.0000000E+000	0.0000000E+000	0.0000000E+000	-5.76309	0.0000000E+000	0.0000000E+000	0.0000000E+000	5.76309	9.9083	84.2369	0.000000000000000E+000	-0.000194749	-6.7965e-09	-0.000194742	3.88268	77413.9	2.70165	77411.2
0.0602816	6.82337	1.2301	6.93336	-10.2194	240.631	3.88282	-0.0501566	2.14632e+06	67559.6	1	11	0.00499939	0.000721062	0	-0.00714527	0.000135506	4.78649e-07	-50.3875	0.00066381	0.00042324	0.000511383	-10.2229	6.93387	6.8238	1.23061	0.141942	0.0255889	0.14423	10.2194	6.75596e+07	3.74754e+08	3.80795e+08	-79.7806	0.0000000E+000	0.0000000E+000	0.0000000E+000	79.7806	0.0000000E+000	0.0000000E+000	0.0000000E+000	-79.7806	0.0000000E+000	0.0000000E+000	0.0000000E+000	-10.2194	0.0000000E+000	0.0000000E+000	0.0000000E+000	10.2194	5.54701	79.7806	0.000000000000000E+000	-0.000194749	-6.7965e-09	-0.000194742	3.88268	77413.9	2.70165	77411.2
0.00796479	8.87034	2.53385	9.22515	-15.9422	20329.6	3.88287	-0.000757868	7.88614e+06	594950	1	11	0.00499432	0.00054138	0	-0.0692563	0.000326414	2.31232e-07	-83.0134	0.000427116	5.19535e-05	0.000423945	-15.9447	9.22532	8.87039	2.53428	0.10423	0.0297738	0.108399	15.9422	5.9495e+08	2.08276e+09	2.16607e+09	-74.0578	0.0000000E+000	0.0000000E+000	0.0000000E+000	74.0578	0.0000000E+000	0.0000000E+000	0.0000000E+000	-74.0578	0.0000000E+000	0.0000000E+000	0.0000000E+000	-15.9422	0.0000000E+000	0.0000000E+000	0.0000000E+000	15.9422	3.50073	74.0578	-0.0621111	-2.9427e-06	-2.47379e-10	-2.94246e-06	3.88255	5.12342e+06	430.701	5.12299e+06
0.0019912	10.5617	4.17188	11.3558	-21.554	20329.6	3.88287	-0.000757868	1.9159e+07	2.58583e+06	1	11	0.00500581	0.000440814	0	-0.0692563	0.000326414	9.43591e-07	-50.9227	0.00214057	0.00134935	0.00166171	-21.5593	11.3577	10.5631	4.17355	0.0819025	0.0323515	0.0880605	21.554	2.58583e+09	6.54641e+09	7.03861e+09	-68.446	0.0000000E+000	0.0000000E+000	0.0000000E+000	68.446	0.0000000E+000	0.0000000E+000	0.0000000E+000	-68.446	0.0000000E+000	0.0000000E+000	0.0000000E+000	-21.554	0.0000000E+000	0.0000000E+000	0.0000000E+000	21.554	2.53165	68.446	0.000000000000000E+000	-2.9427e-06	-2.47379e-10	-2.94246e-06	3.88255	5.12342e+06	430.701	5.12299e+06
0.000497799	11.1573	11.2015	15.8101	-45.1132	20329.6	3.88287	-0.000757868	2.85424e+07	1.43276e+07	1	11	0.00501082	0.000316938	0	-0.0692563	0.000326414	1.73488e-06	95.0406	0.0054739	-0.000480945	-0.00545273	-45.1005	15.8059	11.1568	11.196	0.0446366	0.0448133	0.0632507	45.1132	1.43276e+10	1.42711e+10	2.02223e+10	-44.8868	0.0000000E+000	0.0000000E+000	0.0000000E+000	44.8868	0.0000000E+000	0.0000000E+000	0.0000000E+000	-44.8868	0.0000000E+000	0.0000000E+000	0.0000000E+000	-45.1132	0.0000000E+000	0.0000000E+000	0.0000000E+000	45.1132	0.996057	44.8868	0.000000000000000E+000	-2.9427e-06	-2.47379e-10	-2.94246e-06	3.88255	5.12342e+06	430.701	5.12299e+06
9.95598e-05	7.57804	79.8847	80.2433	-84.581	20329.6	3.88287	-0.000757868	2.00112e+07	1.98327e+07	1	11	0.00500362	6.23556e-05	0	-0.0692563	0.000326414	3.95592e-06	-67.1216	0.0634413	0.0246645	0.0584505	-84.5674	80.3039	7.6027	79.9432	0.0011769	0.0124064	0.0124621	84.581	1.98327e+10	1.88137e+09	1.99217e+10	-5.41899	0.0000000E+000	0.0000000E+000	0.0000000E+000	5.41899	0.0000000E+000	0.0000000E+000	0.0000000E+000	-5.41899	0.0000000E+000	0.0000000E+000	0.0000000E+000	-84.581	0.0000000E+000	0.0000000E+000	0.0000000E+000	84.581	0.0948622	5.41899	0.000000000000000E+000	-2.9427e-06	-2.47379e-10	-2.94246e-06	3.88255	5.12342e+06	430.701	5.12299e+06