File: txt/19322_R313_UC98_SOC50_C06.mpt
EC-Lab ASCII FILE
Nb header lines : 65

Potentio Electrochemical Impedance Spectroscopy

Run on channel : 6 (SN 65795)
User :
CE vs. WE compliance from -10 V to 10 V
Electrode connection : standard
Potential control : Ewe
Ewe ctrl range : min = -10.00 V, max = 10.00 V
Safety Limits :
	Do not start on E overload
Acquisition started on : 11/18/2025 16:33:31.777
Technique started on : 11/18/2025 16:33:34.012
Loaded Setting File :  C:\Users\Celltest\OneDrive - store-dot.com\Documents\EC-Lab\Data\txt_done\19191_R297_UC94_SOC50_C08.mpr
Saved on :
	File : 19322_R313_UC98_SOC50_C06.mpr
	Directory : C:\Users\Celltest\OneDrive - store-dot.com\Documents\EC-Lab\Data\Michael\
	Host : 169.254.61.224
Device : VMP-3e (SN .003165)
Address : USB
EC-LAB for windows v11.62 (software)
Internet server v27.00 (firmware)
Command interpretor v12.03 (firmware)
Electrode material :
Initial state :
Electrolyte :
Comments :
Electrode surface area : 0.001 cm²
Characteristic mass : 0.001 g
Equivalent Weight : 0.000 g/eq.
Density : 0.000 g/cm3
Volume (V) : 0.001 cm³
Record Ece
Cycle Definition : Charge/Discharge alternance
Mode                Multi sine
E (V)               0.0000
vs.                 Eoc
tE (h:m:s)          0:00:0.0000
record              0
dI                  0.000
unit dI             mA
dt (s)              0.000
fi                  1.000
unit fi             MHz
ff                  0.100
unit ff             mHz
Nd                  10
Points              per decade
spacing             Logarithmic
Va (mV)             5.0
pw                  0.10
Na                  2
corr                0
E range min (V)     -10.000
E range max (V)     10.000
I Range             Auto
Bandwidth           5
nc cycles           0
goto Ns'            0
nr cycles           0
inc. cycle          0

freq/Hz	Re(Z)/Ohm	-Im(Z)/Ohm	|Z|/Ohm	Phase(Z)/deg	time/s	<Ewe>/V	<I>/mA	Cs/µF	Cp/µF	cycle number	I Range	|Ewe|/V	|I|/A	Ns	(Q-Qo)/mA.h	<Ece>/V	|Ece|/V	Phase(Zce)/deg	|Zce|/Ohm	Re(Zce)/Ohm	-Im(Zce)/Ohm	Phase(Zwe-ce)/deg	|Zwe-ce|/Ohm	Re(Zwe-ce)/Ohm	-Im(Zwe-ce)/Ohm	Re(Y)/Ohm-1	Im(Y)/Ohm-1	|Y|/Ohm-1	Phase(Y)/deg	Re(C)/nF	Im(C)/nF	|C|/nF	Phase(C)/deg	Re(M)	Im(M)	|M|	Phase(M)/deg	Re(Permittivity)	Im(Permittivity)	|Permittivity|	Phase(Permittivity)/deg	Re(Resistivity)/Ohm.cm	Im(Resistivity)/Ohm.cm	|Resistivity|/Ohm.cm	Phase(Resistivity)/deg	Re(Conductivity)/mS/cm	Im(Conductivity)/mS/cm	|Conductivity|/mS/cm	Phase(Conductivity)/deg	Tan(Delta)	Loss Angle(Delta)/deg	dq/mA.h	Pwe/W	Pce/W	Pwe-ce/W	<Ewe-Ece>/V	Rwe/Ohm	Rce/Ohm	Rwe-ce/Ohm		Ewe-Ece/V
1.00002e+06	2.44222	2.47222	3.47509	-45.3498	2.23454	3.87588	0.0421504	0.0643762	0.0325811	1	10	0.000205745	5.92056e-05	0	2.46212e-06	-0.000179642	0.000197099	-62.5455	3.32906	1.53484	2.95413	-53.7617	6.72772	3.97706	5.42635	0.202233	0.204717	0.287762	45.3498	32.5811	32.1857	45.7979	-44.6502	0.0000000E+000	0.0000000E+000	0.0000000E+000	44.6502	0.0000000E+000	0.0000000E+000	0.0000000E+000	-44.6502	0.0000000E+000	0.0000000E+000	0.0000000E+000	-45.3498	0.0000000E+000	0.0000000E+000	0.0000000E+000	45.3498	0.987865	44.6502	2.46212e-06	0.00016337	-7.57197e-09	0.000163378	3.87606	91953.6	4.26192	91957.9
251206	0.717647	0.227946	0.752978	-17.6214	4.93556	3.87574	0.101686	2.77944	0.254717	1	9	0.00178131	0.00236568	0	6.79365e-05	0.0003933	7.27475e-05	62.8258	0.0307511	0.0140439	-0.0273569	-15.3307	0.758688	0.731691	0.200589	1.26574	0.402038	1.32806	17.6214	254.717	801.928	841.409	-72.3786	0.0000000E+000	0.0000000E+000	0.0000000E+000	72.3786	0.0000000E+000	0.0000000E+000	0.0000000E+000	-72.3786	0.0000000E+000	0.0000000E+000	0.0000000E+000	-17.6214	0.0000000E+000	0.0000000E+000	0.0000000E+000	17.6214	3.14831	72.3786	8.11428e-06	0.000394106	3.99929e-08	0.000394066	3.87534	38114.9	3.8678	38111.1
63093.8	1.11377	0.375512	1.17537	-18.6316	7.23553	3.87558	0.0711034	6.71754	0.685654	1	9	0.00530501	0.00451347	0	0.0001029	3.04368e-05	5.58817e-05	95.2127	0.0123811	-0.00112486	-0.0123299	-18.0773	1.17042	1.11265	0.363182	0.806205	0.271814	0.850794	18.6316	685.654	2033.66	2146.14	-71.3684	0.0000000E+000	0.0000000E+000	0.0000000E+000	71.3684	0.0000000E+000	0.0000000E+000	0.0000000E+000	-71.3684	0.0000000E+000	0.0000000E+000	0.0000000E+000	-18.6316	0.0000000E+000	0.0000000E+000	0.0000000E+000	18.6316	2.96602	71.3684	6.16361e-06	0.000275567	2.16416e-09	0.000275565	3.87555	54506.3	0.428064	54505.8
15847.7	1.428	0.393904	1.48134	-15.4211	9.41756	3.87558	0.0797081	25.4955	1.80276	1	9	0.00527123	0.00355843	0	0.000163255	-2.68573e-05	8.37169e-06	-115.393	0.00235264	-0.00100887	0.00212534	-15.5108	1.48093	1.42699	0.396029	0.650762	0.179508	0.675067	15.4211	1802.76	6535.47	6779.55	-74.5789	0.0000000E+000	0.0000000E+000	0.0000000E+000	74.5789	0.0000000E+000	0.0000000E+000	0.0000000E+000	-74.5789	0.0000000E+000	0.0000000E+000	0.0000000E+000	-15.4211	0.0000000E+000	0.0000000E+000	0.0000000E+000	15.4211	3.62526	74.5789	8.09188e-06	0.000308915	-2.14074e-09	0.000308917	3.87561	48622.2	0.336946	48622.5
3983.6	1.76587	0.537793	1.84595	-16.938	11.0161	3.87541	-0.0208668	74.2898	6.3055	1	9	0.00462055	0.00250307	0	0.000190223	0.000145025	7.28913e-06	-109.506	0.00291207	-0.000972347	0.00274494	-17.0283	1.84582	1.7649	0.540538	0.518227	0.157825	0.541727	16.938	6305.5	20704.5	21643.3	-73.062	0.0000000E+000	0.0000000E+000	0.0000000E+000	73.062	0.0000000E+000	0.0000000E+000	0.0000000E+000	-73.062	0.0000000E+000	0.0000000E+000	0.0000000E+000	-16.938	0.0000000E+000	0.0000000E+000	0.0000000E+000	16.938	3.28356	73.062	-1.05764e-06	-8.08674e-05	-3.02621e-09	-8.08644e-05	3.87527	185721	6.95004	185714
1000.32	2.29427	0.897141	2.46344	-21.3573	13.8588	3.87542	0.0424208	177.346	23.5212	1	9	0.00497727	0.00202046	0	0.000213163	8.77309e-05	6.71507e-06	-5.41717	0.00332354	0.00330869	0.000313764	-21.3361	2.46663	2.29758	0.897455	0.37806	0.147835	0.405937	21.3573	23521.2	60150.9	64586.2	-68.6427	0.0000000E+000	0.0000000E+000	0.0000000E+000	68.6427	0.0000000E+000	0.0000000E+000	0.0000000E+000	-68.6427	0.0000000E+000	0.0000000E+000	0.0000000E+000	-21.3573	0.0000000E+000	0.0000000E+000	0.0000000E+000	21.3573	2.55731	68.6427	4.67229e-06	0.000164399	3.72162e-09	0.000164395	3.87533	91356.6	2.06811	91354.5
251.044	3.45979	1.43835	3.74686	-22.5743	16.8061	3.87548	-0.0212309	440.764	64.9528	1	10	0.00496582	0.00132533	0	0.000216563	-4.59553e-05	6.19705e-06	-5.92567	0.00467586	0.00465088	0.000482728	-22.5538	3.75134	3.46444	1.43883	0.246442	0.102454	0.26689	22.5743	64952.8	156237	169201	-67.4257	0.0000000E+000	0.0000000E+000	0.0000000E+000	67.4257	0.0000000E+000	0.0000000E+000	0.0000000E+000	-67.4257	0.0000000E+000	0.0000000E+000	0.0000000E+000	-22.5743	0.0000000E+000	0.0000000E+000	0.0000000E+000	22.5743	2.40539	67.4257	-1.49859e-06	-8.22797e-05	9.75671e-10	-8.22807e-05	3.87553	182540	2.16455	182542
63.0823	4.95384	1.01662	5.05708	-11.5972	19.527	3.87547	-0.0200235	2481.72	100.294	1	10	0.00493929	0.000976709	0	0.000203293	0.000202319	6.96138e-06	-117.371	0.00712738	-0.00327682	0.00632945	-11.6749	5.05515	4.95056	1.02295	0.193706	0.0397521	0.197743	11.5972	100294	488714	498899	-78.4028	0.0000000E+000	0.0000000E+000	0.0000000E+000	78.4028	0.0000000E+000	0.0000000E+000	0.0000000E+000	-78.4028	0.0000000E+000	0.0000000E+000	0.0000000E+000	-11.5972	0.0000000E+000	0.0000000E+000	0.0000000E+000	11.5972	4.87284	78.4028	-3.08751e-06	-7.76003e-05	-4.05113e-09	-7.75962e-05	3.87527	193546	10.1041	193536
15.8576	5.40839	0.405281	5.42355	-4.28549	22.1851	3.87545	-0.0246332	24764.3	138.284	1	10	0.00492526	0.000908125	0	0.000189087	-8.41514e-05	1.09405e-05	11.204	0.0120473	0.0118177	-0.00234083	-4.25157	5.43516	5.4202	0.402941	0.183866	0.0137781	0.184381	4.28549	138284	1.84537e+06	1.85054e+06	-85.7145	0.0000000E+000	0.0000000E+000	0.0000000E+000	85.7145	0.0000000E+000	0.0000000E+000	0.0000000E+000	-85.7145	0.0000000E+000	0.0000000E+000	0.0000000E+000	-4.28549	0.0000000E+000	0.0000000E+000	0.0000000E+000	4.28549	13.3448	85.7145	-1.62432e-06	-9.54649e-05	2.07292e-09	-9.5467e-05	3.87554	157326	3.41618	157330
3.97785	5.54958	0.227207	5.55423	-2.34445	25.0974	3.87548	-0.0176999	176096	294.677	1	10	0.00494058	0.000889517	0	0.000184864	0.000202319	1.94186e-05	-37.8372	0.0218305	0.0172408	0.0133913	-2.47479	5.57202	5.56682	0.240598	0.179892	0.00736502	0.180043	2.34445	294676	7.19754e+06	7.20357e+06	-87.6555	0.0000000E+000	0.0000000E+000	0.0000000E+000	87.6555	0.0000000E+000	0.0000000E+000	0.0000000E+000	-87.6555	0.0000000E+000	0.0000000E+000	0.0000000E+000	-2.34445	0.0000000E+000	0.0000000E+000	0.0000000E+000	2.34445	24.4252	87.6555	8.31141e-06	-6.85958e-05	-3.58104e-09	-6.85922e-05	3.87528	218954	11.4305	218943
1.00469	5.67336	0.286001	5.68057	-2.88591	240.456	3.87548	-0.0169629	553884	1404.01	1	11	0.00500382	0.000880867	0	-0.00395736	0.000202319	6.41638e-07	2.46221	0.000728416	0.000727744	-3.12931e-05	-2.88522	5.68129	5.67409	0.28597	0.175815	0.00886307	0.176039	2.88591	1.40401e+06	2.78512e+07	2.78865e+07	-87.1141	0.0000000E+000	0.0000000E+000	0.0000000E+000	87.1141	0.0000000E+000	0.0000000E+000	0.0000000E+000	-87.1141	0.0000000E+000	0.0000000E+000	0.0000000E+000	-2.88591	0.0000000E+000	0.0000000E+000	0.0000000E+000	2.88591	19.8369	87.1141	-0.00412725	-6.57395e-05	-3.43193e-09	-6.57361e-05	3.87528	228468	11.9271	228456
0.251173	5.93287	0.600284	5.96316	-5.77749	240.46	3.87548	-0.0169629	1.05558e+06	10696.7	1	11	0.00502983	0.000843483	0	-0.00395736	0.000202319	7.26278e-07	-11.9331	0.000861046	0.000842439	0.000178038	-5.77838	5.96402	5.93371	0.600462	0.166844	0.0168812	0.167696	5.77749	1.06967e+07	1.0572e+08	1.0626e+08	-84.2225	0.0000000E+000	0.0000000E+000	0.0000000E+000	84.2225	0.0000000E+000	0.0000000E+000	0.0000000E+000	-84.2225	0.0000000E+000	0.0000000E+000	0.0000000E+000	-5.77749	0.0000000E+000	0.0000000E+000	0.0000000E+000	5.77749	9.88344	84.2225	0.000000000000000E+000	-6.57395e-05	-3.43193e-09	-6.57361e-05	3.87528	228468	11.9271	228456
0.0602816	6.52465	1.15575	6.62622	-10.0449	240.464	3.87548	-0.0169629	2.2844e+06	69497	1	11	0.00502415	0.000758223	0	-0.00395736	0.000202319	8.35292e-07	-15.6065	0.00110164	0.00106103	0.000296374	-10.0459	6.62732	6.52571	1.15605	0.148602	0.0263227	0.150915	10.0449	6.9497e+07	3.92338e+08	3.98446e+08	-79.9551	0.0000000E+000	0.0000000E+000	0.0000000E+000	79.9551	0.0000000E+000	0.0000000E+000	0.0000000E+000	-79.9551	0.0000000E+000	0.0000000E+000	0.0000000E+000	-10.0449	0.0000000E+000	0.0000000E+000	0.0000000E+000	10.0449	5.64539	79.9551	0.000000000000000E+000	-6.57395e-05	-3.43193e-09	-6.57361e-05	3.87528	228468	11.9271	228456
0.00796479	8.35701	2.41459	8.69884	-16.1156	20329.4	3.87552	-0.000166526	8.27565e+06	637627	1	11	0.00501721	0.000576767	0	-0.0626179	1.13388e-05	2.82489e-07	-159.315	0.00048978	-0.000458206	0.000173008	-16.1175	8.69845	8.35655	2.41477	0.11044	0.0319095	0.114958	16.1156	6.37627e+08	2.20686e+09	2.29712e+09	-73.8844	0.0000000E+000	0.0000000E+000	0.0000000E+000	73.8844	0.0000000E+000	0.0000000E+000	0.0000000E+000	-73.8844	0.0000000E+000	0.0000000E+000	0.0000000E+000	-16.1156	0.0000000E+000	0.0000000E+000	0.0000000E+000	16.1156	3.46104	73.8844	-0.0586605	-6.45374e-07	-1.8882e-12	-6.45372e-07	3.87551	2.32728e+07	68.0904	2.32728e+07
0.0019912	10.0445	3.9154	10.7806	-21.2962	20329.4	3.87552	-0.000166526	2.04141e+07	2.69275e+06	1	11	0.00502808	0.000466401	0	-0.0626179	1.13388e-05	7.09483e-07	-33.0293	0.00152119	0.00127535	0.00082915	-21.2979	10.7821	10.0457	3.91623	0.0864251	0.0336892	0.0927592	21.2962	2.69275e+09	6.9079e+09	7.41418e+09	-68.7038	0.0000000E+000	0.0000000E+000	0.0000000E+000	68.7038	0.0000000E+000	0.0000000E+000	0.0000000E+000	-68.7038	0.0000000E+000	0.0000000E+000	0.0000000E+000	-21.2962	0.0000000E+000	0.0000000E+000	0.0000000E+000	21.2962	2.56537	68.7038	0.000000000000000E+000	-6.45374e-07	-1.8882e-12	-6.45372e-07	3.87551	2.32728e+07	68.0904	2.32728e+07
0.000497799	10.4661	10.3841	14.7434	-44.7747	20329.4	3.87552	-0.000166526	3.07892e+07	1.52735e+07	1	11	0.00503317	0.000341385	0	-0.0626179	1.13388e-05	1.96366e-06	96.0166	0.00575205	-0.000602909	-0.00572036	-44.7606	14.7389	10.4655	10.3784	0.0481492	0.047772	0.067827	44.7747	1.52735e+10	1.53941e+10	2.16855e+10	-45.2253	0.0000000E+000	0.0000000E+000	0.0000000E+000	45.2253	0.0000000E+000	0.0000000E+000	0.0000000E+000	-45.2253	0.0000000E+000	0.0000000E+000	0.0000000E+000	-44.7747	0.0000000E+000	0.0000000E+000	0.0000000E+000	44.7747	1.0079	45.2253	0.000000000000000E+000	-6.45374e-07	-1.8882e-12	-6.45372e-07	3.87551	2.32728e+07	68.0904	2.32728e+07
9.95598e-05	8.46986	71.9859	72.4825	-83.2894	20329.4	3.87552	-0.000166526	2.22069e+07	2.19037e+07	1	11	0.00502876	6.93789e-05	0	-0.0626179	1.13388e-05	7.10164e-06	-72.7758	0.10236	0.0303101	0.0977696	-83.2747	72.5832	8.50017	72.0837	0.00161217	0.0137019	0.0137964	83.2894	2.19037e+10	2.57719e+09	2.20548e+10	-6.71056	0.0000000E+000	0.0000000E+000	0.0000000E+000	6.71056	0.0000000E+000	0.0000000E+000	0.0000000E+000	-6.71056	0.0000000E+000	0.0000000E+000	0.0000000E+000	-83.2894	0.0000000E+000	0.0000000E+000	0.0000000E+000	83.2894	0.11766	6.71057	0.000000000000000E+000	-6.45374e-07	-1.8882e-12	-6.45372e-07	3.87551	2.32728e+07	68.0904	2.32728e+07