File: txt/19321_R313_UC98_SOC50_C05.mpt
EC-Lab ASCII FILE
Nb header lines : 65

Potentio Electrochemical Impedance Spectroscopy

Run on channel : 5 (SN 65912)
User :
CE vs. WE compliance from -10 V to 10 V
Electrode connection : standard
Potential control : Ewe
Ewe ctrl range : min = -10.00 V, max = 10.00 V
Safety Limits :
	Do not start on E overload
Acquisition started on : 11/18/2025 16:33:09.639
Technique started on : 11/18/2025 16:33:10.525
Loaded Setting File :  C:\Users\Celltest\OneDrive - store-dot.com\Documents\EC-Lab\Data\txt_done\19191_R297_UC94_SOC50_C08.mpr
Saved on :
	File : 19321_R313_UC98_SOC50_C05.mpr
	Directory : C:\Users\Celltest\OneDrive - store-dot.com\Documents\EC-Lab\Data\Michael\
	Host : 169.254.61.224
Device : VMP-3e (SN .003165)
Address : USB
EC-LAB for windows v11.62 (software)
Internet server v27.00 (firmware)
Command interpretor v12.03 (firmware)
Electrode material :
Initial state :
Electrolyte :
Comments :
Electrode surface area : 0.001 cm²
Characteristic mass : 0.001 g
Equivalent Weight : 0.000 g/eq.
Density : 0.000 g/cm3
Volume (V) : 0.001 cm³
Record Ece
Cycle Definition : Charge/Discharge alternance
Mode                Multi sine
E (V)               0.0000
vs.                 Eoc
tE (h:m:s)          0:00:0.0000
record              0
dI                  0.000
unit dI             mA
dt (s)              0.000
fi                  1.000
unit fi             MHz
ff                  0.100
unit ff             mHz
Nd                  10
Points              per decade
spacing             Logarithmic
Va (mV)             5.0
pw                  0.10
Na                  2
corr                0
E range min (V)     -10.000
E range max (V)     10.000
I Range             Auto
Bandwidth           5
nc cycles           0
goto Ns'            0
nr cycles           0
inc. cycle          0

freq/Hz	Re(Z)/Ohm	-Im(Z)/Ohm	|Z|/Ohm	Phase(Z)/deg	time/s	<Ewe>/V	<I>/mA	Cs/µF	Cp/µF	cycle number	I Range	|Ewe|/V	|I|/A	Ns	(Q-Qo)/mA.h	<Ece>/V	|Ece|/V	Phase(Zce)/deg	|Zce|/Ohm	Re(Zce)/Ohm	-Im(Zce)/Ohm	Phase(Zwe-ce)/deg	|Zwe-ce|/Ohm	Re(Zwe-ce)/Ohm	-Im(Zwe-ce)/Ohm	Re(Y)/Ohm-1	Im(Y)/Ohm-1	|Y|/Ohm-1	Phase(Y)/deg	Re(C)/nF	Im(C)/nF	|C|/nF	Phase(C)/deg	Re(M)	Im(M)	|M|	Phase(M)/deg	Re(Permittivity)	Im(Permittivity)	|Permittivity|	Phase(Permittivity)/deg	Re(Resistivity)/Ohm.cm	Im(Resistivity)/Ohm.cm	|Resistivity|/Ohm.cm	Phase(Resistivity)/deg	Re(Conductivity)/mS/cm	Im(Conductivity)/mS/cm	|Conductivity|/mS/cm	Phase(Conductivity)/deg	Tan(Delta)	Loss Angle(Delta)/deg	dq/mA.h	Pwe/W	Pce/W	Pwe-ce/W	<Ewe-Ece>/V	Rwe/Ohm	Rce/Ohm	Rwe-ce/Ohm		Ewe-Ece/V
1.00002e+06	-67.6433	-357.159	363.508	100.724	0.88553	3.87553	-0.0771111	-0.000445606	-0.000430175	1	12	0.000169932	4.67478e-07	0	-7.71296e-06	-0.000181206	0.000174195	96.8113	372.626	-44.1934	-369.996	98.7436	735.705	-111.837	-727.155	-0.000511913	-0.00270292	0.00275097	-100.724	-0.430175	-0.081472	0.437822	169.276	0.0000000E+000	0.0000000E+000	0.0000000E+000	-169.276	0.0000000E+000	0.0000000E+000	0.0000000E+000	169.276	0.0000000E+000	0.0000000E+000	0.0000000E+000	100.724	0.0000000E+000	0.0000000E+000	0.0000000E+000	-100.724	0.189393	10.7244	-7.71296e-06	-0.000298847	1.3973e-08	-0.000298861	3.87571	50259.1	2.34993	50261.4
251206	0.69551	0.259669	0.742403	-20.4731	4.52255	3.87586	-0.0174497	2.43989	0.29849	1	9	0.0020291	0.00273315	0	9.88876e-06	0.000238801	5.05236e-05	100.001	0.0184855	-0.0032103	-0.0182046	-19.228	0.733201	0.692299	0.241464	1.2619	0.47113	1.34698	20.4731	298.491	799.492	853.395	-69.5269	0.0000000E+000	0.0000000E+000	0.0000000E+000	69.5269	0.0000000E+000	0.0000000E+000	0.0000000E+000	-69.5269	0.0000000E+000	0.0000000E+000	0.0000000E+000	-20.4731	0.0000000E+000	0.0000000E+000	0.0000000E+000	20.4731	2.67845	69.5269	1.43363e-06	-6.76328e-05	-4.16702e-09	-6.76286e-05	3.87562	222115	13.6851	222102
63093.8	1.12397	0.42883	1.203	-20.8834	6.82453	3.8756	-0.0430707	5.88231	0.747462	1	9	0.00535295	0.00444968	0	-1.71478e-05	-0.000181206	2.51685e-05	81.2017	0.00565625	0.000865164	-0.00558969	-20.6198	1.20183	1.12484	0.423241	0.776649	0.296316	0.831257	20.8834	747.461	1959.11	2096.85	-69.1166	0.0000000E+000	0.0000000E+000	0.0000000E+000	69.1166	0.0000000E+000	0.0000000E+000	0.0000000E+000	-69.1166	0.0000000E+000	0.0000000E+000	0.0000000E+000	-20.8834	0.0000000E+000	0.0000000E+000	0.0000000E+000	20.8834	2.62101	69.1166	1.13454e-06	-0.000166925	7.80465e-09	-0.000166932	3.87578	89982.2	4.20717	89986.4
15847.7	1.50352	0.424259	1.56223	-15.7579	8.99854	3.87557	-0.0413205	23.6714	1.7458	1	9	0.00474271	0.00303585	0	-3.51522e-05	0.000162436	9.54529e-06	-1.58369	0.00314419	0.00314299	8.68959e-05	-15.7297	1.56528	1.50666	0.424346	0.616054	0.173836	0.64011	15.7579	1745.8	6186.9	6428.49	-74.2421	0.0000000E+000	0.0000000E+000	0.0000000E+000	74.2421	0.0000000E+000	0.0000000E+000	0.0000000E+000	-74.2421	0.0000000E+000	0.0000000E+000	0.0000000E+000	-15.7579	0.0000000E+000	0.0000000E+000	0.0000000E+000	15.7579	3.54387	74.2421	-2.67377e-06	-0.00016014	-6.71194e-09	-0.000160134	3.87541	93793.1	3.93113	93789.1
3983.6	1.84345	0.530305	1.91821	-16.049	10.845	3.87541	-0.135835	75.3388	5.75809	1	9	0.00490865	0.00255898	0	-5.89977e-05	0.000143345	6.90866e-06	-13.5094	0.00269977	0.00262508	0.00063068	-16.0454	1.92091	1.84607	0.530936	0.501002	0.144123	0.52132	16.049	5758.09	20016.3	20828	-73.951	0.0000000E+000	0.0000000E+000	0.0000000E+000	73.951	0.0000000E+000	0.0000000E+000	0.0000000E+000	-73.951	0.0000000E+000	0.0000000E+000	0.0000000E+000	-16.049	0.0000000E+000	0.0000000E+000	0.0000000E+000	16.049	3.4762	73.951	-8.27585e-06	-0.000526417	-1.94713e-08	-0.000526397	3.87527	28530.2	1.05529	28529.2
1000.32	2.32446	0.921713	2.50053	-21.6298	13.4738	3.87551	-0.0181201	172.618	23.4538	1	9	0.00477432	0.00190932	0	-8.46024e-05	-0.000333935	5.77088e-06	152.429	0.00302248	-0.00267922	-0.00139897	-21.6226	2.49752	2.32178	0.920314	0.371755	0.147412	0.399915	21.6298	23453.8	59147.8	63628.1	-68.3702	0.0000000E+000	0.0000000E+000	0.0000000E+000	68.3702	0.0000000E+000	0.0000000E+000	0.0000000E+000	-68.3702	0.0000000E+000	0.0000000E+000	0.0000000E+000	-21.6298	0.0000000E+000	0.0000000E+000	0.0000000E+000	21.6298	2.52188	68.3702	-4.58252e-06	-7.02245e-05	6.05094e-09	-7.02306e-05	3.87584	213879	18.429	213897
251.044	3.52986	1.54512	3.85322	-23.6404	16.421	3.8755	-0.059774	410.306	65.9758	1	10	0.00477586	0.00123945	0	-0.00011958	0.000143345	2.493e-06	83.7038	0.00201139	0.000220584	-0.00199925	-23.6118	3.85262	3.53008	1.54312	0.237744	0.104067	0.259523	23.6404	65975.8	150723	164530	-66.3596	0.0000000E+000	0.0000000E+000	0.0000000E+000	66.3596	0.0000000E+000	0.0000000E+000	0.0000000E+000	-66.3596	0.0000000E+000	0.0000000E+000	0.0000000E+000	-23.6404	0.0000000E+000	0.0000000E+000	0.0000000E+000	23.6404	2.28452	66.3596	-7.23935e-06	-0.000231654	-8.56831e-09	-0.000231646	3.87535	64835.8	2.39812	64833.4
63.0823	5.16064	1.1383	5.28469	-12.4387	19.14	3.87551	-0.0552315	2216.44	102.832	1	10	0.00474108	0.000897134	0	-0.000160581	0.000124254	6.73567e-06	33.1273	0.00750798	0.00628762	-0.00410312	-12.3807	5.28995	5.16693	1.1342	0.184784	0.0407584	0.189226	12.4387	102832	466205	477412	-77.5612	0.0000000E+000	0.0000000E+000	0.0000000E+000	77.5612	0.0000000E+000	0.0000000E+000	0.0000000E+000	-77.5612	0.0000000E+000	0.0000000E+000	0.0000000E+000	-12.4387	0.0000000E+000	0.0000000E+000	0.0000000E+000	12.4387	4.53364	77.5612	-7.47353e-06	-0.00021405	-6.86273e-09	-0.000214043	3.87538	70168.4	2.24969	70166.2
15.8576	5.69951	0.447072	5.71701	-4.48513	21.7981	3.87549	-0.0607049	22449.4	137.285	1	10	0.0047302	0.000827391	0	-0.000204175	-2.84759e-05	2.34099e-05	-51.3952	0.0282936	0.0176537	0.0221106	-4.69151	5.73638	5.71716	0.469183	0.174381	0.0136785	0.174916	4.48513	137285	1.75018e+06	1.75555e+06	-85.5149	0.0000000E+000	0.0000000E+000	0.0000000E+000	85.5149	0.0000000E+000	0.0000000E+000	0.0000000E+000	-85.5149	0.0000000E+000	0.0000000E+000	0.0000000E+000	-4.48513	0.0000000E+000	0.0000000E+000	0.0000000E+000	4.48513	12.7485	85.5149	-7.27149e-06	-0.000235261	1.72862e-09	-0.000235263	3.87552	63841.4	0.469087	63841.9
3.97785	5.86794	0.238854	5.8728	-2.33093	24.7104	3.87553	-0.0507187	167510	277.085	1	10	0.0047579	0.000810159	0	-0.000237774	-9.38465e-06	1.20376e-05	54.0794	0.0148583	0.00871684	-0.0120327	-2.21034	5.88103	5.87665	0.226821	0.170136	0.00692535	0.170277	2.33093	277086	6.80718e+06	6.81282e+06	-87.6691	0.0000000E+000	0.0000000E+000	0.0000000E+000	87.6691	0.0000000E+000	0.0000000E+000	0.0000000E+000	-87.6691	0.0000000E+000	0.0000000E+000	0.0000000E+000	-2.33093	0.0000000E+000	0.0000000E+000	0.0000000E+000	2.33093	24.5671	87.6691	1.42027e-06	-0.000196562	4.75977e-10	-0.000196562	3.87554	76412.1	0.185033	76412.3
1.00469	6.01321	0.291017	6.02025	-2.77074	239.965	3.8755	-0.0335911	544337	1271.97	1	11	0.00507557	0.000843084	0	-0.0055557	-0.000162114	8.27234e-07	-0.740758	0.0009812	0.000981118	1.26852e-05	-2.77041	6.02123	6.01419	0.29103	0.165912	0.00802952	0.166106	2.77074	1.27197e+06	2.62823e+07	2.63131e+07	-87.2293	0.0000000E+000	0.0000000E+000	0.0000000E+000	87.2293	0.0000000E+000	0.0000000E+000	0.0000000E+000	-87.2293	0.0000000E+000	0.0000000E+000	0.0000000E+000	-2.77074	0.0000000E+000	0.0000000E+000	0.0000000E+000	2.77074	20.6627	87.2293	-0.00526487	-0.000130182	5.4456e-09	-0.000130188	3.87566	115373	4.82611	115378
0.251173	6.27604	0.594156	6.3041	-5.40811	239.969	3.8755	-0.0335911	1.06646e+06	9473.29	1	11	0.00510505	0.000809798	0	-0.0055557	-0.000162114	9.00116e-07	-6.05095	0.00111153	0.00110534	0.00011717	-5.40822	6.30521	6.27714	0.594274	0.157921	0.0149505	0.158627	5.40811	9.4733e+06	1.00066e+08	1.00513e+08	-84.5919	0.0000000E+000	0.0000000E+000	0.0000000E+000	84.5919	0.0000000E+000	0.0000000E+000	0.0000000E+000	-84.5919	0.0000000E+000	0.0000000E+000	0.0000000E+000	-5.40811	0.0000000E+000	0.0000000E+000	0.0000000E+000	5.40811	10.5629	84.5919	0.000000000000000E+000	-0.000130182	5.4456e-09	-0.000130188	3.87566	115373	4.82611	115378
0.0602816	6.87251	1.14679	6.96753	-9.47346	239.973	3.8755	-0.0335911	2.30224e+06	62367.9	1	11	0.00509452	0.000731179	0	-0.0055557	-0.000162114	8.70272e-07	-32.0873	0.00119023	0.00100841	0.000632264	-9.47722	6.96863	6.87352	1.14742	0.141565	0.0236225	0.143523	9.47346	6.23679e+07	3.7376e+08	3.78927e+08	-80.5265	0.0000000E+000	0.0000000E+000	0.0000000E+000	80.5265	0.0000000E+000	0.0000000E+000	0.0000000E+000	-80.5265	0.0000000E+000	0.0000000E+000	0.0000000E+000	-9.47346	0.0000000E+000	0.0000000E+000	0.0000000E+000	9.47346	5.99282	80.5265	0.000000000000000E+000	-0.000130182	5.4456e-09	-0.000130188	3.87566	115373	4.82611	115378
0.00796479	8.61937	2.31001	8.92355	-15.0029	20328.9	3.87552	-0.00161753	8.6503e+06	579676	1	11	0.00508803	0.00057018	0	-0.0752399	4.7889e-05	1.33889e-07	48.5423	0.000234819	0.000155466	-0.000175984	-15.0015	8.92365	8.61952	2.30984	0.108243	0.0290095	0.112063	15.0029	5.79676e+08	2.16295e+09	2.23928e+09	-74.9971	0.0000000E+000	0.0000000E+000	0.0000000E+000	74.9971	0.0000000E+000	0.0000000E+000	0.0000000E+000	-74.9971	0.0000000E+000	0.0000000E+000	0.0000000E+000	-15.0029	0.0000000E+000	0.0000000E+000	0.0000000E+000	15.0029	3.73131	74.9971	-0.0696842	-6.26876e-06	-7.74617e-11	-6.26868e-06	3.87548	2.39596e+06	29.6063	2.39593e+06
0.0019912	10.1648	3.88818	10.8831	-20.9325	20328.9	3.87552	-0.00161753	2.0557e+07	2.6239e+06	1	11	0.00510061	0.000468673	0	-0.0752399	4.7889e-05	6.78168e-07	-52.2916	0.001447	0.000885046	0.00114477	-20.9365	10.8843	10.1657	3.88933	0.0858213	0.0328278	0.0918856	20.9325	2.6239e+09	6.85964e+09	7.34435e+09	-69.0675	0.0000000E+000	0.0000000E+000	0.0000000E+000	69.0675	0.0000000E+000	0.0000000E+000	0.0000000E+000	-69.0675	0.0000000E+000	0.0000000E+000	0.0000000E+000	-20.9325	0.0000000E+000	0.0000000E+000	0.0000000E+000	20.9325	2.61429	69.0675	0.000000000000000E+000	-6.26876e-06	-7.74617e-11	-6.26868e-06	3.87548	2.39596e+06	29.6063	2.39593e+06
0.000497799	10.617	10.7118	15.0819	-45.2547	20328.9	3.87552	-0.00161753	2.98471e+07	1.50563e+07	1	11	0.00510113	0.000338228	0	-0.0752399	4.7889e-05	3.89082e-07	-124.688	0.00115035	-0.000654672	0.000945894	-45.259	15.0821	10.6163	10.7128	0.0466755	0.0470924	0.0663046	45.2547	1.50563e+10	1.4923e+10	2.11987e+10	-44.7453	0.0000000E+000	0.0000000E+000	0.0000000E+000	44.7453	0.0000000E+000	0.0000000E+000	0.0000000E+000	-44.7453	0.0000000E+000	0.0000000E+000	0.0000000E+000	-45.2547	0.0000000E+000	0.0000000E+000	0.0000000E+000	45.2547	0.991147	44.7453	0.000000000000000E+000	-6.26876e-06	-7.74617e-11	-6.26868e-06	3.87548	2.39596e+06	29.6063	2.39593e+06
9.95598e-05	7.3221	75.412	75.7666	-84.4543	20328.9	3.87552	-0.00161753	2.1198e+07	2.10001e+07	1	11	0.00509763	6.72806e-05	0	-0.0752399	4.7889e-05	1.54146e-06	70.7399	0.0229109	0.00755731	-0.0216286	-84.447	75.7458	7.32966	75.3904	0.0012755	0.0131366	0.0131984	84.4543	2.10001e+10	2.03899e+09	2.10988e+10	-5.54573	0.0000000E+000	0.0000000E+000	0.0000000E+000	5.54573	0.0000000E+000	0.0000000E+000	0.0000000E+000	-5.54573	0.0000000E+000	0.0000000E+000	0.0000000E+000	-84.4543	0.0000000E+000	0.0000000E+000	0.0000000E+000	84.4543	0.0970946	5.54573	0.000000000000000E+000	-6.26876e-06	-7.74617e-11	-6.26868e-06	3.87548	2.39596e+06	29.6063	2.39593e+06