File: txt/19320_R313_UC98_SOC50_C04.mpt
EC-Lab ASCII FILE
Nb header lines : 65

Potentio Electrochemical Impedance Spectroscopy

Run on channel : 4 (SN 66756)
User :
CE vs. WE compliance from -10 V to 10 V
Electrode connection : standard
Potential control : Ewe
Ewe ctrl range : min = -10.00 V, max = 10.00 V
Safety Limits :
	Do not start on E overload
Acquisition started on : 11/18/2025 16:32:44.421
Technique started on : 11/18/2025 16:32:46.655
Loaded Setting File :  C:\Users\Celltest\OneDrive - store-dot.com\Documents\EC-Lab\Data\txt_done\19191_R297_UC94_SOC50_C08.mpr
Saved on :
	File : 19320_R313_UC98_SOC50_C04.mpr
	Directory : C:\Users\Celltest\OneDrive - store-dot.com\Documents\EC-Lab\Data\Michael\
	Host : 169.254.61.224
Device : VMP-3e (SN .003165)
Address : USB
EC-LAB for windows v11.62 (software)
Internet server v27.00 (firmware)
Command interpretor v12.03 (firmware)
Electrode material :
Initial state :
Electrolyte :
Comments :
Electrode surface area : 0.001 cm²
Characteristic mass : 0.001 g
Equivalent Weight : 0.000 g/eq.
Density : 0.000 g/cm3
Volume (V) : 0.001 cm³
Record Ece
Cycle Definition : Charge/Discharge alternance
Mode                Multi sine
E (V)               0.0000
vs.                 Eoc
tE (h:m:s)          0:00:0.0000
record              0
dI                  0.000
unit dI             mA
dt (s)              0.000
fi                  1.000
unit fi             MHz
ff                  0.100
unit ff             mHz
Nd                  10
Points              per decade
spacing             Logarithmic
Va (mV)             5.0
pw                  0.10
Na                  2
corr                0
E range min (V)     -10.000
E range max (V)     10.000
I Range             Auto
Bandwidth           5
nc cycles           0
goto Ns'            0
nr cycles           0
inc. cycle          0

freq/Hz	Re(Z)/Ohm	-Im(Z)/Ohm	|Z|/Ohm	Phase(Z)/deg	time/s	<Ewe>/V	<I>/mA	Cs/µF	Cp/µF	cycle number	I Range	|Ewe|/V	|I|/A	Ns	(Q-Qo)/mA.h	<Ece>/V	|Ece|/V	Phase(Zce)/deg	|Zce|/Ohm	Re(Zce)/Ohm	-Im(Zce)/Ohm	Phase(Zwe-ce)/deg	|Zwe-ce|/Ohm	Re(Zwe-ce)/Ohm	-Im(Zwe-ce)/Ohm	Re(Y)/Ohm-1	Im(Y)/Ohm-1	|Y|/Ohm-1	Phase(Y)/deg	Re(C)/nF	Im(C)/nF	|C|/nF	Phase(C)/deg	Re(M)	Im(M)	|M|	Phase(M)/deg	Re(Permittivity)	Im(Permittivity)	|Permittivity|	Phase(Permittivity)/deg	Re(Resistivity)/Ohm.cm	Im(Resistivity)/Ohm.cm	|Resistivity|/Ohm.cm	Phase(Resistivity)/deg	Re(Conductivity)/mS/cm	Im(Conductivity)/mS/cm	|Conductivity|/mS/cm	Phase(Conductivity)/deg	Tan(Delta)	Loss Angle(Delta)/deg	dq/mA.h	Pwe/W	Pce/W	Pwe-ce/W	<Ewe-Ece>/V	Rwe/Ohm	Rce/Ohm	Rwe-ce/Ohm		Ewe-Ece/V
1.00002e+06	0.929294	-0.121457	0.937197	7.44626	2.23353	3.87656	0.177289	-1.31035	-0.0220076	1	9	0.000190277	0.000203027	0	3.14692e-06	-0.000216013	0.000189937	5.44461	0.935523	0.931303	-0.0887657	6.44633	1.87244	1.8606	-0.210223	1.05801	-0.138281	1.06701	-7.44626	-22.0076	168.385	169.817	-97.4463	0.0000000E+000	0.0000000E+000	0.0000000E+000	97.4463	0.0000000E+000	0.0000000E+000	0.0000000E+000	-97.4463	0.0000000E+000	0.0000000E+000	0.0000000E+000	7.44626	0.0000000E+000	0.0000000E+000	0.0000000E+000	-7.44626	7.6512	82.5537	3.14692e-06	0.00068727	-3.82966e-08	0.000687309	3.87678	21865.8	1.21842	21867
251206	0.677201	0.234303	0.716588	-19.085	4.53356	3.87518	-0.0769669	2.70403	0.289087	1	9	0.00183377	0.00255903	0	-1.41407e-05	-0.000120463	4.40665e-05	77.2457	0.01722	0.00380165	-0.0167951	-17.7132	0.714894	0.681002	0.217508	1.3188	0.456288	1.3955	19.085	289.087	835.541	884.138	-70.915	0.0000000E+000	0.0000000E+000	0.0000000E+000	70.915	0.0000000E+000	0.0000000E+000	0.0000000E+000	-70.915	0.0000000E+000	0.0000000E+000	0.0000000E+000	-19.085	0.0000000E+000	0.0000000E+000	0.0000000E+000	19.085	2.89027	70.915	-6.47313e-06	-0.000298261	9.27168e-09	-0.00029827	3.8753	50348.7	1.56513	50350.2
63093.8	1.03889	0.340898	1.09339	-18.1665	6.83153	3.87503	-0.0779739	7.3996	0.719291	1	9	0.00530124	0.00484842	0	-6.98872e-05	-0.000254233	1.66427e-05	89.6627	0.00343261	2.02101e-05	-0.00343255	-17.9951	1.09235	1.03891	0.337466	0.868995	0.285149	0.914583	18.1665	719.291	2192.05	2307.05	-71.8335	0.0000000E+000	0.0000000E+000	0.0000000E+000	71.8335	0.0000000E+000	0.0000000E+000	0.0000000E+000	-71.8335	0.0000000E+000	0.0000000E+000	0.0000000E+000	-18.1665	0.0000000E+000	0.0000000E+000	0.0000000E+000	18.1665	3.04752	71.8335	-3.58369e-06	-0.000302151	1.98235e-08	-0.000302171	3.87529	49696.5	3.26049	49699.8
15847.7	1.32026	0.397235	1.37873	-16.7453	9.12956	3.87505	-0.0591388	25.2817	2.09867	1	9	0.0051458	0.00373228	0	-9.53554e-05	-8.22432e-05	5.9802e-06	-102.059	0.00160229	-0.000334763	0.00156693	-16.8116	1.37886	1.31993	0.398802	0.694549	0.208973	0.725306	16.7453	2098.67	6975.21	7284.09	-73.2547	0.0000000E+000	0.0000000E+000	0.0000000E+000	73.2547	0.0000000E+000	0.0000000E+000	0.0000000E+000	-73.2547	0.0000000E+000	0.0000000E+000	0.0000000E+000	-16.7453	0.0000000E+000	0.0000000E+000	0.0000000E+000	16.7453	3.32363	73.2547	-5.74799e-06	-0.000229166	4.86376e-09	-0.000229171	3.87514	65524.7	1.39068	65526.1
3983.6	1.6793	0.590537	1.78011	-19.3745	10.8541	3.87493	-0.151673	67.6546	7.44557	1	9	0.00525696	0.00295317	0	-0.000131798	-4.40233e-05	8.15865e-06	-89.3706	0.00276268	3.03473e-05	0.00276251	-19.4581	1.78106	1.67933	0.593299	0.529951	0.18636	0.561763	19.3745	7445.57	21172.9	22443.9	-70.6255	0.0000000E+000	0.0000000E+000	0.0000000E+000	70.6255	0.0000000E+000	0.0000000E+000	0.0000000E+000	-70.6255	0.0000000E+000	0.0000000E+000	0.0000000E+000	-19.3745	0.0000000E+000	0.0000000E+000	0.0000000E+000	19.3745	2.84369	70.6255	-1.30343e-05	-0.000587724	6.67716e-09	-0.000587731	3.87498	25547.9	0.29025	25548.2
1000.32	2.27903	1.01531	2.49496	-24.013	13.4828	3.87492	-0.114376	156.705	25.9508	1	9	0.00504942	0.00202384	0	-0.000212677	-4.40233e-05	1.15051e-05	-17.3235	0.00568476	0.0054269	0.00169273	-23.9978	2.50061	2.28446	1.017	0.366119	0.163106	0.400808	24.013	25950.8	58251	63770.1	-65.987	0.0000000E+000	0.0000000E+000	0.0000000E+000	65.987	0.0000000E+000	0.0000000E+000	0.0000000E+000	-65.987	0.0000000E+000	0.0000000E+000	0.0000000E+000	-24.013	0.0000000E+000	0.0000000E+000	0.0000000E+000	24.013	2.24467	65.987	-1.12011e-05	-0.000443199	5.03521e-09	-0.000443204	3.87497	33878.8	0.384899	33879.2
251.044	3.59666	1.54804	3.91566	-23.2876	16.429	3.87495	-0.0691411	409.531	64.0092	1	10	0.00502348	0.00128292	0	-0.000282074	1.33066e-05	8.75081e-06	-75.2167	0.00682101	0.00174047	0.00659522	-23.3661	3.91987	3.5984	1.55464	0.234579	0.100965	0.255385	23.2876	64009.2	148716	161907	-66.7124	0.0000000E+000	0.0000000E+000	0.0000000E+000	66.7124	0.0000000E+000	0.0000000E+000	0.0000000E+000	-66.7124	0.0000000E+000	0.0000000E+000	0.0000000E+000	-23.2876	0.0000000E+000	0.0000000E+000	0.0000000E+000	23.2876	2.32336	66.7124	-8.78229e-06	-0.000267918	-9.20032e-10	-0.000267917	3.87494	56044.1	0.192456	56043.9
63.0823	5.18281	1.05412	5.28892	-11.4964	19.15	3.87497	-0.0936147	2393.44	95.0753	1	10	0.00499212	0.000943882	0	-0.000342419	-0.000101353	1.19621e-05	23.0817	0.0126733	0.0116588	-0.00496849	-11.4187	5.29936	5.19447	1.04915	0.185281	0.0376838	0.189074	11.4964	95075.3	467459	477030	-78.5036	0.0000000E+000	0.0000000E+000	0.0000000E+000	78.5036	0.0000000E+000	0.0000000E+000	0.0000000E+000	-78.5036	0.0000000E+000	0.0000000E+000	0.0000000E+000	-11.4964	0.0000000E+000	0.0000000E+000	0.0000000E+000	11.4964	4.91672	78.5036	-9.27315e-06	-0.000362754	9.48815e-09	-0.000362764	3.87507	41392.7	1.08266	41393.8
15.8576	5.62656	0.519308	5.65047	-5.27322	21.8091	3.87497	-0.12117	19326.7	163.245	1	10	0.00498253	0.00088179	0	-0.000395211	-0.000235123	2.69887e-05	5.20866	0.0306067	0.0304803	-0.00277857	-5.21706	5.68057	5.65704	0.516529	0.176227	0.016265	0.176976	5.27322	163245	1.76871e+06	1.77623e+06	-84.7268	0.0000000E+000	0.0000000E+000	0.0000000E+000	84.7268	0.0000000E+000	0.0000000E+000	0.0000000E+000	-84.7268	0.0000000E+000	0.0000000E+000	0.0000000E+000	-5.27322	0.0000000E+000	0.0000000E+000	0.0000000E+000	5.27322	10.8347	84.7268	-8.6919e-06	-0.000469528	2.84897e-08	-0.000469557	3.87521	31979.7	1.94044	31981.7
3.97785	5.71802	0.229887	5.72264	-2.30227	24.7223	3.87499	-0.0571299	174043	280.862	1	10	0.00499021	0.000872011	0	-0.00045925	-0.000216013	2.40431e-05	-49.8829	0.027572	0.0177661	0.0210851	-2.5054	5.74128	5.73579	0.250972	0.174603	0.00701974	0.174744	2.30227	280862	6.98593e+06	6.99157e+06	-87.6977	0.0000000E+000	0.0000000E+000	0.0000000E+000	87.6977	0.0000000E+000	0.0000000E+000	0.0000000E+000	-87.6977	0.0000000E+000	0.0000000E+000	0.0000000E+000	-2.30227	0.0000000E+000	0.0000000E+000	0.0000000E+000	2.30227	24.8732	87.6977	-1.61747e-05	-0.000221378	1.23408e-08	-0.00022139	3.87521	67827.7	3.78108	67831.5
1.00469	5.88428	0.294618	5.89165	-2.86633	239.98	3.87496	-0.0418832	537684	1344.54	1	11	0.00506341	0.000859421	0	-0.00638467	-0.000139573	4.34607e-07	-12.8681	0.000505698	0.000492997	0.000112623	-2.86719	5.89215	5.88477	0.294731	0.169519	0.00848762	0.169732	2.86633	1.34454e+06	2.68538e+07	2.68875e+07	-87.1337	0.0000000E+000	0.0000000E+000	0.0000000E+000	87.1337	0.0000000E+000	0.0000000E+000	0.0000000E+000	-87.1337	0.0000000E+000	0.0000000E+000	0.0000000E+000	-2.86633	0.0000000E+000	0.0000000E+000	0.0000000E+000	2.86633	19.9725	87.1337	-0.00581624	-0.000162296	5.84576e-09	-0.000162301	3.8751	92518.3	3.33244	92521.7
0.251173	6.1562	0.623316	6.18767	-5.7815	239.982	3.87496	-0.0418832	1.01657e+06	10315.7	1	11	0.00509141	0.000822832	0	-0.00638467	-0.000139573	7.94102e-07	-15.7512	0.000965083	0.000928844	0.000261982	-5.78305	6.18862	6.15712	0.623577	0.16079	0.01628	0.161612	5.7815	1.03157e+07	1.01884e+08	1.02405e+08	-84.2185	0.0000000E+000	0.0000000E+000	0.0000000E+000	84.2185	0.0000000E+000	0.0000000E+000	0.0000000E+000	-84.2185	0.0000000E+000	0.0000000E+000	0.0000000E+000	-5.7815	0.0000000E+000	0.0000000E+000	0.0000000E+000	5.7815	9.87653	84.2185	0.000000000000000E+000	-0.000162296	5.84576e-09	-0.000162301	3.8751	92518.3	3.33244	92521.7
0.0602816	6.77336	1.21243	6.88101	-10.1484	239.984	3.87496	-0.0418832	2.17761e+06	67606.1	1	11	0.00508261	0.000738642	0	-0.00638467	-0.000139573	6.72121e-07	31.6541	0.000909941	0.000774571	-0.000477527	-10.1434	6.88169	6.77413	1.21195	0.143054	0.0256065	0.145327	10.1484	6.76061e+07	3.77689e+08	3.83692e+08	-79.8516	0.0000000E+000	0.0000000E+000	0.0000000E+000	79.8516	0.0000000E+000	0.0000000E+000	0.0000000E+000	-79.8516	0.0000000E+000	0.0000000E+000	0.0000000E+000	-10.1484	0.0000000E+000	0.0000000E+000	0.0000000E+000	10.1484	5.58661	79.8516	0.000000000000000E+000	-0.000162296	5.84576e-09	-0.000162301	3.8751	92518.3	3.33244	92521.7
0.00796479	8.64004	2.50744	8.99653	-16.1834	20328.9	3.87496	-0.00129625	7.96921e+06	619052	1	11	0.00507532	0.000564142	0	-0.0712528	-0.000273343	5.16612e-07	-33.7007	0.000915748	0.000761854	0.000508106	-16.1851	8.9974	8.6408	2.50795	0.106749	0.03098	0.111154	16.1834	6.19052e+08	2.1331e+09	2.22112e+09	-73.8166	0.0000000E+000	0.0000000E+000	0.0000000E+000	73.8166	0.0000000E+000	0.0000000E+000	0.0000000E+000	-73.8166	0.0000000E+000	0.0000000E+000	0.0000000E+000	-16.1834	0.0000000E+000	0.0000000E+000	0.0000000E+000	16.1834	3.44576	73.8166	-0.0648681	-5.02292e-06	3.5432e-10	-5.02327e-06	3.87523	2.98936e+06	210.872	2.98957e+06
0.0019912	10.4373	4.0046	11.1792	-20.991	20328.9	3.87496	-0.00129625	1.99594e+07	2.56122e+06	1	11	0.00508807	0.000455139	0	-0.0712528	-0.000273343	4.02192e-07	41.8364	0.000883669	0.000658379	-0.000589412	-20.9869	11.1796	10.4379	4.00401	0.0835159	0.0320436	0.0894522	20.991	2.56122e+09	6.67537e+09	7.14985e+09	-69.009	0.0000000E+000	0.0000000E+000	0.0000000E+000	69.009	0.0000000E+000	0.0000000E+000	0.0000000E+000	-69.009	0.0000000E+000	0.0000000E+000	0.0000000E+000	-20.991	0.0000000E+000	0.0000000E+000	0.0000000E+000	20.991	2.60632	69.009	0.000000000000000E+000	-5.02292e-06	3.5432e-10	-5.02327e-06	3.87523	2.98936e+06	210.872	2.98957e+06
0.000497799	10.9504	10.4131	15.1111	-43.5593	20328.9	3.87496	-0.00129625	3.07033e+07	1.458e+07	1	11	0.00509165	0.000336948	0	-0.0712528	-0.000273343	1.30162e-06	-54.5742	0.00386297	0.00223916	0.0031478	-43.5621	15.1149	10.9527	10.4163	0.0479557	0.0456027	0.0661767	43.5593	1.458e+10	1.53323e+10	2.11578e+10	-46.4407	0.0000000E+000	0.0000000E+000	0.0000000E+000	46.4407	0.0000000E+000	0.0000000E+000	0.0000000E+000	-46.4407	0.0000000E+000	0.0000000E+000	0.0000000E+000	-43.5593	0.0000000E+000	0.0000000E+000	0.0000000E+000	43.5593	1.0516	46.4407	0.000000000000000E+000	-5.02292e-06	3.5432e-10	-5.02327e-06	3.87523	2.98936e+06	210.872	2.98957e+06
9.95598e-05	9.58521	70.8007	71.4466	-82.29	20328.9	3.87496	-0.00129625	2.25787e+07	2.21723e+07	1	11	0.0050913	7.12603e-05	0	-0.0712528	-0.000273343	5.46492e-06	94.2534	0.0766896	-0.00568793	-0.0764783	-82.2863	71.37	9.57952	70.7242	0.00187776	0.0138699	0.0139965	82.29	2.21723e+10	3.00175e+09	2.23746e+10	-7.71	0.0000000E+000	0.0000000E+000	0.0000000E+000	7.71	0.0000000E+000	0.0000000E+000	0.0000000E+000	-7.71	0.0000000E+000	0.0000000E+000	0.0000000E+000	-82.29	0.0000000E+000	0.0000000E+000	0.0000000E+000	82.29	0.135383	7.70999	0.000000000000000E+000	-5.02292e-06	3.5432e-10	-5.02327e-06	3.87523	2.98936e+06	210.872	2.98957e+06