File: txt/19345_R279_UA714_SOC00_C04.mpt
EC-Lab ASCII FILE
Nb header lines : 65

Potentio Electrochemical Impedance Spectroscopy

Run on channel : 4 (SN 66756)
User :
CE vs. WE compliance from -10 V to 10 V
Electrode connection : standard
Potential control : Ewe
Ewe ctrl range : min = -10.00 V, max = 10.00 V
Safety Limits :
	Do not start on E overload
Acquisition started on : 11/20/2025 15:02:47.228
Technique started on : 11/20/2025 15:02:49.139
Loaded Setting File :  C:\Users\Celltest\OneDrive - store-dot.com\Documents\EC-Lab\Data\@Biologic Test Protocols\anode half cell EIS SOC00.mps
Saved on :
	File : 19345_R279_UA714_SOC00_C04.mpr
	Directory : C:\Users\Celltest\OneDrive - store-dot.com\Documents\EC-Lab\Data\Charmaine\
	Host : 169.254.61.224
Device : VMP-3e (SN .003165)
Address : USB
EC-LAB for windows v11.62 (software)
Internet server v27.00 (firmware)
Command interpretor v12.03 (firmware)
Electrode material :
Initial state :
Electrolyte :
Comments :
Electrode surface area : 0.001 cm²
Characteristic mass : 0.001 g
Equivalent Weight : 0.000 g/eq.
Density : 0.000 g/cm3
Volume (V) : 0.001 cm³
Record Ece
Cycle Definition : Charge/Discharge alternance
Mode                Single sine
E (V)               0.0000
vs.                 Eoc
tE (h:m:s)          0:00:0.0000
record              0
dI                  0.000
unit dI             mA
dt (s)              0.000
fi                  100.000
unit fi             kHz
ff                  10.000
unit ff             mHz
Nd                  6
Points              per decade
spacing             Logarithmic
Va (mV)             5.0
pw                  0.10
Na                  2
corr                0
E range min (V)     -10.000
E range max (V)     10.000
I Range             Auto
Bandwidth           5
nc cycles           0
goto Ns'            0
nr cycles           0
inc. cycle          0

freq/Hz	Re(Z)/Ohm	-Im(Z)/Ohm	|Z|/Ohm	Phase(Z)/deg	time/s	<Ewe>/V	<I>/mA	Cs/µF	Cp/µF	cycle number	I Range	|Ewe|/V	|I|/A	Ns	(Q-Qo)/mA.h	<Ece>/V	|Ece|/V	Phase(Zce)/deg	|Zce|/Ohm	Re(Zce)/Ohm	-Im(Zce)/Ohm	Phase(Zwe-ce)/deg	|Zwe-ce|/Ohm	Re(Zwe-ce)/Ohm	-Im(Zwe-ce)/Ohm	Re(Y)/Ohm-1	Im(Y)/Ohm-1	|Y|/Ohm-1	Phase(Y)/deg	Re(C)/nF	Im(C)/nF	|C|/nF	Phase(C)/deg	Re(M)	Im(M)	|M|	Phase(M)/deg	Re(Permittivity)	Im(Permittivity)	|Permittivity|	Phase(Permittivity)/deg	Re(Resistivity)/Ohm.cm	Im(Resistivity)/Ohm.cm	|Resistivity|/Ohm.cm	Phase(Resistivity)/deg	Re(Conductivity)/mS/cm	Im(Conductivity)/mS/cm	|Conductivity|/mS/cm	Phase(Conductivity)/deg	Tan(Delta)	Loss Angle(Delta)/deg	dq/mA.h	Pwe/W	Pce/W	Pwe-ce/W	<Ewe-Ece>/V	Rwe/Ohm	Rce/Ohm	Rwe-ce/Ohm		Ewe-Ece/V
100004	1.32073	0.589296	1.44624	-24.0459	1.91056	0.263303	-0.0343361	2.70066	0.448392	1	9	0.00472137	0.00326459	0	-8.8643e-06	1.33066e-05	2.57401e-05	94.2524	0.00788466	-0.000584647	-0.00786295	-23.7701	1.44252	1.32015	0.581433	0.631445	0.281743	0.691449	24.0459	448.392	1004.94	1100.43	-65.9541	0.0000000E+000	0.0000000E+000	0.0000000E+000	65.9541	0.0000000E+000	0.0000000E+000	0.0000000E+000	-65.9541	0.0000000E+000	0.0000000E+000	0.0000000E+000	-24.0459	0.0000000E+000	0.0000000E+000	0.0000000E+000	24.0459	2.24121	65.9541	-8.8643e-06	-9.04078e-06	-4.56897e-10	-9.04033e-06	0.263289	7668.39	0.38754	7668
31621.1	1.83582	0.744498	1.98104	-22.0745	3.43152	0.263318	-0.0336648	6.7605	0.954819	1	9	0.00514312	0.00259617	0	-2.21444e-05	-8.22432e-05	1.05407e-05	41.4311	0.0040601	0.00304407	-0.00268664	-21.9695	1.98285	1.83886	0.741812	0.467783	0.189705	0.504786	22.0745	954.819	2354.44	2540.68	-67.9255	0.0000000E+000	0.0000000E+000	0.0000000E+000	67.9255	0.0000000E+000	0.0000000E+000	0.0000000E+000	-67.9255	0.0000000E+000	0.0000000E+000	0.0000000E+000	-22.0745	0.0000000E+000	0.0000000E+000	0.0000000E+000	22.0745	2.46585	67.9255	-5.79153e-07	-8.86455e-06	2.7687e-09	-8.86732e-06	0.263401	7821.78	2.443	7824.22
10002.2	2.38066	0.928314	2.55525	-21.3028	4.45653	0.263308	-0.0338513	17.1407	2.26231	1	9	0.00493692	0.00193207	0	-3.16657e-05	-0.000216013	1.74629e-05	-103.522	0.00903843	-0.0021133	0.0087879	-21.5035	2.55649	2.37855	0.937101	0.364611	0.142177	0.391351	21.3028	2262.31	5801.68	6227.16	-68.6972	0.0000000E+000	0.0000000E+000	0.0000000E+000	68.6972	0.0000000E+000	0.0000000E+000	0.0000000E+000	-68.6972	0.0000000E+000	0.0000000E+000	0.0000000E+000	-21.3028	0.0000000E+000	0.0000000E+000	0.0000000E+000	21.3028	2.5645	68.6972	-2.21153e-06	-8.91332e-06	7.31231e-09	-8.92063e-06	0.263524	7778.38	6.38123	7784.77
3163.08	2.99973	1.37705	3.3007	-24.6579	5.35361	0.263116	-0.0629432	36.5393	6.35984	1	9	0.00456803	0.00138396	0	-4.25467e-05	-0.000196903	4.50275e-06	-35.1923	0.00325354	0.00265886	0.00187509	-24.6682	3.3039	3.00239	1.37893	0.27534	0.126397	0.302966	24.6579	6359.84	13854.1	15244.2	-65.3421	0.0000000E+000	0.0000000E+000	0.0000000E+000	65.3421	0.0000000E+000	0.0000000E+000	0.0000000E+000	-65.3421	0.0000000E+000	0.0000000E+000	0.0000000E+000	-24.6579	0.0000000E+000	0.0000000E+000	0.0000000E+000	24.6579	2.17837	65.3421	-6.43746e-06	-1.65613e-05	1.23937e-08	-1.65737e-05	0.263313	4180.21	3.12826	4183.34
1000.32	3.8426	2.52961	4.60049	-33.3572	6.95281	0.263245	-0.0148521	62.8967	19.0163	1	10	0.00460799	0.00100163	0	-4.68813e-05	-0.000311563	6.99189e-06	30.0995	0.00698051	0.00603922	-0.00350075	-33.2795	4.60361	3.84864	2.52611	0.181559	0.119521	0.217368	33.3572	19016.3	28886.7	34584.2	-56.6428	0.0000000E+000	0.0000000E+000	0.0000000E+000	56.6428	0.0000000E+000	0.0000000E+000	0.0000000E+000	-56.6428	0.0000000E+000	0.0000000E+000	0.0000000E+000	-33.3572	0.0000000E+000	0.0000000E+000	0.0000000E+000	33.3572	1.51905	56.6428	-1.27071e-06	-3.90972e-06	4.62735e-09	-3.91435e-06	0.263556	17724.4	20.9777	17745.4
316.316	5.61033	5.43639	7.81218	-44.0979	8.30307	0.263245	-0.0144865	92.5526	44.8193	1	10	0.00451627	0.000578107	0	-5.14464e-05	-0.000349783	1.04387e-05	40.5201	0.0180567	0.0137263	-0.0117317	-43.9661	7.81389	5.62405	5.42465	0.0919273	0.0890772	0.128005	44.0979	44819.3	46253.4	64406.1	-45.9021	0.0000000E+000	0.0000000E+000	0.0000000E+000	45.9021	0.0000000E+000	0.0000000E+000	0.0000000E+000	-45.9021	0.0000000E+000	0.0000000E+000	0.0000000E+000	-44.0979	0.0000000E+000	0.0000000E+000	0.0000000E+000	44.0979	1.032	45.9021	-1.31707e-06	-3.81351e-06	5.06714e-09	-3.81857e-06	0.263595	18171.7	24.1454	18195.9
100.032	11.2678	10.8223	15.6233	-43.8446	9.86185	0.263236	-0.0147775	147.015	70.5435	1	10	0.00499453	0.000319686	0	-5.7476e-05	-0.000559992	6.84321e-06	33.4678	0.0214061	0.0178569	-0.0118048	-43.768	15.628	11.2857	10.8105	0.0461633	0.044338	0.0640071	43.8446	70543.5	73447.7	101838	-46.1554	0.0000000E+000	0.0000000E+000	0.0000000E+000	46.1554	0.0000000E+000	0.0000000E+000	0.0000000E+000	-46.1554	0.0000000E+000	0.0000000E+000	0.0000000E+000	-43.8446	0.0000000E+000	0.0000000E+000	0.0000000E+000	43.8446	1.04117	46.1554	-2.00156e-06	-3.88997e-06	8.27528e-09	-3.89824e-06	0.263796	17813.3	37.8949	17851.2
31.6296	23.5912	12.9931	26.9326	-28.8442	11.4305	0.263283	-0.0010579	387.271	90.1329	1	11	0.00499429	0.000185437	0	-6.05337e-05	-0.000349783	1.16362e-05	32.5148	0.0627502	0.0529143	-0.0337294	-28.7272	26.9627	23.6441	12.9594	0.0325232	0.0179125	0.0371297	28.8442	90132.9	163652	186831	-61.1558	0.0000000E+000	0.0000000E+000	0.0000000E+000	61.1558	0.0000000E+000	0.0000000E+000	0.0000000E+000	-61.1558	0.0000000E+000	0.0000000E+000	0.0000000E+000	-28.8442	0.0000000E+000	0.0000000E+000	0.0000000E+000	28.8442	1.81567	61.1558	2.86268e-07	-2.78527e-07	3.70034e-10	-2.78897e-07	0.263633	248874	330.639	249204
10.0032	32.6653	7.94573	33.6178	-13.6715	12.7628	0.263252	-0.00171526	2002.38	111.86	1	11	0.00499615	0.000148616	0	-6.17211e-05	-0.000177793	5.62501e-06	-153.272	0.0378492	-0.0338052	0.0170228	-13.7133	33.589	32.6315	7.96276	0.0289033	0.00703063	0.0297461	13.6715	111860	459863	473273	-76.3285	0.0000000E+000	0.0000000E+000	0.0000000E+000	76.3285	0.0000000E+000	0.0000000E+000	0.0000000E+000	-76.3285	0.0000000E+000	0.0000000E+000	0.0000000E+000	-13.6715	0.0000000E+000	0.0000000E+000	0.0000000E+000	13.6715	4.11105	76.3285	-1.41586e-06	-4.51547e-07	3.04962e-10	-4.51852e-07	0.26343	153476	103.653	153580
3.1604	35.8383	4.22978	36.0871	-6.73113	14.2805	0.263288	4.04423e-05	11905.9	163.566	1	11	0.00498314	0.000138086	0	-6.21109e-05	1.33066e-05	1.82758e-06	-112.206	0.0132351	-0.00500207	0.0122534	-6.75138	36.0836	35.8333	4.24203	0.0275197	0.00324799	0.0277107	6.73113	163566	1.38587e+06	1.39549e+06	-83.2689	0.0000000E+000	0.0000000E+000	0.0000000E+000	83.2689	0.0000000E+000	0.0000000E+000	0.0000000E+000	-83.2689	0.0000000E+000	0.0000000E+000	0.0000000E+000	-6.73113	0.0000000E+000	0.0000000E+000	0.0000000E+000	6.73113	8.47286	83.2689	-1.77004e-06	1.0648e-08	5.38149e-13	1.06474e-08	0.263275	6.51022e+06	329.027	6.5099e+06
1.00006	37.6022	3.07128	37.7274	-4.66945	19.5988	0.263282	0.000275286	51817.1	343.398	1	12	0.00498486	0.000132128	0	-5.83955e-05	-0.000235123	3.09963e-06	-41.5351	0.0234593	0.0175604	0.0155553	-4.69081	37.7462	37.6198	3.08684	0.0264179	0.00215777	0.0265059	4.66945	343398	4.20428e+06	4.21828e+06	-85.3306	0.0000000E+000	0.0000000E+000	0.0000000E+000	85.3306	0.0000000E+000	0.0000000E+000	0.0000000E+000	-85.3306	0.0000000E+000	0.0000000E+000	0.0000000E+000	-4.66945	0.0000000E+000	0.0000000E+000	0.0000000E+000	4.66945	12.2432	85.3306	4.42741e-06	7.24777e-08	-6.4726e-11	7.25424e-08	0.263517	956394	854.104	957248
0.316193	39.6695	3.19878	39.7983	-4.6101	33.9411	0.263289	0.000998665	157356	1016.54	1	12	0.00498072	0.000125149	0	-5.56018e-05	-2.49133e-05	1.60037e-06	9.03697	0.0127878	0.012629	-0.0020086	-4.60576	39.8107	39.6822	3.19677	0.0250454	0.00201955	0.0251267	4.6101	1.01653e+06	1.26065e+07	1.26475e+07	-85.3899	0.0000000E+000	0.0000000E+000	0.0000000E+000	85.3899	0.0000000E+000	0.0000000E+000	0.0000000E+000	-85.3899	0.0000000E+000	0.0000000E+000	0.0000000E+000	-4.6101	0.0000000E+000	0.0000000E+000	0.0000000E+000	4.6101	12.4015	85.3899	-4.322e-06	2.62938e-07	-2.48801e-11	2.62963e-07	0.263314	263641	24.9466	263666
0.0999041	42.0969	4.09487	42.2956	-5.55582	79.1501	0.26328	-0.000375721	389042	3646.58	1	12	0.00499039	0.000117988	0	-0.000107042	-0.000235123	2.7533e-06	15.9029	0.0233354	0.0224422	-0.00639407	-5.54426	42.3174	42.1194	4.08847	0.023532	0.00228902	0.0236431	5.55582	3.64658e+06	3.74884e+07	3.76653e+07	-84.4442	0.0000000E+000	0.0000000E+000	0.0000000E+000	84.4442	0.0000000E+000	0.0000000E+000	0.0000000E+000	-84.4442	0.0000000E+000	0.0000000E+000	0.0000000E+000	-5.55582	0.0000000E+000	0.0000000E+000	0.0000000E+000	5.55582	10.2804	84.4442	-1.80581e-05	-9.89198e-08	8.83405e-11	-9.90082e-08	0.263515	700733	625.791	701359
0.0315922	45.0652	7.7173	45.7212	-9.7175	222.035	0.263277	-0.000901984	652792	18598.2	1	12	0.00498908	0.00010912	0	-4.01508e-06	0.000127966	2.25867e-06	-7.4081	0.020699	0.0205263	0.00266885	-9.71645	45.7419	45.0857	7.71997	0.0215579	0.00369173	0.0218717	9.7175	1.85982e+07	1.08604e+08	1.10185e+08	-80.2825	0.0000000E+000	0.0000000E+000	0.0000000E+000	80.2825	0.0000000E+000	0.0000000E+000	0.0000000E+000	-80.2825	0.0000000E+000	0.0000000E+000	0.0000000E+000	-9.7175	0.0000000E+000	0.0000000E+000	0.0000000E+000	9.7175	5.8395	80.2825	7.82573e-05	-2.37471e-07	-1.15424e-10	-2.37356e-07	0.263149	291886	141.872	291744
0.0100092	50.6189	17.5914	53.5885	-19.1637	673.257	0.263277	0.000499765	903902	97404.5	1	12	0.00498904	9.3099e-05	0	0.000138112	0.000242626	1.60656e-06	-5.75128	0.0172565	0.0171696	0.00172928	-19.1594	53.6053	50.6361	17.5931	0.0176266	0.00612572	0.0186607	19.1637	9.74045e+07	2.80279e+08	2.96722e+08	-70.8363	0.0000000E+000	0.0000000E+000	0.0000000E+000	70.8363	0.0000000E+000	0.0000000E+000	0.0000000E+000	-70.8363	0.0000000E+000	0.0000000E+000	0.0000000E+000	-19.1637	0.0000000E+000	0.0000000E+000	0.0000000E+000	19.1637	2.87748	70.8363	-5.49171e-05	1.31576e-07	1.21256e-10	1.31455e-07	0.263034	526801	485.48	526315