File: txt/19343_R279_UA714_SOC00_C02.mpt
EC-Lab ASCII FILE
Nb header lines : 65

Potentio Electrochemical Impedance Spectroscopy

Run on channel : 2 (SN 66139)
User :
CE vs. WE compliance from -10 V to 10 V
Electrode connection : standard
Potential control : Ewe
Ewe ctrl range : min = -10.00 V, max = 10.00 V
Safety Limits :
	Do not start on E overload
Acquisition started on : 11/20/2025 15:02:26.919
Technique started on : 11/20/2025 15:02:28.646
Loaded Setting File :  C:\Users\Celltest\OneDrive - store-dot.com\Documents\EC-Lab\Data\@Biologic Test Protocols\anode half cell EIS SOC00.mps
Saved on :
	File : 19343_R279_UA714_SOC00_C02.mpr
	Directory : C:\Users\Celltest\OneDrive - store-dot.com\Documents\EC-Lab\Data\Charmaine\
	Host : 169.254.61.224
Device : VMP-3e (SN .003165)
Address : USB
EC-LAB for windows v11.62 (software)
Internet server v27.00 (firmware)
Command interpretor v12.03 (firmware)
Electrode material :
Initial state :
Electrolyte :
Comments :
Electrode surface area : 0.001 cm²
Characteristic mass : 0.001 g
Equivalent Weight : 0.000 g/eq.
Density : 0.000 g/cm3
Volume (V) : 0.001 cm³
Record Ece
Cycle Definition : Charge/Discharge alternance
Mode                Single sine
E (V)               0.0000
vs.                 Eoc
tE (h:m:s)          0:00:0.0000
record              0
dI                  0.000
unit dI             mA
dt (s)              0.000
fi                  100.000
unit fi             kHz
ff                  10.000
unit ff             mHz
Nd                  6
Points              per decade
spacing             Logarithmic
Va (mV)             5.0
pw                  0.10
Na                  2
corr                0
E range min (V)     -10.000
E range max (V)     10.000
I Range             Auto
Bandwidth           5
nc cycles           0
goto Ns'            0
nr cycles           0
inc. cycle          0

freq/Hz	Re(Z)/Ohm	-Im(Z)/Ohm	|Z|/Ohm	Phase(Z)/deg	time/s	<Ewe>/V	<I>/mA	Cs/µF	Cp/µF	cycle number	I Range	|Ewe|/V	|I|/A	Ns	(Q-Qo)/mA.h	<Ece>/V	|Ece|/V	Phase(Zce)/deg	|Zce|/Ohm	Re(Zce)/Ohm	-Im(Zce)/Ohm	Phase(Zwe-ce)/deg	|Zwe-ce|/Ohm	Re(Zwe-ce)/Ohm	-Im(Zwe-ce)/Ohm	Re(Y)/Ohm-1	Im(Y)/Ohm-1	|Y|/Ohm-1	Phase(Y)/deg	Re(C)/nF	Im(C)/nF	|C|/nF	Phase(C)/deg	Re(M)	Im(M)	|M|	Phase(M)/deg	Re(Permittivity)	Im(Permittivity)	|Permittivity|	Phase(Permittivity)/deg	Re(Resistivity)/Ohm.cm	Im(Resistivity)/Ohm.cm	|Resistivity|/Ohm.cm	Phase(Resistivity)/deg	Re(Conductivity)/mS/cm	Im(Conductivity)/mS/cm	|Conductivity|/mS/cm	Phase(Conductivity)/deg	Tan(Delta)	Loss Angle(Delta)/deg	dq/mA.h	Pwe/W	Pce/W	Pwe-ce/W	<Ewe-Ece>/V	Rwe/Ohm	Rce/Ohm	Rwe-ce/Ohm		Ewe-Ece/V
100004	1.25073	0.607527	1.39047	-25.9076	1.72652	0.261586	-0.00159927	2.61962	0.500084	1	9	0.00459156	0.00330216	0	-3.02352e-06	4.00515e-05	2.46393e-05	97.052	0.00746157	-0.000916054	-0.00740513	-25.6488	1.38643	1.24982	0.600122	0.646902	0.314224	0.719179	25.9076	500.084	1029.54	1144.57	-64.0924	0.0000000E+000	0.0000000E+000	0.0000000E+000	64.0924	0.0000000E+000	0.0000000E+000	0.0000000E+000	-64.0924	0.0000000E+000	0.0000000E+000	0.0000000E+000	-25.9076	0.0000000E+000	0.0000000E+000	0.0000000E+000	25.9076	2.05873	64.0924	-3.02352e-06	-4.18347e-07	-6.40531e-11	-4.18282e-07	0.261546	163566	25.0436	163541
31621.1	1.7964	0.807058	1.96936	-24.1927	3.24753	0.261572	-0.0141139	6.23646	1.04736	1	9	0.00513131	0.00260557	0	1.48262e-05	5.91423e-05	1.40857e-05	-1.90592	0.00540601	0.00540302	0.000179795	-24.1332	1.97436	1.8018	0.807238	0.463182	0.208091	0.507779	24.1927	1047.36	2331.28	2555.74	-65.8073	0.0000000E+000	0.0000000E+000	0.0000000E+000	65.8073	0.0000000E+000	0.0000000E+000	0.0000000E+000	-65.8073	0.0000000E+000	0.0000000E+000	0.0000000E+000	-24.1927	0.0000000E+000	0.0000000E+000	0.0000000E+000	24.1927	2.22586	65.8073	1.23438e-05	-3.69181e-06	-8.34729e-10	-3.69097e-06	0.261513	18532.9	4.19036	18528.8
10002.2	2.40705	0.988895	2.60227	-22.3344	4.39654	0.261569	-0.00655302	16.0906	2.32364	1	9	0.00486423	0.00186923	0	1.59934e-05	0.000116415	6.10953e-06	-67.3746	0.00326848	0.0012574	0.00301694	-22.3853	2.60458	2.40831	0.991912	0.355451	0.146031	0.38428	22.3344	2323.64	5655.93	6114.64	-67.6656	0.0000000E+000	0.0000000E+000	0.0000000E+000	67.6656	0.0000000E+000	0.0000000E+000	0.0000000E+000	-67.6656	0.0000000E+000	0.0000000E+000	0.0000000E+000	-22.3344	0.0000000E+000	0.0000000E+000	0.0000000E+000	22.3344	2.43408	67.6656	9.53872e-07	-1.71406e-06	-7.62869e-10	-1.7133e-06	0.261452	39915.7	17.7651	39898
3163.08	3.0612	1.44069	3.38328	-25.203	5.47368	0.261367	-0.0348599	34.9253	6.33294	1	9	0.00497917	0.0014717	0	8.72442e-06	0.000173687	7.33402e-06	-81.6618	0.00498337	0.000722671	0.00493069	-25.2733	3.38603	3.06193	1.44562	0.267435	0.125862	0.295572	25.203	6332.94	13456.4	14872.1	-64.797	0.0000000E+000	0.0000000E+000	0.0000000E+000	64.797	0.0000000E+000	0.0000000E+000	0.0000000E+000	-64.797	0.0000000E+000	0.0000000E+000	0.0000000E+000	-25.203	0.0000000E+000	0.0000000E+000	0.0000000E+000	25.203	2.12482	64.797	-3.99652e-06	-9.11124e-06	-6.05473e-09	-9.10518e-06	0.261193	7497.64	4.98244	7492.66
1000.32	3.95287	2.56056	4.70974	-32.9341	7.07179	0.261508	-0.0226155	62.1363	18.3663	1	10	0.00502545	0.00106703	0	4.79567e-06	0.000135506	5.72861e-06	-97.1772	0.00536873	-0.000670763	0.00532667	-32.9928	4.71208	3.9522	2.56589	0.178204	0.115436	0.212326	32.9341	18366.3	28353	33781.9	-57.0659	0.0000000E+000	0.0000000E+000	0.0000000E+000	57.0659	0.0000000E+000	0.0000000E+000	0.0000000E+000	-57.0659	0.0000000E+000	0.0000000E+000	0.0000000E+000	-32.9341	0.0000000E+000	0.0000000E+000	0.0000000E+000	32.9341	1.54375	57.0659	-3.28878e-06	-5.91414e-06	-3.06454e-09	-5.91108e-06	0.261372	11563.2	5.99171	11557.2
316.316	5.80303	5.42607	7.94464	-43.0773	8.42102	0.261496	-0.0232563	92.7287	43.255	1	10	0.00493615	0.000621318	0	-3.6761e-06	1.86979e-06	5.99922e-06	-90.936	0.00965564	-0.000157729	0.00965435	-43.1289	7.95112	5.80287	5.43572	0.0919403	0.085968	0.125871	43.0773	43255	46259.9	63332.2	-46.9227	0.0000000E+000	0.0000000E+000	0.0000000E+000	46.9227	0.0000000E+000	0.0000000E+000	0.0000000E+000	-46.9227	0.0000000E+000	0.0000000E+000	0.0000000E+000	-43.0773	0.0000000E+000	0.0000000E+000	0.0000000E+000	43.0773	1.06947	46.9227	-3.18747e-06	-6.08142e-06	-4.34844e-11	-6.08138e-06	0.261494	11244.1	0.0803993	11244
100.032	11.5274	10.433	15.5476	-42.1471	9.76877	0.261493	-0.0222766	152.501	68.6696	1	10	0.00490901	0.000315741	0	-1.13886e-05	5.91423e-05	1.39424e-05	6.87247	0.0441576	0.0438404	-0.00528389	-42.0245	15.5766	11.5712	10.4277	0.0476874	0.0431602	0.0643186	42.1471	68669.6	75872.5	102334	-47.8529	0.0000000E+000	0.0000000E+000	0.0000000E+000	47.8529	0.0000000E+000	0.0000000E+000	0.0000000E+000	-47.8529	0.0000000E+000	0.0000000E+000	0.0000000E+000	-42.1471	0.0000000E+000	0.0000000E+000	0.0000000E+000	42.1471	1.10489	47.8529	-3.02937e-06	-5.82517e-06	-1.31749e-09	-5.82385e-06	0.261434	11738.5	2.65491	11735.8
31.6296	23.0947	11.7309	25.9033	-26.9283	11.3375	0.261536	-0.0107985	428.938	87.9733	1	11	0.00490577	0.000189388	0	-1.79707e-05	-0.000169948	1.42003e-05	77.009	0.0749798	0.0168553	-0.0730607	-26.7672	25.8853	23.1115	11.6579	0.0344194	0.0174833	0.0386052	26.9283	87973.4	173193	194255	-63.0717	0.0000000E+000	0.0000000E+000	0.0000000E+000	63.0717	0.0000000E+000	0.0000000E+000	0.0000000E+000	-63.0717	0.0000000E+000	0.0000000E+000	0.0000000E+000	-26.9283	0.0000000E+000	0.0000000E+000	0.0000000E+000	26.9283	1.9687	63.0717	-1.09181e-06	-2.8242e-06	1.83518e-09	-2.82604e-06	0.261706	24219.7	15.7381	24235.4
10.0032	30.9731	7.00545	31.7554	-12.7447	12.6698	0.261538	-0.0101076	2271.15	110.53	1	11	0.00490666	0.000154514	0	-2.26784e-05	0.000192778	9.03802e-06	-145.618	0.0584931	-0.0482738	0.0330317	-12.8221	31.7156	30.9248	7.03848	0.0307149	0.00694705	0.0314907	12.7447	110530	488686	501030	-77.2553	0.0000000E+000	0.0000000E+000	0.0000000E+000	77.2553	0.0000000E+000	0.0000000E+000	0.0000000E+000	-77.2553	0.0000000E+000	0.0000000E+000	0.0000000E+000	-12.7447	0.0000000E+000	0.0000000E+000	0.0000000E+000	12.7447	4.42128	77.2553	-1.65542e-06	-2.64352e-06	-1.94853e-09	-2.64158e-06	0.261345	25875.3	19.0726	25856.3
3.1604	33.7517	3.82922	33.9682	-6.47268	14.1874	0.261551	-0.00877243	13151.3	167.126	1	11	0.00491025	0.000144554	0	-2.50045e-05	0.000116415	6.22184e-06	41.6603	0.0430415	0.0321563	-0.0286102	-6.41866	33.997	33.7839	3.80061	0.0292516	0.00331867	0.0294393	6.47268	167126	1.47309e+06	1.48254e+06	-83.5273	0.0000000E+000	0.0000000E+000	0.0000000E+000	83.5273	0.0000000E+000	0.0000000E+000	0.0000000E+000	-83.5273	0.0000000E+000	0.0000000E+000	0.0000000E+000	-6.47268	0.0000000E+000	0.0000000E+000	0.0000000E+000	6.47268	8.81426	83.5273	-1.57024e-06	-2.29443e-06	-1.02124e-09	-2.29341e-06	0.261434	29815.1	13.2705	29801.8
1.00006	35.6012	3.11253	35.737	-4.99653	19.5079	0.261549	-0.00778975	51130.4	387.855	1	12	0.00490863	0.000137354	0	-4.0723e-05	0.000402778	4.30015e-06	-65.9513	0.031307	0.012758	0.0285895	-5.04039	35.7522	35.6139	3.14112	0.0278759	0.00243712	0.0279822	4.99653	387855	4.4363e+06	4.45322e+06	-85.0035	0.0000000E+000	0.0000000E+000	0.0000000E+000	85.0035	0.0000000E+000	0.0000000E+000	0.0000000E+000	-85.0035	0.0000000E+000	0.0000000E+000	0.0000000E+000	-4.99653	0.0000000E+000	0.0000000E+000	0.0000000E+000	4.99653	11.438	85.0035	-3.57869e-06	-2.0374e-06	-3.13754e-09	-2.03427e-06	0.261146	33576.1	51.7061	33524.3
0.316193	37.8415	3.20503	37.977	-4.84117	33.8501	0.261549	-0.00605331	157049	1118.56	1	12	0.00490675	0.000129203	0	-4.73747e-05	0.000135506	1.18659e-06	55.5165	0.00918389	0.00519964	-0.00757018	-4.82913	37.9815	37.8467	3.19745	0.0262378	0.00222224	0.0263317	4.84117	1.11856e+06	1.32067e+07	1.3254e+07	-85.1588	0.0000000E+000	0.0000000E+000	0.0000000E+000	85.1588	0.0000000E+000	0.0000000E+000	0.0000000E+000	-85.1588	0.0000000E+000	0.0000000E+000	0.0000000E+000	-4.84117	0.0000000E+000	0.0000000E+000	0.0000000E+000	4.84117	11.8069	85.1588	-4.23309e-06	-1.58323e-06	-8.20257e-10	-1.58241e-06	0.261413	43207.6	22.3854	43185.2
0.0999041	40.5685	4.14648	40.7798	-5.8359	79.0584	0.261542	-0.00300064	384200	3972.14	1	12	0.00490581	0.0001203	0	-0.000145243	-7.44936e-05	2.07404e-06	3.44675	0.0172406	0.0172094	-0.00103652	-5.83199	40.7969	40.5857	4.14544	0.0243948	0.00249338	0.0245219	5.8359	3.97215e+06	3.88628e+07	3.90653e+07	-84.1641	0.0000000E+000	0.0000000E+000	0.0000000E+000	84.1641	0.0000000E+000	0.0000000E+000	0.0000000E+000	-84.1641	0.0000000E+000	0.0000000E+000	0.0000000E+000	-5.8359	0.0000000E+000	0.0000000E+000	0.0000000E+000	5.8359	9.78384	84.1641	-5.17002e-05	-7.84793e-07	2.23529e-10	-7.85016e-07	0.261616	87161.8	24.8259	87186.7
0.0315922	44.54	8.08923	45.2686	-10.2937	221.943	0.261539	-0.00232423	622778	19886.3	1	12	0.00490654	0.000108387	0	-0.000299591	0.000269142	2.11154e-06	6.90341	0.0194814	0.0193402	-0.00234159	-10.2864	45.2872	44.5593	8.08689	0.0217348	0.00394742	0.0220904	10.2937	1.98863e+07	1.09495e+08	1.11287e+08	-79.7063	0.0000000E+000	0.0000000E+000	0.0000000E+000	79.7063	0.0000000E+000	0.0000000E+000	0.0000000E+000	-79.7063	0.0000000E+000	0.0000000E+000	0.0000000E+000	-10.2937	0.0000000E+000	0.0000000E+000	0.0000000E+000	10.2937	5.50609	79.7063	-2.58444e-05	-6.07877e-07	-6.25547e-10	-6.07252e-07	0.26127	112527	115.798	112411
0.0100092	50.8211	17.4176	53.7229	-18.9179	673.166	0.261541	-9.92525e-05	912920	95960.4	1	12	0.00490746	9.13476e-05	0	9.81909e-05	1.86979e-06	3.11304e-06	10.2222	0.0340791	0.0335381	-0.00604787	-18.9002	53.7527	50.8546	17.4116	0.0176086	0.0060349	0.018614	18.9179	9.59604e+07	2.79992e+08	2.9598e+08	-71.0821	0.0000000E+000	0.0000000E+000	0.0000000E+000	71.0821	0.0000000E+000	0.0000000E+000	0.0000000E+000	-71.0821	0.0000000E+000	0.0000000E+000	0.0000000E+000	-18.9179	0.0000000E+000	0.0000000E+000	0.0000000E+000	18.9179	2.91779	71.0821	0.000191078	-2.59586e-08	-1.85581e-13	-2.59584e-08	0.261539	2.6351e+06	18.8387	2.63508e+06