File: txt/19344_R279_UA714_SOC00_C03.mpt
EC-Lab ASCII FILE
Nb header lines : 65

Potentio Electrochemical Impedance Spectroscopy

Run on channel : 3 (SN 65921)
User :
CE vs. WE compliance from -10 V to 10 V
Electrode connection : standard
Potential control : Ewe
Ewe ctrl range : min = -10.00 V, max = 10.00 V
Safety Limits :
	Do not start on E overload
Acquisition started on : 11/20/2025 15:02:36.770
Technique started on : 11/20/2025 15:02:38.692
Loaded Setting File :  C:\Users\Celltest\OneDrive - store-dot.com\Documents\EC-Lab\Data\@Biologic Test Protocols\anode half cell EIS SOC00.mps
Saved on :
	File : 19344_R279_UA714_SOC00_C03.mpr
	Directory : C:\Users\Celltest\OneDrive - store-dot.com\Documents\EC-Lab\Data\Charmaine\
	Host : 169.254.61.224
Device : VMP-3e (SN .003165)
Address : USB
EC-LAB for windows v11.62 (software)
Internet server v27.00 (firmware)
Command interpretor v12.03 (firmware)
Electrode material :
Initial state :
Electrolyte :
Comments :
Electrode surface area : 0.001 cm²
Characteristic mass : 0.001 g
Equivalent Weight : 0.000 g/eq.
Density : 0.000 g/cm3
Volume (V) : 0.001 cm³
Record Ece
Cycle Definition : Charge/Discharge alternance
Mode                Single sine
E (V)               0.0000
vs.                 Eoc
tE (h:m:s)          0:00:0.0000
record              0
dI                  0.000
unit dI             mA
dt (s)              0.000
fi                  100.000
unit fi             kHz
ff                  10.000
unit ff             mHz
Nd                  6
Points              per decade
spacing             Logarithmic
Va (mV)             5.0
pw                  0.10
Na                  2
corr                0
E range min (V)     -10.000
E range max (V)     10.000
I Range             Auto
Bandwidth           5
nc cycles           0
goto Ns'            0
nr cycles           0
inc. cycle          0

freq/Hz	Re(Z)/Ohm	-Im(Z)/Ohm	|Z|/Ohm	Phase(Z)/deg	time/s	<Ewe>/V	<I>/mA	Cs/µF	Cp/µF	cycle number	I Range	|Ewe|/V	|I|/A	Ns	(Q-Qo)/mA.h	<Ece>/V	|Ece|/V	Phase(Zce)/deg	|Zce|/Ohm	Re(Zce)/Ohm	-Im(Zce)/Ohm	Phase(Zwe-ce)/deg	|Zwe-ce|/Ohm	Re(Zwe-ce)/Ohm	-Im(Zwe-ce)/Ohm	Re(Y)/Ohm-1	Im(Y)/Ohm-1	|Y|/Ohm-1	Phase(Y)/deg	Re(C)/nF	Im(C)/nF	|C|/nF	Phase(C)/deg	Re(M)	Im(M)	|M|	Phase(M)/deg	Re(Permittivity)	Im(Permittivity)	|Permittivity|	Phase(Permittivity)/deg	Re(Resistivity)/Ohm.cm	Im(Resistivity)/Ohm.cm	|Resistivity|/Ohm.cm	Phase(Resistivity)/deg	Re(Conductivity)/mS/cm	Im(Conductivity)/mS/cm	|Conductivity|/mS/cm	Phase(Conductivity)/deg	Tan(Delta)	Loss Angle(Delta)/deg	dq/mA.h	Pwe/W	Pce/W	Pwe-ce/W	<Ewe-Ece>/V	Rwe/Ohm	Rce/Ohm	Rwe-ce/Ohm		Ewe-Ece/V
100004	0.467844	-0.931991	1.04283	63.3441	1.92151	0.26449	0.0422099	-1.70762	-1.36393	1	9	0.000268429	0.000257406	0	5.48951e-06	-0.000188635	1.46651e-05	86.7526	0.0569729	0.00322739	-0.0568815	64.5282	1.09534	0.471071	-0.988873	0.430207	-0.857015	0.958933	-63.3441	-1363.93	684.67	1526.13	-153.344	0.0000000E+000	0.0000000E+000	0.0000000E+000	153.344	0.0000000E+000	0.0000000E+000	0.0000000E+000	-153.344	0.0000000E+000	0.0000000E+000	0.0000000E+000	63.3441	0.0000000E+000	0.0000000E+000	0.0000000E+000	-63.3441	0.501983	26.6559	5.48951e-06	1.11641e-05	-7.96226e-09	1.1172e-05	0.264678	6266.07	4.46898	6270.53
31621.1	2.08129	0.822076	2.23776	-21.5533	2.95256	0.264291	-0.104349	6.12253	0.826283	1	9	0.349216	0.156056	0	1.84202e-05	-0.000207729	8.361e-05	76.7659	0.000535768	0.000122653	-0.000521539	-21.5397	2.23768	2.08141	0.821554	0.415629	0.164167	0.446876	21.5533	826.283	2091.94	2249.21	-68.4467	0.0000000E+000	0.0000000E+000	0.0000000E+000	68.4467	0.0000000E+000	0.0000000E+000	0.0000000E+000	-68.4467	0.0000000E+000	0.0000000E+000	0.0000000E+000	-21.5533	0.0000000E+000	0.0000000E+000	0.0000000E+000	21.5533	2.53174	68.4467	7.04943e-06	-2.75785e-05	2.16764e-08	-2.76002e-05	0.264498	2532.75	1.99071	2534.74
10002.2	2.68704	1.00434	2.86861	-20.4944	4.34952	0.264474	0.0143143	15.8431	1.94207	1	9	0.00487767	0.00170036	0	-0.000123013	-0.000265011	8.95569e-06	-145.182	0.00526693	-0.00432396	0.0030073	-20.581	2.86561	2.68272	1.00735	0.326537	0.122051	0.348601	20.4944	1942.07	5195.84	5546.93	-69.5056	0.0000000E+000	0.0000000E+000	0.0000000E+000	69.5056	0.0000000E+000	0.0000000E+000	0.0000000E+000	-69.5056	0.0000000E+000	0.0000000E+000	0.0000000E+000	-20.4944	0.0000000E+000	0.0000000E+000	0.0000000E+000	20.4944	2.67542	69.5056	3.27372e-07	3.78576e-06	-3.79345e-09	3.78955e-06	0.264739	18476.2	18.5138	18494.7
3163.08	3.34636	1.46128	3.6515	-23.5898	5.24764	0.264304	-0.00832292	34.4332	5.51442	1	9	0.00455984	0.00124876	0	-0.000124327	0.000155058	5.33099e-06	51.9149	0.00426903	0.00263327	-0.00336014	-23.5249	3.65257	3.34899	1.45792	0.250975	0.109595	0.27386	23.5898	5514.42	12628.2	13779.7	-66.4102	0.0000000E+000	0.0000000E+000	0.0000000E+000	66.4102	0.0000000E+000	0.0000000E+000	0.0000000E+000	-66.4102	0.0000000E+000	0.0000000E+000	0.0000000E+000	-23.5898	0.0000000E+000	0.0000000E+000	0.0000000E+000	23.5898	2.29002	66.4102	-6.05155e-07	-2.19978e-06	-1.29053e-09	-2.19849e-06	0.264149	31756.2	18.6302	31737.5
1000.32	4.18733	2.60985	4.93407	-31.9342	6.8458	0.264434	-0.0104415	60.9628	17.0563	1	10	0.00457039	0.000926291	0	-0.000123109	9.77758e-05	4.20558e-06	6.64908	0.00454024	0.0045097	-0.000525705	-31.9013	4.93762	4.19184	2.60933	0.171999	0.107202	0.202672	31.9342	17056.3	27365.7	32246	-58.0658	0.0000000E+000	0.0000000E+000	0.0000000E+000	58.0658	0.0000000E+000	0.0000000E+000	0.0000000E+000	-58.0658	0.0000000E+000	0.0000000E+000	0.0000000E+000	-31.9342	0.0000000E+000	0.0000000E+000	0.0000000E+000	31.9342	1.60443	58.0658	-1.53212e-06	-2.76109e-06	-1.02092e-09	-2.76007e-06	0.264336	25325.3	9.36416	25316
316.316	5.9706	5.65308	8.22225	-43.4353	8.40903	0.264421	-0.0107995	89.0049	42.0729	1	10	0.00499528	0.000607532	0	-0.000127386	-0.000188635	9.41924e-06	-21.1939	0.0155041	0.0144554	0.00560513	-43.3944	8.2366	5.98506	5.65869	0.0883154	0.0836188	0.121621	43.4353	42072.9	44436.1	61193.9	-46.5647	0.0000000E+000	0.0000000E+000	0.0000000E+000	46.5647	0.0000000E+000	0.0000000E+000	0.0000000E+000	-46.5647	0.0000000E+000	0.0000000E+000	0.0000000E+000	-43.4353	0.0000000E+000	0.0000000E+000	0.0000000E+000	43.4353	1.05617	46.5647	-1.76117e-06	-2.85561e-06	2.03716e-09	-2.85764e-06	0.264609	24484.6	17.4671	24502.1
100.032	11.6798	11.4882	16.3828	-44.5262	9.75681	0.264421	-0.0103371	138.494	68.1017	1	10	0.00496324	0.000302955	0	-0.000130591	-0.000265011	8.89331e-06	86.375	0.0293553	0.00185602	-0.0292965	-44.4485	16.3636	11.6816	11.4589	0.043517	0.0428033	0.0610397	44.5262	68101.7	69237.3	97116.7	-45.4738	0.0000000E+000	0.0000000E+000	0.0000000E+000	45.4738	0.0000000E+000	0.0000000E+000	0.0000000E+000	-45.4738	0.0000000E+000	0.0000000E+000	0.0000000E+000	-44.5262	0.0000000E+000	0.0000000E+000	0.0000000E+000	44.5262	1.01668	45.4738	-1.56426e-06	-2.73334e-06	2.73945e-09	-2.73608e-06	0.264686	25579.8	25.6369	25605.4
31.6296	24.9224	14.4231	28.795	-30.0589	11.3366	0.264456	-0.00724741	348.873	87.5289	1	11	0.00495494	0.000172076	0	-0.000133516	-0.000188635	9.55582e-06	107.456	0.0555324	-0.0166585	-0.052975	-29.9841	28.7541	24.9058	14.3702	0.0300577	0.017395	0.0347282	30.0589	87528.9	151245	174747	-59.9411	0.0000000E+000	0.0000000E+000	0.0000000E+000	59.9411	0.0000000E+000	0.0000000E+000	0.0000000E+000	-59.9411	0.0000000E+000	0.0000000E+000	0.0000000E+000	-30.0589	0.0000000E+000	0.0000000E+000	0.0000000E+000	30.0589	1.72795	59.9411	-5.32164e-07	-1.91662e-06	1.36712e-09	-1.91799e-06	0.264645	36489.8	26.0279	36515.8
10.0032	35.433	9.13287	36.5911	-14.4534	12.6688	0.26445	-0.00669589	1742.1	108.527	1	11	0.00495192	0.000135331	0	-0.000136921	-0.000150447	9.72316e-06	-61.2997	0.0718471	0.034503	0.0630203	-14.5354	36.6403	35.4675	9.19589	0.0264641	0.00682114	0.0273291	14.4534	108527	421055	434816	-75.5466	0.0000000E+000	0.0000000E+000	0.0000000E+000	75.5466	0.0000000E+000	0.0000000E+000	0.0000000E+000	-75.5466	0.0000000E+000	0.0000000E+000	0.0000000E+000	-14.4534	0.0000000E+000	0.0000000E+000	0.0000000E+000	14.4534	3.87972	75.5466	-1.65857e-06	-1.77073e-06	1.00738e-09	-1.77174e-06	0.264601	39494.4	22.4686	39516.9
3.1604	39.2385	4.89398	39.5425	-7.10945	14.1854	0.264454	-0.00600807	10290	157.62	1	11	0.00495153	0.00012522	0	-0.000138734	7.86817e-05	4.2643e-06	-36.0012	0.0340544	0.0275501	0.0200172	-7.13327	39.5723	39.266	4.914	0.0250948	0.00312992	0.0252892	7.10945	157621	1.26375e+06	1.27354e+06	-82.8905	0.0000000E+000	0.0000000E+000	0.0000000E+000	82.8905	0.0000000E+000	0.0000000E+000	0.0000000E+000	-82.8905	0.0000000E+000	0.0000000E+000	0.0000000E+000	-7.10945	0.0000000E+000	0.0000000E+000	0.0000000E+000	7.10945	8.0177	82.8905	-1.90597e-06	-1.58886e-06	-4.72726e-10	-1.58838e-06	0.264375	44016.4	13.096	44003.3
1.00006	41.4078	3.68417	41.5714	-5.08438	19.5039	0.264469	-0.00531138	43196.9	339.268	1	12	0.00495566	0.000119208	0	-0.00014755	-5.49767e-05	4.93731e-06	9.03402	0.0414175	0.0409037	-0.00650341	-5.07047	41.6116	41.4487	3.67767	0.0239603	0.00213182	0.024055	5.08438	339268	3.81316e+06	3.82823e+06	-84.9156	0.0000000E+000	0.0000000E+000	0.0000000E+000	84.9156	0.0000000E+000	0.0000000E+000	0.0000000E+000	-84.9156	0.0000000E+000	0.0000000E+000	0.0000000E+000	-5.08438	0.0000000E+000	0.0000000E+000	0.0000000E+000	5.08438	11.2394	84.9156	-5.77208e-07	-1.4047e-06	2.92002e-10	-1.40499e-06	0.264524	49793	10.3507	49803.3
0.316193	43.9809	3.6932	44.1357	-4.80002	33.8461	0.26446	-0.00407815	136290	954.311	1	12	0.00495641	0.000112299	0	-0.00015312	-0.000112259	1.96474e-06	3.78109	0.0174956	0.0174575	-0.00115374	-4.79664	44.153	43.9984	3.69205	0.0225779	0.00189593	0.0226574	4.80002	954312	1.13645e+07	1.14045e+07	-85.2	0.0000000E+000	0.0000000E+000	0.0000000E+000	85.2	0.0000000E+000	0.0000000E+000	0.0000000E+000	-85.2	0.0000000E+000	0.0000000E+000	0.0000000E+000	-4.80002	0.0000000E+000	0.0000000E+000	0.0000000E+000	4.80002	11.9086	85.2	-6.02851e-06	-1.07851e-06	4.57809e-10	-1.07897e-06	0.264573	64848.1	27.5269	64875.6
0.0999041	46.9845	4.43731	47.1936	-5.39513	79.0538	0.264465	-0.00231165	359019	3173.89	1	12	0.00495972	0.000105093	0	-0.000242622	-3.58827e-05	1.84123e-06	-2.16551	0.01752	0.0175075	0.000662015	-5.39393	47.211	47.002	4.43797	0.0210955	0.0019923	0.0211893	5.39513	3.17388e+06	3.36067e+07	3.37562e+07	-84.6049	0.0000000E+000	0.0000000E+000	0.0000000E+000	84.6049	0.0000000E+000	0.0000000E+000	0.0000000E+000	-84.6049	0.0000000E+000	0.0000000E+000	0.0000000E+000	-5.39513	0.0000000E+000	0.0000000E+000	0.0000000E+000	5.39513	10.5885	84.6049	-4.23108e-05	-6.11349e-07	8.2948e-11	-6.11432e-07	0.264501	114405	15.5226	114421
0.0315922	50.6461	8.1933	51.3045	-9.18944	221.937	0.264468	-0.00204679	614868	15681.5	1	12	0.00495704	9.66199e-05	0	-0.00030313	-9.31649e-05	2.40613e-06	16.6636	0.024903	0.0238572	-0.00714098	-9.17732	51.3269	50.6699	8.18615	0.0192413	0.00311277	0.0194915	9.18944	1.56815e+07	9.69337e+07	9.81939e+07	-80.8106	0.0000000E+000	0.0000000E+000	0.0000000E+000	80.8106	0.0000000E+000	0.0000000E+000	0.0000000E+000	-80.8106	0.0000000E+000	0.0000000E+000	0.0000000E+000	-9.18944	0.0000000E+000	0.0000000E+000	0.0000000E+000	9.18944	6.1814	80.8106	1.43431e-05	-5.41309e-07	1.90688e-10	-5.415e-07	0.264561	129211	45.5177	129257
0.0100092	56.8204	17.9254	59.5809	-17.5092	673.157	0.264463	8.69057e-05	887058	80293.1	1	12	0.00495686	8.31955e-05	0	7.48877e-07	-1.67886e-05	1.59067e-06	-20.1824	0.0191197	0.0179457	0.00659648	-17.5101	59.6	56.8384	17.932	0.0160063	0.00504959	0.0167839	17.5092	8.0293e+07	2.54514e+08	2.66879e+08	-72.4908	0.0000000E+000	0.0000000E+000	0.0000000E+000	72.4908	0.0000000E+000	0.0000000E+000	0.0000000E+000	-72.4908	0.0000000E+000	0.0000000E+000	0.0000000E+000	-17.5092	0.0000000E+000	0.0000000E+000	0.0000000E+000	17.5092	3.16982	72.4908	9.65577e-05	2.29833e-08	-1.45902e-12	2.29848e-08	0.26448	3.0431e+06	193.182	3.0433e+06