File: txt/19342_R279_UA714_SOC00_C01.mpt
EC-Lab ASCII FILE
Nb header lines : 65

Potentio Electrochemical Impedance Spectroscopy

Run on channel : 1 (SN 66354)
User :
CE vs. WE compliance from -10 V to 10 V
Electrode connection : standard
Potential control : Ewe
Ewe ctrl range : min = -10.00 V, max = 10.00 V
Safety Limits :
	Do not start on E overload
Acquisition started on : 11/20/2025 15:02:17.279
Technique started on : 11/20/2025 15:02:19.190
Loaded Setting File :  C:\Users\Celltest\OneDrive - store-dot.com\Documents\EC-Lab\Data\@Biologic Test Protocols\anode half cell EIS SOC00.mps
Saved on :
	File : 19342_R279_UA714_SOC00_C01.mpr
	Directory : C:\Users\Celltest\OneDrive - store-dot.com\Documents\EC-Lab\Data\Charmaine\
	Host : 169.254.61.224
Device : VMP-3e (SN .003165)
Address : USB
EC-LAB for windows v11.62 (software)
Internet server v27.00 (firmware)
Command interpretor v12.03 (firmware)
Electrode material :
Initial state :
Electrolyte :
Comments :
Electrode surface area : 0.001 cm²
Characteristic mass : 0.001 g
Equivalent Weight : 0.000 g/eq.
Density : 0.000 g/cm3
Volume (V) : 0.001 cm³
Record Ece
Cycle Definition : Charge/Discharge alternance
Mode                Single sine
E (V)               0.0000
vs.                 Eoc
tE (h:m:s)          0:00:0.0000
record              0
dI                  0.000
unit dI             mA
dt (s)              0.000
fi                  100.000
unit fi             kHz
ff                  10.000
unit ff             mHz
Nd                  6
Points              per decade
spacing             Logarithmic
Va (mV)             5.0
pw                  0.10
Na                  2
corr                0
E range min (V)     -10.000
E range max (V)     10.000
I Range             Auto
Bandwidth           5
nc cycles           0
goto Ns'            0
nr cycles           0
inc. cycle          0

freq/Hz	Re(Z)/Ohm	-Im(Z)/Ohm	|Z|/Ohm	Phase(Z)/deg	time/s	<Ewe>/V	<I>/mA	Cs/µF	Cp/µF	cycle number	I Range	|Ewe|/V	|I|/A	Ns	(Q-Qo)/mA.h	<Ece>/V	|Ece|/V	Phase(Zce)/deg	|Zce|/Ohm	Re(Zce)/Ohm	-Im(Zce)/Ohm	Phase(Zwe-ce)/deg	|Zwe-ce|/Ohm	Re(Zwe-ce)/Ohm	-Im(Zwe-ce)/Ohm	Re(Y)/Ohm-1	Im(Y)/Ohm-1	|Y|/Ohm-1	Phase(Y)/deg	Re(C)/nF	Im(C)/nF	|C|/nF	Phase(C)/deg	Re(M)	Im(M)	|M|	Phase(M)/deg	Re(Permittivity)	Im(Permittivity)	|Permittivity|	Phase(Permittivity)/deg	Re(Resistivity)/Ohm.cm	Im(Resistivity)/Ohm.cm	|Resistivity|/Ohm.cm	Phase(Resistivity)/deg	Re(Conductivity)/mS/cm	Im(Conductivity)/mS/cm	|Conductivity|/mS/cm	Phase(Conductivity)/deg	Tan(Delta)	Loss Angle(Delta)/deg	dq/mA.h	Pwe/W	Pce/W	Pwe-ce/W	<Ewe-Ece>/V	Rwe/Ohm	Rce/Ohm	Rwe-ce/Ohm		Ewe-Ece/V
100004	1.43088	0.63298	1.56463	-23.8633	1.91056	0.263662	0.0674258	2.51428	0.4115	1	9	0.00477629	0.00305266	0	8.44854e-06	0.00012515	3.76783e-05	89.577	0.0123428	9.11281e-05	-0.0123424	-23.4473	1.55976	1.43097	0.620637	0.584491	0.258562	0.639128	23.8633	411.5	930.212	1017.17	-66.1367	0.0000000E+000	0.0000000E+000	0.0000000E+000	66.1367	0.0000000E+000	0.0000000E+000	0.0000000E+000	-66.1367	0.0000000E+000	0.0000000E+000	0.0000000E+000	-23.8633	0.0000000E+000	0.0000000E+000	0.0000000E+000	23.8633	2.26054	66.1367	8.44854e-06	1.77776e-05	8.43831e-09	1.77692e-05	0.263537	3910.4	1.85611	3908.55
31621.1	2.00593	0.855865	2.18088	-23.1064	3.43156	0.263668	0.0607573	5.88081	0.905698	1	9	0.00509867	0.00233789	0	2.61774e-05	0.000239613	1.45655e-05	3.20825	0.00623018	0.00622042	-0.000348674	-23.034	2.18647	2.01215	0.855517	0.421746	0.179945	0.45853	23.1064	905.698	2122.72	2307.86	-66.8936	0.0000000E+000	0.0000000E+000	0.0000000E+000	66.8936	0.0000000E+000	0.0000000E+000	0.0000000E+000	-66.8936	0.0000000E+000	0.0000000E+000	0.0000000E+000	-23.1064	0.0000000E+000	0.0000000E+000	0.0000000E+000	23.1064	2.34374	66.8936	1.25068e-05	1.60198e-05	1.45583e-08	1.60052e-05	0.263429	4339.7	3.94378	4335.76
10002.2	2.65671	1.0555	2.85871	-21.6678	4.58052	0.26367	0.065563	15.0752	2.05515	1	9	0.00497647	0.00174081	0	4.73799e-05	4.88404e-05	1.45504e-05	16.2169	0.00835839	0.00802583	-0.00233428	-21.5651	2.86531	2.66474	1.05317	0.325091	0.129158	0.349808	21.6678	2055.15	5172.83	5566.13	-68.3322	0.0000000E+000	0.0000000E+000	0.0000000E+000	68.3322	0.0000000E+000	0.0000000E+000	0.0000000E+000	-68.3322	0.0000000E+000	0.0000000E+000	0.0000000E+000	-21.6678	0.0000000E+000	0.0000000E+000	0.0000000E+000	21.6678	2.51701	68.3322	7.68158e-06	1.7287e-05	3.20213e-09	1.72838e-05	0.263621	4021.62	0.744938	4020.88
3163.08	3.35352	1.52479	3.68389	-24.4505	5.48063	0.263483	0.0474574	32.9989	5.65335	1	9	0.00462465	0.00125537	0	5.93674e-05	2.97631e-05	7.55566e-06	-77.1704	0.00601867	0.00133646	0.00586841	-24.5249	3.68754	3.35485	1.53066	0.247108	0.112356	0.271452	24.4505	5653.35	12433.6	13658.5	-65.5495	0.0000000E+000	0.0000000E+000	0.0000000E+000	65.5495	0.0000000E+000	0.0000000E+000	0.0000000E+000	-65.5495	0.0000000E+000	0.0000000E+000	0.0000000E+000	-24.4505	0.0000000E+000	0.0000000E+000	0.0000000E+000	24.4505	2.19933	65.5495	6.19285e-06	1.25042e-05	1.41248e-09	1.25028e-05	0.263453	5551.99	0.627154	5551.36
1000.32	4.3066	2.70989	5.08825	-32.1798	7.0788	0.263588	-0.0116583	58.7123	16.6531	1	10	0.00465841	0.000915523	0	6.36496e-05	-0.000122855	8.83126e-06	-106.816	0.00964614	-0.00279061	0.00923366	-32.2845	5.09082	4.30381	2.71913	0.16634	0.104668	0.196531	32.1798	16653.1	26465.4	31268.9	-57.8202	0.0000000E+000	0.0000000E+000	0.0000000E+000	57.8202	0.0000000E+000	0.0000000E+000	0.0000000E+000	-57.8202	0.0000000E+000	0.0000000E+000	0.0000000E+000	-32.1798	0.0000000E+000	0.0000000E+000	0.0000000E+000	32.1798	1.58922	57.8202	-2.10529e-06	-3.07299e-06	1.43228e-09	-3.07442e-06	0.263711	22609.5	10.538	22620
316.316	6.16355	5.75186	8.43049	-43.0212	8.428	0.263589	-0.0125341	87.4764	40.7194	1	10	0.00458178	0.000543477	0	5.93415e-05	0.000163304	4.13721e-06	56.9262	0.00761248	0.00415427	-0.00637902	-42.9702	8.42918	6.1677	5.74548	0.0867211	0.0809287	0.118617	43.0212	40719.4	43633.9	59682.4	-46.9788	0.0000000E+000	0.0000000E+000	0.0000000E+000	46.9788	0.0000000E+000	0.0000000E+000	0.0000000E+000	-46.9788	0.0000000E+000	0.0000000E+000	0.0000000E+000	-43.0212	0.0000000E+000	0.0000000E+000	0.0000000E+000	43.0212	1.07157	46.9788	-1.85855e-06	-3.30386e-06	-2.04688e-09	-3.30182e-06	0.263426	21029.7	13.0288	21016.6
100.032	12.0124	11.5083	16.6355	-43.7723	9.77581	0.263579	-0.0131267	138.251	66.1643	1	10	0.00457541	0.00027504	0	5.51029e-05	2.97631e-05	3.52003e-05	6.77381	0.127983	0.127089	-0.0150956	-43.4336	16.7171	12.1395	11.4932	0.043407	0.0415856	0.0601126	43.7723	66164.3	69062.2	95641.5	-46.2277	0.0000000E+000	0.0000000E+000	0.0000000E+000	46.2277	0.0000000E+000	0.0000000E+000	0.0000000E+000	-46.2277	0.0000000E+000	0.0000000E+000	0.0000000E+000	-43.7723	0.0000000E+000	0.0000000E+000	0.0000000E+000	43.7723	1.0438	46.2277	-1.7924e-06	-3.45993e-06	-3.90693e-10	-3.45954e-06	0.263549	20079.5	2.26737	20077.3
31.6296	25.2388	14.6599	29.1874	-30.15	11.3556	0.26363	-0.00553266	343.239	86.5894	1	11	0.00456192	0.000156297	0	5.24718e-05	-8.47007e-05	8.50801e-06	76.282	0.0544348	0.0129088	-0.0528821	-30.0475	29.1721	25.2517	14.607	0.0296262	0.0172083	0.0342613	30.15	86589.5	149074	172398	-59.85	0.0000000E+000	0.0000000E+000	0.0000000E+000	59.85	0.0000000E+000	0.0000000E+000	0.0000000E+000	-59.85	0.0000000E+000	0.0000000E+000	0.0000000E+000	-30.15	0.0000000E+000	0.0000000E+000	0.0000000E+000	30.15	1.72162	59.85	-6.05647e-07	-1.45857e-06	4.6862e-10	-1.45904e-06	0.263715	47649.7	15.3092	47665.1
10.0032	36.2329	9.54118	37.4681	-14.7527	12.6878	0.263634	-0.00504781	1667.55	108.133	1	11	0.00455751	0.000121637	0	5.00127e-05	-0.000256397	5.91813e-06	-0.321401	0.048654	0.0486532	0.000272924	-14.7342	37.5152	36.2816	9.54145	0.0258095	0.00679639	0.0266894	14.7527	108133	410640	424639	-75.2473	0.0000000E+000	0.0000000E+000	0.0000000E+000	75.2473	0.0000000E+000	0.0000000E+000	0.0000000E+000	-75.2473	0.0000000E+000	0.0000000E+000	0.0000000E+000	-14.7527	0.0000000E+000	0.0000000E+000	0.0000000E+000	14.7527	3.79753	75.2473	-6.2901e-07	-1.33077e-06	1.29424e-09	-1.33207e-06	0.26389	52227.4	50.7936	52278.2
3.1604	40.2737	5.08773	40.5938	-7.19997	14.2045	0.263656	-0.00332643	9898.17	155.483	1	11	0.00455654	0.000112247	0	4.97594e-05	0.000277768	8.20048e-06	38.4498	0.0730572	0.057215	-0.0454291	-7.12633	40.6449	40.3309	5.0423	0.0244401	0.00308749	0.0246343	7.19997	155483	1.23078e+06	1.24056e+06	-82.8	0.0000000E+000	0.0000000E+000	0.0000000E+000	82.8	0.0000000E+000	0.0000000E+000	0.0000000E+000	-82.8	0.0000000E+000	0.0000000E+000	0.0000000E+000	-7.19997	0.0000000E+000	0.0000000E+000	0.0000000E+000	7.19997	7.91585	82.8	-5.64635e-08	-8.77032e-07	-9.23976e-10	-8.76108e-07	0.263378	79260.9	83.5034	79177.4
1.00006	42.5693	3.73467	42.7328	-5.01381	19.5238	0.263659	-0.00330554	42612.8	325.478	1	12	0.00456013	0.000106713	0	4.07339e-05	-4.65461e-05	2.19877e-06	-23.9793	0.0206046	0.0188263	0.00837384	-5.02278	42.7523	42.5881	3.74304	0.0233117	0.00204517	0.0234012	5.01381	325478	3.70993e+06	3.72418e+06	-84.9862	0.0000000E+000	0.0000000E+000	0.0000000E+000	84.9862	0.0000000E+000	0.0000000E+000	0.0000000E+000	-84.9862	0.0000000E+000	0.0000000E+000	0.0000000E+000	-5.01381	0.0000000E+000	0.0000000E+000	0.0000000E+000	5.01381	11.3984	84.9862	-2.32691e-06	-8.71535e-07	1.5386e-10	-8.71688e-07	0.263705	79762.6	14.0812	79776.7
0.316193	45.2271	3.70572	45.3787	-4.68411	33.8669	0.263649	-0.00289415	135830	905.809	1	12	0.00456159	0.000100523	0	4.52758e-05	0.000163304	2.69871e-06	15.6792	0.0268468	0.0258478	-0.00725537	-4.67232	45.4038	45.2529	3.69846	0.0219632	0.00179957	0.0220368	4.68411	905808	1.10551e+07	1.10922e+07	-85.3159	0.0000000E+000	0.0000000E+000	0.0000000E+000	85.3159	0.0000000E+000	0.0000000E+000	0.0000000E+000	-85.3159	0.0000000E+000	0.0000000E+000	0.0000000E+000	-4.68411	0.0000000E+000	0.0000000E+000	0.0000000E+000	4.68411	12.2047	85.3159	2.43814e-06	-7.63042e-07	-4.72627e-10	-7.62569e-07	0.263486	91097.3	56.4256	91040.9
0.0999041	48.4683	4.60591	48.6867	-5.42848	79.0749	0.263643	-0.00124177	345877	3095.51	1	12	0.00456113	9.36832e-05	0	-1.86796e-06	-4.65461e-05	1.71925e-06	-24.5258	0.0183517	0.016696	0.00761786	-5.43554	48.704	48.485	4.61353	0.0204474	0.0019431	0.0205395	5.42848	3.09551e+06	3.25742e+07	3.2721e+07	-84.5715	0.0000000E+000	0.0000000E+000	0.0000000E+000	84.5715	0.0000000E+000	0.0000000E+000	0.0000000E+000	-84.5715	0.0000000E+000	0.0000000E+000	0.0000000E+000	-5.42848	0.0000000E+000	0.0000000E+000	0.0000000E+000	5.42848	10.5231	84.5715	-3.06803e-05	-3.27384e-07	5.77995e-11	-3.27442e-07	0.26369	212313	37.4837	212350
0.0315922	53.0326	8.38959	53.6921	-8.98951	221.959	0.263639	-0.00144198	600482	14660.9	1	12	0.00456587	8.50381e-05	0	-0.000139023	0.000354077	1.92954e-06	-3.5536	0.0226903	0.0226467	0.0014064	-8.98722	53.7147	53.0553	8.39099	0.0183959	0.00291018	0.0186247	8.98951	1.46609e+07	9.26749e+07	9.38274e+07	-81.0105	0.0000000E+000	0.0000000E+000	0.0000000E+000	81.0105	0.0000000E+000	0.0000000E+000	0.0000000E+000	-81.0105	0.0000000E+000	0.0000000E+000	0.0000000E+000	-8.98951	0.0000000E+000	0.0000000E+000	0.0000000E+000	8.98951	6.32124	81.0105	-3.77072e-05	-3.80162e-07	-5.10572e-10	-3.79651e-07	0.263285	182832	245.55	182586
0.0100092	59.4906	18.0229	62.1607	-16.8543	673.179	0.263648	-0.000234363	882264	74167.5	1	12	0.00456335	7.34121e-05	0	0.000163499	0.000182382	4.55788e-06	22.8085	0.0620863	0.0572315	-0.0240678	-16.8178	62.2085	59.5478	17.9988	0.0153963	0.00466435	0.0160873	16.8543	7.41675e+07	2.44815e+08	2.55803e+08	-73.1457	0.0000000E+000	0.0000000E+000	0.0000000E+000	73.1457	0.0000000E+000	0.0000000E+000	0.0000000E+000	-73.1457	0.0000000E+000	0.0000000E+000	0.0000000E+000	-16.8543	0.0000000E+000	0.0000000E+000	0.0000000E+000	16.8543	3.30084	73.1457	0.000179763	-6.17892e-08	-4.27435e-11	-6.17465e-08	0.263465	1.12496e+06	778.202	1.12418e+06