File: txt/19364_R311_UC99_SOC50_C03.mpt
EC-Lab ASCII FILE
Nb header lines : 65

Potentio Electrochemical Impedance Spectroscopy

Run on channel : 3 (SN 65921)
User :
CE vs. WE compliance from -10 V to 10 V
Electrode connection : standard
Potential control : Ewe
Ewe ctrl range : min = -10.00 V, max = 10.00 V
Safety Limits :
	Do not start on E overload
Acquisition started on : 11/19/2025 16:14:41.664
Technique started on : 11/19/2025 16:14:43.899
Loaded Setting File :  C:\Users\Celltest\OneDrive - store-dot.com\Documents\EC-Lab\Data\txt_done\19191_R297_UC94_SOC50_C08.mpr
Saved on :
	File : 19364_R311_UC99_SOC50_C03.mpr
	Directory : C:\Users\Celltest\OneDrive - store-dot.com\Documents\EC-Lab\Data\Gyutae\
	Host : 169.254.61.224
Device : VMP-3e (SN .003165)
Address : USB
EC-LAB for windows v11.62 (software)
Internet server v27.00 (firmware)
Command interpretor v12.03 (firmware)
Electrode material :
Initial state :
Electrolyte :
Comments :
Electrode surface area : 0.001 cm²
Characteristic mass : 0.001 g
Equivalent Weight : 0.000 g/eq.
Density : 0.000 g/cm3
Volume (V) : 0.001 cm³
Record Ece
Cycle Definition : Charge/Discharge alternance
Mode                Multi sine
E (V)               0.0000
vs.                 Eoc
tE (h:m:s)          0:00:0.0000
record              0
dI                  0.000
unit dI             mA
dt (s)              0.000
fi                  1.000
unit fi             MHz
ff                  0.100
unit ff             mHz
Nd                  10
Points              per decade
spacing             Logarithmic
Va (mV)             5.0
pw                  0.10
Na                  2
corr                0
E range min (V)     -10.000
E range max (V)     10.000
I Range             Auto
Bandwidth           5
nc cycles           0
goto Ns'            0
nr cycles           0
inc. cycle          0

freq/Hz	Re(Z)/Ohm	-Im(Z)/Ohm	|Z|/Ohm	Phase(Z)/deg	time/s	<Ewe>/V	<I>/mA	Cs/µF	Cp/µF	cycle number	I Range	|Ewe|/V	|I|/A	Ns	(Q-Qo)/mA.h	<Ece>/V	|Ece|/V	Phase(Zce)/deg	|Zce|/Ohm	Re(Zce)/Ohm	-Im(Zce)/Ohm	Phase(Zwe-ce)/deg	|Zwe-ce|/Ohm	Re(Zwe-ce)/Ohm	-Im(Zwe-ce)/Ohm	Re(Y)/Ohm-1	Im(Y)/Ohm-1	|Y|/Ohm-1	Phase(Y)/deg	Re(C)/nF	Im(C)/nF	|C|/nF	Phase(C)/deg	Re(M)	Im(M)	|M|	Phase(M)/deg	Re(Permittivity)	Im(Permittivity)	|Permittivity|	Phase(Permittivity)/deg	Re(Resistivity)/Ohm.cm	Im(Resistivity)/Ohm.cm	|Resistivity|/Ohm.cm	Phase(Resistivity)/deg	Re(Conductivity)/mS/cm	Im(Conductivity)/mS/cm	|Conductivity|/mS/cm	Phase(Conductivity)/deg	Tan(Delta)	Loss Angle(Delta)/deg	dq/mA.h	Pwe/W	Pce/W	Pwe-ce/W	<Ewe-Ece>/V	Rwe/Ohm	Rce/Ohm	Rwe-ce/Ohm		Ewe-Ece/V
1.00002e+06	2.46899	2.84933	3.77023	-49.0905	2.23454	3.89965	-0.0147894	0.0558559	0.0319021	1	10	0.00022113	5.86515e-05	0	-1.08956e-05	-0.000188635	0.000197903	-65.6084	3.37421	1.39345	3.07304	-56.8885	7.07057	3.86245	5.92237	0.173694	0.200451	0.265236	49.0905	31.9021	27.6437	42.2128	-40.9095	0.0000000E+000	0.0000000E+000	0.0000000E+000	40.9095	0.0000000E+000	0.0000000E+000	0.0000000E+000	-40.9095	0.0000000E+000	0.0000000E+000	0.0000000E+000	-49.0905	0.0000000E+000	0.0000000E+000	0.0000000E+000	49.0905	0.866516	40.9095	-1.08956e-05	-5.76734e-05	2.7898e-09	-5.76762e-05	3.89984	263679	12.7548	263691
251206	1.38159	0.237905	1.40192	-9.77031	4.93655	3.89924	0.00972721	2.6631	0.076691	1	9	0.00294684	0.002102	0	-3.07246e-06	7.86817e-05	5.52851e-05	97.0731	0.0263012	-0.0032386	-0.0261011	-8.73599	1.39453	1.37835	0.211804	0.70296	0.121047	0.713306	9.77031	76.691	445.37	451.924	-80.2297	0.0000000E+000	0.0000000E+000	0.0000000E+000	80.2297	0.0000000E+000	0.0000000E+000	0.0000000E+000	-80.2297	0.0000000E+000	0.0000000E+000	0.0000000E+000	-9.77031	0.0000000E+000	0.0000000E+000	0.0000000E+000	9.77031	5.80732	80.2297	2.08926e-06	3.79287e-05	7.65353e-10	3.79279e-05	3.89916	400859	8.08883	400851
63093.8	1.76796	0.583152	1.86165	-18.2548	7.11256	3.89919	0.0139414	4.32565	0.424441	1	9	0.00525206	0.00282118	0	2.49612e-05	-7.40708e-05	2.222e-05	56.6301	0.00787611	0.0043322	-0.00657763	-18.0211	1.86372	1.77229	0.576574	0.510123	0.168261	0.537157	18.2548	424.441	1286.79	1354.99	-71.7452	0.0000000E+000	0.0000000E+000	0.0000000E+000	71.7452	0.0000000E+000	0.0000000E+000	0.0000000E+000	-71.7452	0.0000000E+000	0.0000000E+000	0.0000000E+000	-18.2548	0.0000000E+000	0.0000000E+000	0.0000000E+000	18.2548	3.03173	71.7452	1.14844e-06	5.43602e-05	-1.03265e-09	5.43613e-05	3.89927	279684	5.31301	279689
15847.7	2.3684	0.939525	2.54794	-21.6379	9.41255	3.89919	0.000739454	10.6892	1.45339	1	9	0.00522618	0.00205114	0	3.66514e-05	0.000174152	8.64203e-06	28.215	0.00421328	0.00371266	-0.00199197	-21.5655	2.55066	2.37211	0.937533	0.364817	0.14472	0.392474	21.6379	1453.39	3663.78	3941.53	-68.3622	0.0000000E+000	0.0000000E+000	0.0000000E+000	68.3622	0.0000000E+000	0.0000000E+000	0.0000000E+000	-68.3622	0.0000000E+000	0.0000000E+000	0.0000000E+000	-21.6379	0.0000000E+000	0.0000000E+000	0.0000000E+000	21.6379	2.52084	68.3622	5.03104e-07	2.88328e-06	1.28777e-10	2.88315e-06	3.89902	5.27307e+06	235.514	5.27283e+06
3983.6	3.27022	1.52105	3.60665	-24.9441	11.652	3.89918	0.00514007	26.2665	4.67175	1	9	0.00509962	0.00141395	0	4.0144e-05	2.30547e-06	6.97862e-06	19.8026	0.00493554	0.00464368	-0.00167207	-24.889	3.61015	3.27486	1.51937	0.251402	0.116933	0.277266	24.9441	4671.75	10044.2	11077.5	-65.0559	0.0000000E+000	0.0000000E+000	0.0000000E+000	65.0559	0.0000000E+000	0.0000000E+000	0.0000000E+000	-65.0559	0.0000000E+000	0.0000000E+000	0.0000000E+000	-24.9441	0.0000000E+000	0.0000000E+000	0.0000000E+000	24.9441	2.14998	65.0559	3.35097e-06	2.0042e-05	1.18503e-11	2.0042e-05	3.89918	758585	0.448529	758585
1000.32	4.70364	2.75238	5.44975	-30.3345	14.4888	3.89918	-0.0427112	57.8059	14.7447	1	10	0.00496521	0.000911089	0	8.31097e-06	-0.0003032	5.66743e-06	104.514	0.00622049	-0.00155896	-0.00602198	-30.2881	5.44537	4.70208	2.74636	0.158373	0.0926734	0.183494	30.3345	14744.7	25197.7	29194.7	-59.6655	0.0000000E+000	0.0000000E+000	0.0000000E+000	59.6655	0.0000000E+000	0.0000000E+000	0.0000000E+000	-59.6655	0.0000000E+000	0.0000000E+000	0.0000000E+000	-30.3345	0.0000000E+000	0.0000000E+000	0.0000000E+000	30.3345	1.70893	59.6655	-4.83176e-06	-0.000166539	1.295e-08	-0.000166552	3.89949	91291.7	7.09882	91298.8
251.044	7.61167	5.44498	9.35871	-35.5779	17.19	3.89918	-0.0445309	116.432	39.4126	1	10	0.00475963	0.000508578	0	-2.2874e-05	-0.000226823	1.28842e-05	104.668	0.0253337	-0.00641487	-0.0245081	-35.4785	9.33924	7.60526	5.42047	0.0869057	0.0621677	0.106852	35.5779	39412.6	55095.8	67741.4	-54.4221	0.0000000E+000	0.0000000E+000	0.0000000E+000	54.4221	0.0000000E+000	0.0000000E+000	0.0000000E+000	-54.4221	0.0000000E+000	0.0000000E+000	0.0000000E+000	-35.5779	0.0000000E+000	0.0000000E+000	0.0000000E+000	35.5779	1.39792	54.4221	-5.31061e-06	-0.000173634	1.01007e-08	-0.000173644	3.8994	87561	5.09361	87566.1
63.0823	15.2065	8.28281	17.316	-28.5766	19.91	3.89918	-0.0463096	304.604	69.6942	1	10	0.00473143	0.000273241	0	-5.60182e-05	-0.000188635	5.02294e-06	-9.01389	0.0183828	0.0181558	0.00288011	-28.5563	17.3333	15.2247	8.28569	0.0507149	0.0276239	0.0577502	28.5766	69694.2	127952	145702	-61.4234	0.0000000E+000	0.0000000E+000	0.0000000E+000	61.4234	0.0000000E+000	0.0000000E+000	0.0000000E+000	-61.4234	0.0000000E+000	0.0000000E+000	0.0000000E+000	-28.5766	0.0000000E+000	0.0000000E+000	0.0000000E+000	28.5766	1.83591	61.4234	-5.88935e-06	-0.000180569	8.73563e-09	-0.000180578	3.89937	84198	4.07335	84202
15.8576	22.8063	4.93121	23.3333	-12.2007	22.814	3.89918	-0.0501278	2035.31	90.9041	1	11	0.00472644	0.000202562	0	-9.34176e-05	7.86817e-05	8.40316e-06	10.9534	0.0414844	0.0407286	-0.0078825	-12.1608	23.3715	22.847	4.92332	0.0418892	0.00905733	0.0428572	12.2007	90904.1	420422	430137	-77.7992	0.0000000E+000	0.0000000E+000	0.0000000E+000	77.7992	0.0000000E+000	0.0000000E+000	0.0000000E+000	-77.7992	0.0000000E+000	0.0000000E+000	0.0000000E+000	-12.2007	0.0000000E+000	0.0000000E+000	0.0000000E+000	12.2007	4.62489	77.7992	-5.26357e-06	-0.000195457	-3.94414e-09	-0.000195453	3.8991	77784.8	1.56962	77783.2
3.97785	24.8171	1.91797	24.8911	-4.41927	25.7273	3.8992	-0.0509944	20860.8	123.858	1	11	0.00472897	0.000189987	0	-0.000132398	-9.31649e-05	7.23136e-06	-46.4493	0.0380625	0.0262249	0.0275864	-4.47786	24.9194	24.8433	1.94555	0.0400556	0.00309566	0.040175	4.41927	123858	1.60264e+06	1.60741e+06	-85.5807	0.0000000E+000	0.0000000E+000	0.0000000E+000	85.5807	0.0000000E+000	0.0000000E+000	0.0000000E+000	-85.5807	0.0000000E+000	0.0000000E+000	0.0000000E+000	-4.41927	0.0000000E+000	0.0000000E+000	0.0000000E+000	4.41927	12.9393	85.5807	-5.68201e-06	-0.000198837	4.75089e-09	-0.000198842	3.89929	76463.2	1.82696	76465.1
1.00469	25.6322	1.15331	25.6581	-2.57625	240.541	3.89918	-0.0703315	137354	277.511	1	11	0.00503654	0.000196294	0	-0.00503077	2.13995e-05	3.77497e-07	7.26604	0.00192312	0.00190768	-0.00024323	-2.57552	25.66	25.6341	1.15306	0.0389346	0.00175184	0.038974	2.57625	277511	6.16768e+06	6.17392e+06	-87.4238	0.0000000E+000	0.0000000E+000	0.0000000E+000	87.4238	0.0000000E+000	0.0000000E+000	0.0000000E+000	-87.4238	0.0000000E+000	0.0000000E+000	0.0000000E+000	-2.57625	0.0000000E+000	0.0000000E+000	0.0000000E+000	2.57625	22.225	87.4238	-0.00481254	-0.000274235	-1.50506e-09	-0.000274233	3.89915	55440	0.304267	55439.7
0.251173	26.3876	1.69248	26.4418	-3.66988	240.546	3.89918	-0.0703315	374389	1533.87	1	11	0.00506402	0.000191516	0	-0.00503077	2.13995e-05	2.55064e-07	-2.42508	0.00133182	0.00133062	5.63532e-05	-3.66982	26.4431	26.3889	1.69254	0.0377414	0.0024207	0.0378189	3.66988	1.53387e+06	2.39147e+07	2.39638e+07	-86.3301	0.0000000E+000	0.0000000E+000	0.0000000E+000	86.3301	0.0000000E+000	0.0000000E+000	0.0000000E+000	-86.3301	0.0000000E+000	0.0000000E+000	0.0000000E+000	-3.66988	0.0000000E+000	0.0000000E+000	0.0000000E+000	3.66988	15.5911	86.3301	0.000000000000000E+000	-0.000274235	-1.50506e-09	-0.000274233	3.89915	55440	0.304267	55439.7
0.0602816	27.8294	3.54395	28.0542	-7.25729	240.552	3.89918	-0.0703315	744985	11888.5	1	11	0.00505765	0.000180282	0	-0.00503077	2.13995e-05	2.10987e-07	-95.3242	0.00117032	-0.000108595	0.00116527	-7.25968	28.0542	27.8293	3.54512	0.0353597	0.0045029	0.0356453	7.25729	1.18885e+07	9.33564e+07	9.41104e+07	-82.7427	0.0000000E+000	0.0000000E+000	0.0000000E+000	82.7427	0.0000000E+000	0.0000000E+000	0.0000000E+000	-82.7427	0.0000000E+000	0.0000000E+000	0.0000000E+000	-7.25729	0.0000000E+000	0.0000000E+000	0.0000000E+000	7.25729	7.85266	82.7427	0.000000000000000E+000	-0.000274235	-1.50506e-09	-0.000274233	3.89915	55440	0.304267	55439.7
0.00796479	31.0186	8.10809	32.0608	-14.6491	20329.4	3.89917	-0.00161728	2.46449e+06	157622	1	11	0.0050527	0.000157598	0	-0.045419	2.13995e-05	7.77837e-07	1.26865	0.00493558	0.00493437	-0.000109275	-14.6466	32.0655	31.0235	8.10798	0.0301769	0.00788808	0.0311908	14.6491	1.57622e+08	6.03004e+08	6.23264e+08	-75.3509	0.0000000E+000	0.0000000E+000	0.0000000E+000	75.3509	0.0000000E+000	0.0000000E+000	0.0000000E+000	-75.3509	0.0000000E+000	0.0000000E+000	0.0000000E+000	-14.6491	0.0000000E+000	0.0000000E+000	0.0000000E+000	14.6491	3.82563	75.3509	-0.0403882	-6.30604e-06	-3.46089e-11	-6.30601e-06	3.89915	2.41095e+06	13.2318	2.41094e+06
0.0019912	38.6126	11.6199	40.3231	-16.7484	20329.4	3.89917	-0.00161728	6.87867e+06	571214	1	11	0.00506569	0.000125627	0	-0.045419	2.13995e-05	2.90373e-07	22.9282	0.00231139	0.00212877	-0.000900463	-16.7463	40.3249	38.6147	11.619	0.0237476	0.00714649	0.0247997	16.7484	5.71214e+08	1.89813e+09	1.98222e+09	-73.2516	0.0000000E+000	0.0000000E+000	0.0000000E+000	73.2516	0.0000000E+000	0.0000000E+000	0.0000000E+000	-73.2516	0.0000000E+000	0.0000000E+000	0.0000000E+000	-16.7484	0.0000000E+000	0.0000000E+000	0.0000000E+000	16.7484	3.32298	73.2516	0.000000000000000E+000	-6.30604e-06	-3.46089e-11	-6.30601e-06	3.89915	2.41095e+06	13.2318	2.41094e+06
0.000497799	41.7191	19.4715	46.0393	-25.0198	20329.4	3.89917	-0.00161728	1.64198e+07	2.93702e+06	1	11	0.00506618	0.00011004	0	-0.045419	2.13995e-05	1.33716e-06	-98.9487	0.0121516	-0.00189018	0.0120037	-25.0343	46.0427	41.7172	19.4835	0.0196823	0.00918629	0.0217206	25.0198	2.93702e+09	6.29278e+09	6.94444e+09	-64.9802	0.0000000E+000	0.0000000E+000	0.0000000E+000	64.9802	0.0000000E+000	0.0000000E+000	0.0000000E+000	-64.9802	0.0000000E+000	0.0000000E+000	0.0000000E+000	-25.0198	0.0000000E+000	0.0000000E+000	0.0000000E+000	25.0198	2.14258	64.9802	0.000000000000000E+000	-6.30604e-06	-3.46089e-11	-6.30601e-06	3.89915	2.41095e+06	13.2318	2.41094e+06
9.95598e-05	55.0674	112.19	124.976	-63.8563	20329.4	3.89917	-0.00161728	1.42489e+07	1.14825e+07	1	11	0.00506702	4.0544e-05	0	-0.045419	2.13995e-05	1.65932e-06	107.212	0.0409264	-0.0121107	-0.0390935	-63.8534	124.935	55.0553	112.151	0.00352567	0.00718292	0.00800154	63.8563	1.14825e+10	5.63609e+09	1.27912e+10	-26.1437	0.0000000E+000	0.0000000E+000	0.0000000E+000	26.1437	0.0000000E+000	0.0000000E+000	0.0000000E+000	-26.1437	0.0000000E+000	0.0000000E+000	0.0000000E+000	-63.8563	0.0000000E+000	0.0000000E+000	0.0000000E+000	63.8563	0.490841	26.1437	0.000000000000000E+000	-6.30604e-06	-3.46089e-11	-6.30601e-06	3.89915	2.41095e+06	13.2318	2.41094e+06