File: txt/19362_R311_UC99_SOC50_C01.mpt
EC-Lab ASCII FILE
Nb header lines : 65

Potentio Electrochemical Impedance Spectroscopy

Run on channel : 1 (SN 66354)
User :
CE vs. WE compliance from -10 V to 10 V
Electrode connection : standard
Potential control : Ewe
Ewe ctrl range : min = -10.00 V, max = 10.00 V
Safety Limits :
	Do not start on E overload
Acquisition started on : 11/19/2025 16:14:24.363
Technique started on : 11/19/2025 16:14:27.057
Loaded Setting File :  C:\Users\Celltest\OneDrive - store-dot.com\Documents\EC-Lab\Data\txt_done\19191_R297_UC94_SOC50_C08.mpr
Saved on :
	File : 19362_R311_UC99_SOC50_C01.mpr
	Directory : C:\Users\Celltest\OneDrive - store-dot.com\Documents\EC-Lab\Data\Gyutae\
	Host : 169.254.61.224
Device : VMP-3e (SN .003165)
Address : USB
EC-LAB for windows v11.62 (software)
Internet server v27.00 (firmware)
Command interpretor v12.03 (firmware)
Electrode material :
Initial state :
Electrolyte :
Comments :
Electrode surface area : 0.001 cm²
Characteristic mass : 0.001 g
Equivalent Weight : 0.000 g/eq.
Density : 0.000 g/cm3
Volume (V) : 0.001 cm³
Record Ece
Cycle Definition : Charge/Discharge alternance
Mode                Multi sine
E (V)               0.0000
vs.                 Eoc
tE (h:m:s)          0:00:0.0000
record              0
dI                  0.000
unit dI             mA
dt (s)              0.000
fi                  1.000
unit fi             MHz
ff                  0.100
unit ff             mHz
Nd                  10
Points              per decade
spacing             Logarithmic
Va (mV)             5.0
pw                  0.10
Na                  2
corr                0
E range min (V)     -10.000
E range max (V)     10.000
I Range             Auto
Bandwidth           5
nc cycles           0
goto Ns'            0
nr cycles           0
inc. cycle          0

freq/Hz	Re(Z)/Ohm	-Im(Z)/Ohm	|Z|/Ohm	Phase(Z)/deg	time/s	<Ewe>/V	<I>/mA	Cs/µF	Cp/µF	cycle number	I Range	|Ewe|/V	|I|/A	Ns	(Q-Qo)/mA.h	<Ece>/V	|Ece|/V	Phase(Zce)/deg	|Zce|/Ohm	Re(Zce)/Ohm	-Im(Zce)/Ohm	Phase(Zwe-ce)/deg	|Zwe-ce|/Ohm	Re(Zwe-ce)/Ohm	-Im(Zwe-ce)/Ohm	Re(Y)/Ohm-1	Im(Y)/Ohm-1	|Y|/Ohm-1	Phase(Y)/deg	Re(C)/nF	Im(C)/nF	|C|/nF	Phase(C)/deg	Re(M)	Im(M)	|M|	Phase(M)/deg	Re(Permittivity)	Im(Permittivity)	|Permittivity|	Phase(Permittivity)/deg	Re(Resistivity)/Ohm.cm	Im(Resistivity)/Ohm.cm	|Resistivity|/Ohm.cm	Phase(Resistivity)/deg	Re(Conductivity)/mS/cm	Im(Conductivity)/mS/cm	|Conductivity|/mS/cm	Phase(Conductivity)/deg	Tan(Delta)	Loss Angle(Delta)/deg	dq/mA.h	Pwe/W	Pce/W	Pwe-ce/W	<Ewe-Ece>/V	Rwe/Ohm	Rce/Ohm	Rwe-ce/Ohm		Ewe-Ece/V
1.00002e+06	2.58923	2.4645	3.57462	-43.5861	2.69356	3.91001	0.0134761	0.0645779	0.030696	1	10	0.000233565	6.53398e-05	0	5.71725e-06	0.000315923	0.000199005	-70.2438	3.04569	1.0295	2.86642	-55.8305	6.44313	3.61873	5.33091	0.202634	0.192872	0.27975	43.5861	30.696	32.2496	44.5228	-46.4139	0.0000000E+000	0.0000000E+000	0.0000000E+000	46.4139	0.0000000E+000	0.0000000E+000	0.0000000E+000	-46.4139	0.0000000E+000	0.0000000E+000	0.0000000E+000	-43.5861	0.0000000E+000	0.0000000E+000	0.0000000E+000	43.5861	1.05061	46.4139	5.71725e-06	5.26918e-05	4.25742e-09	5.26876e-05	3.90969	290143	23.4431	290119
251206	1.51589	0.179028	1.52642	-6.73551	5.39453	3.90969	0.0470104	3.53889	0.0486812	1	9	0.00389784	0.00255358	0	4.08018e-05	-6.56234e-05	6.16175e-05	112.267	0.0241299	-0.00914335	-0.0223305	-5.93728	1.51487	1.50675	0.156698	0.650604	0.0768372	0.655126	6.73551	48.6812	412.199	415.063	-83.2645	0.0000000E+000	0.0000000E+000	0.0000000E+000	83.2645	0.0000000E+000	0.0000000E+000	0.0000000E+000	-83.2645	0.0000000E+000	0.0000000E+000	0.0000000E+000	-6.73551	0.0000000E+000	0.0000000E+000	0.0000000E+000	6.73551	8.46731	83.2645	5.88524e-06	0.000183796	-3.08498e-09	0.000183799	3.90975	83166.5	1.39593	83167.8
63093.8	1.86557	0.632517	1.96988	-18.7291	7.69652	3.90965	0.0548711	3.98805	0.411173	1	9	0.00538806	0.00273522	0	5.95189e-05	-0.000256397	2.19354e-05	80.737	0.00801963	0.0012909	-0.00791505	-18.4989	1.96858	1.86686	0.624602	0.480763	0.163001	0.507644	18.7291	411.173	1212.73	1280.54	-71.2709	0.0000000E+000	0.0000000E+000	0.0000000E+000	71.2709	0.0000000E+000	0.0000000E+000	0.0000000E+000	-71.2709	0.0000000E+000	0.0000000E+000	0.0000000E+000	-18.7291	0.0000000E+000	0.0000000E+000	0.0000000E+000	18.7291	2.94944	71.2709	-2.46533e-06	0.000214527	-1.40688e-08	0.000214541	3.9099	71251.5	4.67271	71256.2
15847.7	2.57717	1.08503	2.79627	-22.8319	9.75256	3.90965	0.056622	9.25574	1.39361	1	9	0.00523382	0.00187172	0	9.28857e-05	-8.47007e-05	7.06314e-06	-131.459	0.00377361	-0.00249847	0.00282804	-22.9052	2.79506	2.57467	1.08786	0.329599	0.138767	0.35762	22.8319	1393.61	3310.1	3591.5	-67.1681	0.0000000E+000	0.0000000E+000	0.0000000E+000	67.1681	0.0000000E+000	0.0000000E+000	0.0000000E+000	-67.1681	0.0000000E+000	0.0000000E+000	0.0000000E+000	-22.8319	0.0000000E+000	0.0000000E+000	0.0000000E+000	22.8319	2.3752	67.1681	5.55099e-06	0.000221372	-4.79592e-09	0.000221377	3.90974	69048.3	1.4959	69049.8
3983.6	3.60647	1.68464	3.98054	-25.038	11.5291	3.90962	-0.0103762	23.7158	4.24784	1	10	0.00489319	0.00122928	0	0.000111469	0.000411309	2.5057e-06	6.24485	0.00203835	0.00202625	-0.000221727	-25.0228	3.98228	3.6085	1.68442	0.227614	0.106322	0.251222	25.038	4247.84	9093.77	10037	-64.962	0.0000000E+000	0.0000000E+000	0.0000000E+000	64.962	0.0000000E+000	0.0000000E+000	0.0000000E+000	-64.962	0.0000000E+000	0.0000000E+000	0.0000000E+000	-25.038	0.0000000E+000	0.0000000E+000	0.0000000E+000	25.038	2.1408	64.962	1.40914e-06	-4.05671e-05	-4.26784e-09	-4.05628e-05	3.90921	376786	39.6396	376746
1000.32	5.13256	3.09398	5.99299	-31.0822	14.1578	3.90957	-0.00770403	51.4237	13.706	1	10	0.00465498	0.000776738	0	0.00010818	0.000201459	1.2105e-05	-8.5449	0.0155845	0.0154115	0.00231561	-31.0252	6.00739	5.14798	3.0963	0.142905	0.0861451	0.166862	31.0822	13706	22736.7	26548.3	-58.9178	0.0000000E+000	0.0000000E+000	0.0000000E+000	58.9178	0.0000000E+000	0.0000000E+000	0.0000000E+000	-58.9178	0.0000000E+000	0.0000000E+000	0.0000000E+000	-31.0822	0.0000000E+000	0.0000000E+000	0.0000000E+000	31.0822	1.65889	58.9178	-1.44344e-06	-3.01194e-05	-1.55205e-09	-3.01179e-05	3.90936	507470	26.1498	507444
251.044	8.43282	6.39187	10.5815	-37.1612	16.859	3.90956	-0.00789411	99.1841	36.1911	1	10	0.00458073	0.000432899	0	0.000102524	0.000182382	1.36643e-05	3.11	0.0315647	0.0315182	-0.00171248	-37.051	10.6056	8.46434	6.39015	0.0753143	0.0570863	0.0945044	37.1612	36191.1	47747.1	59913.1	-52.8388	0.0000000E+000	0.0000000E+000	0.0000000E+000	52.8388	0.0000000E+000	0.0000000E+000	0.0000000E+000	-52.8388	0.0000000E+000	0.0000000E+000	0.0000000E+000	-37.1612	0.0000000E+000	0.0000000E+000	0.0000000E+000	37.1612	1.3193	52.8388	-1.15242e-06	-3.08625e-05	-1.43974e-09	-3.08611e-05	3.90938	495250	23.1035	495227
63.0823	17.4824	9.80181	20.0427	-29.278	19.5799	3.90957	-0.00583685	257.399	61.5614	1	10	0.00456847	0.000227937	0	9.59994e-05	0.000220536	4.50959e-06	-124.575	0.0197844	-0.0112273	0.0162901	-29.3343	20.0408	17.4711	9.8181	0.04352	0.0244003	0.0498936	29.278	61561.4	109800	125880	-60.722	0.0000000E+000	0.0000000E+000	0.0000000E+000	60.722	0.0000000E+000	0.0000000E+000	0.0000000E+000	-60.722	0.0000000E+000	0.0000000E+000	0.0000000E+000	-29.278	0.0000000E+000	0.0000000E+000	0.0000000E+000	29.278	1.78358	60.722	-5.5328e-07	-2.28196e-05	-1.28724e-09	-2.28183e-05	3.90935	669808	37.7834	669771
15.8576	26.6635	6.02483	27.3357	-12.7326	22.484	3.9096	-0.00350611	1665.86	80.9219	1	11	0.00456121	0.000166859	0	9.48535e-05	-4.65461e-05	1.1589e-05	-89.0698	0.0694536	0.00112751	0.0694445	-12.874	27.3522	26.6647	6.09427	0.0356826	0.00806274	0.0365822	12.7326	80921.9	358129	367158	-77.2674	0.0000000E+000	0.0000000E+000	0.0000000E+000	77.2674	0.0000000E+000	0.0000000E+000	0.0000000E+000	-77.2674	0.0000000E+000	0.0000000E+000	0.0000000E+000	-12.7326	0.0000000E+000	0.0000000E+000	0.0000000E+000	12.7326	4.42561	77.2674	2.48345e-07	-1.37075e-05	1.63196e-10	-1.37076e-05	3.90965	1.11508e+06	13.2757	1.1151e+06
3.97785	29.1439	2.31379	29.2356	-4.53929	25.3954	3.90964	-0.001576	17292.1	108.31	1	11	0.00456355	0.000156096	0	9.31857e-05	1.06858e-05	8.55318e-06	-4.23257	0.0547945	0.0546451	0.00404411	-4.53872	29.2904	29.1986	2.31783	0.0340976	0.00270707	0.0342048	4.53929	108310	1.36425e+06	1.36855e+06	-85.4607	0.0000000E+000	0.0000000E+000	0.0000000E+000	85.4607	0.0000000E+000	0.0000000E+000	0.0000000E+000	-85.4607	0.0000000E+000	0.0000000E+000	0.0000000E+000	-4.53929	0.0000000E+000	0.0000000E+000	0.0000000E+000	4.53929	12.5958	85.4607	9.61708e-07	-6.1616e-06	-1.68409e-11	-6.16159e-06	3.90963	2.48073e+06	6.78032	2.48073e+06
1.00469	30.0024	1.34844	30.0327	-2.57339	241.12	3.90959	-0.00777282	117478	236.826	1	11	0.00500564	0.000166673	0	-0.000988528	-0.000180087	2.92705e-07	-19.1585	0.00175616	0.0016589	0.000576341	-2.57435	30.0344	30.004	1.34901	0.0332635	0.00149501	0.0332971	2.57339	236826	5.26932e+06	5.27464e+06	-87.4266	0.0000000E+000	0.0000000E+000	0.0000000E+000	87.4266	0.0000000E+000	0.0000000E+000	0.0000000E+000	-87.4266	0.0000000E+000	0.0000000E+000	0.0000000E+000	-2.57339	0.0000000E+000	0.0000000E+000	0.0000000E+000	2.57339	22.2497	87.4266	-0.00107489	-3.03886e-05	1.39979e-09	-3.039e-05	3.90977	502983	23.1688	503006
0.251173	30.8785	1.77403	30.9294	-3.28814	241.123	3.90959	-0.00777282	357179	1175.07	1	11	0.0050323	0.000162703	0	-0.000988528	-0.000180087	3.63751e-07	22.8125	0.00223568	0.0020608	-0.000866812	-3.28632	30.9314	30.8806	1.77316	0.0322785	0.00185446	0.0323317	3.28814	1.17507e+06	2.04531e+07	2.04868e+07	-86.7119	0.0000000E+000	0.0000000E+000	0.0000000E+000	86.7119	0.0000000E+000	0.0000000E+000	0.0000000E+000	-86.7119	0.0000000E+000	0.0000000E+000	0.0000000E+000	-3.28814	0.0000000E+000	0.0000000E+000	0.0000000E+000	3.28814	17.4059	86.7119	0.000000000000000E+000	-3.03886e-05	1.39979e-09	-3.039e-05	3.90977	502983	23.1688	503006
0.0602816	32.4067	3.57372	32.6032	-6.29298	241.126	3.90959	-0.00777282	738780	8876.37	1	11	0.00502588	0.000154153	0	-0.000988528	-0.000180087	4.48332e-07	10.9203	0.00290836	0.00285569	-0.000550969	-6.29147	32.606	32.4096	3.57317	0.030487	0.00336202	0.0306719	6.29298	8.87638e+06	8.04916e+07	8.09795e+07	-83.707	0.0000000E+000	0.0000000E+000	0.0000000E+000	83.707	0.0000000E+000	0.0000000E+000	0.0000000E+000	-83.707	0.0000000E+000	0.0000000E+000	0.0000000E+000	-6.29298	0.0000000E+000	0.0000000E+000	0.0000000E+000	6.29298	9.06807	83.707	0.000000000000000E+000	-3.03886e-05	1.39979e-09	-3.039e-05	3.90977	502983	23.1688	503006
0.00796479	33.3489	7.87571	34.2663	-13.2876	20330	3.90965	-0.000275423	2.53721e+06	134030	1	11	0.00502023	0.000146507	0	-0.012506	0.000144227	5.98299e-07	-32.6826	0.00408376	0.0034372	0.00220517	-13.2898	34.2701	33.3523	7.87791	0.028402	0.00670743	0.0291832	13.2876	1.3403e+08	5.67537e+08	5.83149e+08	-76.7124	0.0000000E+000	0.0000000E+000	0.0000000E+000	76.7124	0.0000000E+000	0.0000000E+000	0.0000000E+000	-76.7124	0.0000000E+000	0.0000000E+000	0.0000000E+000	-13.2876	0.0000000E+000	0.0000000E+000	0.0000000E+000	13.2876	4.2344	76.7124	-0.0115174	-1.07681e-06	-3.97234e-11	-1.07677e-06	3.9095	1.41951e+07	523.657	1.41945e+07
0.0019912	39.9265	11.2999	41.4947	-15.8024	20330	3.90965	-0.000275423	7.07347e+06	524559	1	11	0.00503268	0.000121285	0	-0.012506	0.000144227	9.82337e-07	-20.589	0.00809942	0.00758208	0.00284826	-15.8034	41.5028	39.9341	11.3027	0.0231887	0.00656279	0.0240995	15.8024	5.24559e+08	1.85345e+09	1.92625e+09	-74.1976	0.0000000E+000	0.0000000E+000	0.0000000E+000	74.1976	0.0000000E+000	0.0000000E+000	0.0000000E+000	-74.1976	0.0000000E+000	0.0000000E+000	0.0000000E+000	-15.8024	0.0000000E+000	0.0000000E+000	0.0000000E+000	15.8024	3.53336	74.1976	0.000000000000000E+000	-1.07681e-06	-3.97234e-11	-1.07677e-06	3.9095	1.41951e+07	523.657	1.41945e+07
0.000497799	41.2221	22.2039	46.8217	-28.3087	20330	3.90965	-0.000275423	1.43992e+07	3.23818e+06	1	11	0.00503605	0.000107558	0	-0.012506	0.000144227	9.43034e-07	31.3325	0.00876766	0.00748902	-0.00455922	-28.2994	46.8261	41.2295	22.1993	0.0188034	0.0101283	0.0213576	28.3087	3.23818e+09	6.01176e+09	6.8284e+09	-61.6913	0.0000000E+000	0.0000000E+000	0.0000000E+000	61.6913	0.0000000E+000	0.0000000E+000	0.0000000E+000	-61.6913	0.0000000E+000	0.0000000E+000	0.0000000E+000	-28.3087	0.0000000E+000	0.0000000E+000	0.0000000E+000	28.3087	1.85653	61.6913	0.000000000000000E+000	-1.07681e-06	-3.97234e-11	-1.07677e-06	3.9095	1.41951e+07	523.657	1.41945e+07
9.95598e-05	54.6971	113.064	125.6	-64.1837	20330	3.90965	-0.000275423	1.41387e+07	1.14573e+07	1	11	0.00502995	4.00474e-05	0	-0.012506	0.000144227	1.91382e-06	-77.6482	0.0477888	0.0102227	0.0466827	-64.1888	125.646	54.7073	113.111	0.00346725	0.00716717	0.00796179	64.1837	1.14573e+10	5.5427e+09	1.27276e+10	-25.8163	0.0000000E+000	0.0000000E+000	0.0000000E+000	25.8163	0.0000000E+000	0.0000000E+000	0.0000000E+000	-25.8163	0.0000000E+000	0.0000000E+000	0.0000000E+000	-64.1837	0.0000000E+000	0.0000000E+000	0.0000000E+000	64.1837	0.483769	25.8163	0.000000000000000E+000	-1.07681e-06	-3.97234e-11	-1.07677e-06	3.9095	1.41951e+07	523.657	1.41945e+07