File: txt/19363_R311_UC99_SOC50_C02.mpt
EC-Lab ASCII FILE
Nb header lines : 65

Potentio Electrochemical Impedance Spectroscopy

Run on channel : 2 (SN 66139)
User :
CE vs. WE compliance from -10 V to 10 V
Electrode connection : standard
Potential control : Ewe
Ewe ctrl range : min = -10.00 V, max = 10.00 V
Safety Limits :
	Do not start on E overload
Acquisition started on : 11/19/2025 16:14:31.776
Technique started on : 11/19/2025 16:14:34.010
Loaded Setting File :  C:\Users\Celltest\OneDrive - store-dot.com\Documents\EC-Lab\Data\txt_done\19191_R297_UC94_SOC50_C08.mpr
Saved on :
	File : 19363_R311_UC99_SOC50_C02.mpr
	Directory : C:\Users\Celltest\OneDrive - store-dot.com\Documents\EC-Lab\Data\Michael\
	Host : 169.254.61.224
Device : VMP-3e (SN .003165)
Address : USB
EC-LAB for windows v11.62 (software)
Internet server v27.00 (firmware)
Command interpretor v12.03 (firmware)
Electrode material :
Initial state :
Electrolyte :
Comments :
Electrode surface area : 0.001 cm²
Characteristic mass : 0.001 g
Equivalent Weight : 0.000 g/eq.
Density : 0.000 g/cm3
Volume (V) : 0.001 cm³
Record Ece
Cycle Definition : Charge/Discharge alternance
Mode                Multi sine
E (V)               0.0000
vs.                 Eoc
tE (h:m:s)          0:00:0.0000
record              0
dI                  0.000
unit dI             mA
dt (s)              0.000
fi                  1.000
unit fi             MHz
ff                  0.100
unit ff             mHz
Nd                  10
Points              per decade
spacing             Logarithmic
Va (mV)             5.0
pw                  0.10
Na                  2
corr                0
E range min (V)     -10.000
E range max (V)     10.000
I Range             Auto
Bandwidth           5
nc cycles           0
goto Ns'            0
nr cycles           0
inc. cycle          0

freq/Hz	Re(Z)/Ohm	-Im(Z)/Ohm	|Z|/Ohm	Phase(Z)/deg	time/s	<Ewe>/V	<I>/mA	Cs/µF	Cp/µF	cycle number	I Range	|Ewe|/V	|I|/A	Ns	(Q-Qo)/mA.h	<Ece>/V	|Ece|/V	Phase(Zce)/deg	|Zce|/Ohm	Re(Zce)/Ohm	-Im(Zce)/Ohm	Phase(Zwe-ce)/deg	|Zwe-ce|/Ohm	Re(Zwe-ce)/Ohm	-Im(Zwe-ce)/Ohm	Re(Y)/Ohm-1	Im(Y)/Ohm-1	|Y|/Ohm-1	Phase(Y)/deg	Re(C)/nF	Im(C)/nF	|C|/nF	Phase(C)/deg	Re(M)	Im(M)	|M|	Phase(M)/deg	Re(Permittivity)	Im(Permittivity)	|Permittivity|	Phase(Permittivity)/deg	Re(Resistivity)/Ohm.cm	Im(Resistivity)/Ohm.cm	|Resistivity|/Ohm.cm	Phase(Resistivity)/deg	Re(Conductivity)/mS/cm	Im(Conductivity)/mS/cm	|Conductivity|/mS/cm	Phase(Conductivity)/deg	Tan(Delta)	Loss Angle(Delta)/deg	dq/mA.h	Pwe/W	Pce/W	Pwe-ce/W	<Ewe-Ece>/V	Rwe/Ohm	Rce/Ohm	Rwe-ce/Ohm		Ewe-Ece/V
1.00002e+06	2.47849	2.47196	3.5005	-44.9243	2.23355	3.90047	-0.045846	0.064383	0.0321065	1	10	0.00023238	6.63849e-05	0	-2.02394e-05	-0.000169948	0.000187259	-65.6437	2.82081	1.16333	2.56975	-54.1579	6.21946	3.64182	5.04171	0.202268	0.201735	0.285674	44.9243	32.1065	32.1914	45.4655	-45.0757	0.0000000E+000	0.0000000E+000	0.0000000E+000	45.0757	0.0000000E+000	0.0000000E+000	0.0000000E+000	-45.0757	0.0000000E+000	0.0000000E+000	0.0000000E+000	-44.9243	0.0000000E+000	0.0000000E+000	0.0000000E+000	44.9243	1.00264	45.0757	-2.02394e-05	-0.000178821	7.79143e-09	-0.000178829	3.90064	85077.5	3.70692	85081.2
251206	1.56185	0.355968	1.6019	-12.8393	4.93452	3.90048	-0.0278949	1.77983	0.0878883	1	9	0.00416507	0.00260009	0	-4.25714e-05	-0.000246311	2.39178e-05	98.4703	0.00919886	-0.00135496	-0.00909852	-12.5321	1.59858	1.56049	0.34687	0.608651	0.138721	0.624259	12.8393	87.8883	385.619	395.508	-77.1607	0.0000000E+000	0.0000000E+000	0.0000000E+000	77.1607	0.0000000E+000	0.0000000E+000	0.0000000E+000	-77.1607	0.0000000E+000	0.0000000E+000	0.0000000E+000	-12.8393	0.0000000E+000	0.0000000E+000	0.0000000E+000	12.8393	4.3876	77.1607	-2.45537e-06	-0.000108803	6.87083e-09	-0.00010881	3.90072	139828	8.82997	139836
63093.8	2.08232	0.706616	2.19895	-18.7442	7.23256	3.90037	-0.0218983	3.56985	0.368627	1	9	0.00549652	0.00249962	0	-6.90957e-05	-0.000303584	1.54439e-05	67.9125	0.0061785	0.00232325	-0.00572507	-18.5835	2.19931	2.08464	0.70089	0.430644	0.146135	0.454763	18.7442	368.627	1086.31	1147.15	-71.2558	0.0000000E+000	0.0000000E+000	0.0000000E+000	71.2558	0.0000000E+000	0.0000000E+000	0.0000000E+000	-71.2558	0.0000000E+000	0.0000000E+000	0.0000000E+000	-18.7442	0.0000000E+000	0.0000000E+000	0.0000000E+000	18.7442	2.94689	71.2558	3.32984e-06	-8.54115e-05	6.64797e-09	-8.54182e-05	3.90067	178113	13.8633	178127
15847.7	2.79004	1.01844	2.9701	-20.0534	9.53253	3.90038	-0.0151941	9.861	1.15943	1	9	0.00497012	0.00167338	0	-7.41061e-05	5.91423e-05	7.61106e-06	-127.382	0.00454831	-0.00276139	0.00361412	-20.1372	2.96875	2.78728	1.02205	0.316276	0.115449	0.336689	20.0534	1159.43	3176.3	3381.29	-69.9466	0.0000000E+000	0.0000000E+000	0.0000000E+000	69.9466	0.0000000E+000	0.0000000E+000	0.0000000E+000	-69.9466	0.0000000E+000	0.0000000E+000	0.0000000E+000	-20.0534	0.0000000E+000	0.0000000E+000	0.0000000E+000	20.0534	2.73953	69.9466	-2.90871e-06	-5.92626e-05	-8.98613e-10	-5.92617e-05	3.90032	256704	3.89246	256700
3983.6	3.74508	1.56904	4.06048	-22.7318	11.4341	3.9003	-0.0488485	25.463	3.8021	1	10	0.00492796	0.00121364	0	-9.09946e-05	0.000173687	9.19547e-06	-123.676	0.00757678	-0.00420128	0.0063053	-22.8368	4.05905	3.74088	1.57535	0.227146	0.0951655	0.246276	22.7318	3802.1	9075.08	9839.36	-67.2682	0.0000000E+000	0.0000000E+000	0.0000000E+000	67.2682	0.0000000E+000	0.0000000E+000	0.0000000E+000	-67.2682	0.0000000E+000	0.0000000E+000	0.0000000E+000	-22.7318	0.0000000E+000	0.0000000E+000	0.0000000E+000	22.7318	2.38686	67.2682	-6.68316e-06	-0.000190524	-8.48437e-09	-0.000190516	3.90013	79844.9	3.55563	79841.3
1000.32	5.24135	2.71523	5.9029	-27.3859	14.0618	3.90031	-0.0335118	58.597	12.3981	1	10	0.0047447	0.000803792	0	-0.000115521	4.00515e-05	7.17146e-06	20.6515	0.00892203	0.00834873	-0.00314664	-27.3216	5.90887	5.2497	2.71208	0.150422	0.0779248	0.169408	27.3859	12398.1	23932.8	26953.5	-62.6141	0.0000000E+000	0.0000000E+000	0.0000000E+000	62.6141	0.0000000E+000	0.0000000E+000	0.0000000E+000	-62.6141	0.0000000E+000	0.0000000E+000	0.0000000E+000	-27.3859	0.0000000E+000	0.0000000E+000	0.0000000E+000	27.3859	1.93035	62.6141	-4.62929e-06	-0.000130707	-1.3422e-09	-0.000130705	3.90027	116386	1.19514	116385
251.044	8.36098	5.0575	9.77161	-31.1694	16.762	3.90031	-0.0326252	125.353	33.5794	1	10	0.00468983	0.000479945	0	-0.000139567	5.91423e-05	7.98104e-06	-34.7787	0.0166291	0.0136585	0.00948537	-31.1756	9.7882	8.37464	5.06698	0.0875639	0.0529668	0.102337	31.1694	33579.4	55513	64878.9	-58.8306	0.0000000E+000	0.0000000E+000	0.0000000E+000	58.8306	0.0000000E+000	0.0000000E+000	0.0000000E+000	-58.8306	0.0000000E+000	0.0000000E+000	0.0000000E+000	-31.1694	0.0000000E+000	0.0000000E+000	0.0000000E+000	31.1694	1.65319	58.8306	-3.99864e-06	-0.000127248	-1.92953e-09	-0.000127247	3.90025	119549	1.81278	119547
63.0823	14.95	5.87606	16.0633	-21.4572	19.482	3.90031	-0.028859	429.365	57.4552	1	10	0.00467438	0.000290998	0	-0.000163259	-0.000112675	4.78039e-06	-104.312	0.0164276	-0.00406083	0.0159177	-21.5154	16.0653	14.9459	5.89197	0.057939	0.0227728	0.0622538	21.4572	57455.2	146179	157065	-68.5428	0.0000000E+000	0.0000000E+000	0.0000000E+000	68.5428	0.0000000E+000	0.0000000E+000	0.0000000E+000	-68.5428	0.0000000E+000	0.0000000E+000	0.0000000E+000	-21.4572	0.0000000E+000	0.0000000E+000	0.0000000E+000	21.4572	2.54422	68.5428	-3.48021e-06	-0.000112559	3.2517e-09	-0.000112563	3.90043	135151	3.90433	135154
15.8576	19.2948	2.97461	19.5227	-8.7641	22.375	3.90036	-0.0254713	3374.06	78.3308	1	11	0.00467598	0.000239515	0	-0.000184646	4.00515e-05	2.05252e-06	-6.57671	0.00856948	0.00851309	0.000981492	-8.76314	19.5313	19.3033	2.97559	0.0506243	0.00780457	0.0512223	8.7641	78330.8	508092	514094	-81.2359	0.0000000E+000	0.0000000E+000	0.0000000E+000	81.2359	0.0000000E+000	0.0000000E+000	0.0000000E+000	-81.2359	0.0000000E+000	0.0000000E+000	0.0000000E+000	-8.7641	0.0000000E+000	0.0000000E+000	0.0000000E+000	8.7641	6.48649	81.2359	-2.93321e-06	-9.93475e-05	-1.02016e-09	-9.93465e-05	3.90032	153128	1.57241	153126
3.97785	20.3908	1.24568	20.4288	-3.49587	25.2853	3.90036	-0.0234745	32119.3	119.424	1	11	0.00466723	0.000228463	0	-0.000201093	-0.000131766	4.659e-06	-22.3376	0.0203928	0.0188625	0.00775057	-3.51432	20.4481	20.4097	1.25343	0.0488594	0.00298483	0.0489505	3.49587	119424	1.95488e+06	1.95852e+06	-86.5041	0.0000000E+000	0.0000000E+000	0.0000000E+000	86.5041	0.0000000E+000	0.0000000E+000	0.0000000E+000	-86.5041	0.0000000E+000	0.0000000E+000	0.0000000E+000	-3.49587	0.0000000E+000	0.0000000E+000	0.0000000E+000	3.49587	16.3692	86.5041	-8.52806e-07	-9.15591e-05	3.09315e-09	-9.15622e-05	3.90049	166153	5.61315	166158
1.00469	20.9263	0.918843	20.9465	-2.51416	240.098	3.90032	-0.0172173	172403	331.746	1	11	0.00497856	0.00023768	0	-0.00223238	4.00515e-05	2.48e-07	118.376	0.00104342	-0.000495894	-0.000918048	-2.51171	20.9459	20.9258	0.917925	0.0476948	0.0020942	0.0477407	2.51416	331745	7.55539e+06	7.56267e+06	-87.4858	0.0000000E+000	0.0000000E+000	0.0000000E+000	87.4858	0.0000000E+000	0.0000000E+000	0.0000000E+000	-87.4858	0.0000000E+000	0.0000000E+000	0.0000000E+000	-2.51416	0.0000000E+000	0.0000000E+000	0.0000000E+000	2.51416	22.7746	87.4858	-0.00199471	-6.71529e-05	-6.89577e-10	-6.71523e-05	3.90028	226536	2.32624	226533
0.251173	21.5671	1.57033	21.6241	-4.16445	240.098	3.90032	-0.0172173	403511	2127.94	1	11	0.0050045	0.000231431	0	-0.00223238	4.00515e-05	4.25975e-07	164.4	0.00184061	-0.00177281	-0.000494971	-4.16348	21.6223	21.5653	1.56984	0.0461225	0.00335825	0.0462446	4.16445	2.12794e+06	2.92253e+07	2.93027e+07	-85.8356	0.0000000E+000	0.0000000E+000	0.0000000E+000	85.8356	0.0000000E+000	0.0000000E+000	0.0000000E+000	-85.8356	0.0000000E+000	0.0000000E+000	0.0000000E+000	-4.16445	0.0000000E+000	0.0000000E+000	0.0000000E+000	4.16445	13.7341	85.8356	0.000000000000000E+000	-6.71529e-05	-6.89577e-10	-6.71523e-05	3.90028	226536	2.32624	226533
0.0602816	23.0899	3.52968	23.3582	-8.69131	240.099	3.90032	-0.0172173	747998	17080.2	1	11	0.00499922	0.000214025	0	-0.00223238	4.00515e-05	3.64735e-07	99.8105	0.00170417	-0.000290373	-0.00167925	-8.68735	23.3576	23.0896	3.528	0.04232	0.0064693	0.0428116	8.69131	1.70802e+07	1.11733e+08	1.13031e+08	-81.3087	0.0000000E+000	0.0000000E+000	0.0000000E+000	81.3087	0.0000000E+000	0.0000000E+000	0.0000000E+000	-81.3087	0.0000000E+000	0.0000000E+000	0.0000000E+000	-8.69131	0.0000000E+000	0.0000000E+000	0.0000000E+000	8.69131	6.54166	81.3087	0.000000000000000E+000	-6.71529e-05	-6.89577e-10	-6.71523e-05	3.90028	226536	2.32624	226533
0.00796479	28.0226	7.88086	29.1097	-15.7077	20329	3.90039	-0.0013955	2.53555e+06	185842	1	11	0.00499433	0.000171569	0	-0.0244241	0.000173687	2.05553e-07	-128.368	0.00119808	-0.000743654	0.000939341	-15.7099	29.1092	28.0219	7.8818	0.0330699	0.00930033	0.0343528	15.7077	1.85842e+08	6.60814e+08	6.86449e+08	-74.2923	0.0000000E+000	0.0000000E+000	0.0000000E+000	74.2923	0.0000000E+000	0.0000000E+000	0.0000000E+000	-74.2923	0.0000000E+000	0.0000000E+000	0.0000000E+000	-15.7077	0.0000000E+000	0.0000000E+000	0.0000000E+000	15.7077	3.55578	74.2923	-0.0221917	-5.443e-06	-2.42381e-10	-5.44276e-06	3.90022	2.79498e+06	124.462	2.79485e+06
0.0019912	35.3031	10.7092	36.8917	-16.8752	20329	3.90039	-0.0013955	7.46359e+06	628936	1	11	0.00500586	0.000135691	0	-0.0244241	0.000173687	6.17716e-07	-66.8238	0.00455239	0.00179164	0.00418501	-16.8806	36.8946	35.3049	10.7134	0.0259391	0.00786866	0.0271064	16.8752	6.28936e+08	2.0733e+09	2.16659e+09	-73.1248	0.0000000E+000	0.0000000E+000	0.0000000E+000	73.1248	0.0000000E+000	0.0000000E+000	0.0000000E+000	-73.1248	0.0000000E+000	0.0000000E+000	0.0000000E+000	-16.8752	0.0000000E+000	0.0000000E+000	0.0000000E+000	16.8752	3.29651	73.1248	0.000000000000000E+000	-5.443e-06	-2.42381e-10	-5.44276e-06	3.90022	2.79498e+06	124.462	2.79485e+06
0.000497799	38.0775	21.5226	43.7392	-29.4765	20329.1	3.90039	-0.0013955	1.48549e+07	3.59683e+06	1	11	0.00501057	0.000114556	0	-0.0244241	0.000173687	1.66564e-06	111.752	0.0145401	-0.00538834	-0.0135048	-29.4646	43.7279	38.0721	21.5091	0.0199034	0.01125	0.0228628	29.4765	3.59683e+09	6.36345e+09	7.30963e+09	-60.5235	0.0000000E+000	0.0000000E+000	0.0000000E+000	60.5235	0.0000000E+000	0.0000000E+000	0.0000000E+000	-60.5235	0.0000000E+000	0.0000000E+000	0.0000000E+000	-29.4765	0.0000000E+000	0.0000000E+000	0.0000000E+000	29.4765	1.76918	60.5235	0.000000000000000E+000	-5.443e-06	-2.42381e-10	-5.44276e-06	3.90022	2.79498e+06	124.462	2.79485e+06
9.95598e-05	48.3756	105.842	116.373	-65.437	20329.1	3.90039	-0.0013955	1.51035e+07	1.24936e+07	1	11	0.00499742	4.29429e-05	0	-0.0244241	0.000173687	2.56757e-06	56.3239	0.0597902	0.0331535	-0.0497566	-65.412	116.342	48.4088	105.792	0.00357206	0.0078154	0.00859303	65.437	1.24936e+10	5.71025e+09	1.37367e+10	-24.563	0.0000000E+000	0.0000000E+000	0.0000000E+000	24.563	0.0000000E+000	0.0000000E+000	0.0000000E+000	-24.563	0.0000000E+000	0.0000000E+000	0.0000000E+000	-65.437	0.0000000E+000	0.0000000E+000	0.0000000E+000	65.437	0.457054	24.563	0.000000000000000E+000	-5.443e-06	-2.42381e-10	-5.44276e-06	3.90022	2.79498e+06	124.462	2.79485e+06