File: txt/19365_R311_UC99_SOC50_C04.mpt
EC-Lab ASCII FILE
Nb header lines : 65

Potentio Electrochemical Impedance Spectroscopy

Run on channel : 4 (SN 66756)
User :
CE vs. WE compliance from -10 V to 10 V
Electrode connection : standard
Potential control : Ewe
Ewe ctrl range : min = -10.00 V, max = 10.00 V
Safety Limits :
	Do not start on E overload
Acquisition started on : 11/19/2025 16:14:50.567
Technique started on : 11/19/2025 16:14:52.801
Loaded Setting File :  C:\Users\Celltest\OneDrive - store-dot.com\Documents\EC-Lab\Data\txt_done\19191_R297_UC94_SOC50_C08.mpr
Saved on :
	File : 19365_R311_UC99_SOC50_C04.mpr
	Directory : C:\Users\Celltest\OneDrive - store-dot.com\Documents\EC-Lab\Data\Gyutae\
	Host : 169.254.61.224
Device : VMP-3e (SN .003165)
Address : USB
EC-LAB for windows v11.62 (software)
Internet server v27.00 (firmware)
Command interpretor v12.03 (firmware)
Electrode material :
Initial state :
Electrolyte :
Comments :
Electrode surface area : 0.001 cm²
Characteristic mass : 0.001 g
Equivalent Weight : 0.000 g/eq.
Density : 0.000 g/cm3
Volume (V) : 0.001 cm³
Record Ece
Cycle Definition : Charge/Discharge alternance
Mode                Multi sine
E (V)               0.0000
vs.                 Eoc
tE (h:m:s)          0:00:0.0000
record              0
dI                  0.000
unit dI             mA
dt (s)              0.000
fi                  1.000
unit fi             MHz
ff                  0.100
unit ff             mHz
Nd                  10
Points              per decade
spacing             Logarithmic
Va (mV)             5.0
pw                  0.10
Na                  2
corr                0
E range min (V)     -10.000
E range max (V)     10.000
I Range             Auto
Bandwidth           5
nc cycles           0
goto Ns'            0
nr cycles           0
inc. cycle          0

freq/Hz	Re(Z)/Ohm	-Im(Z)/Ohm	|Z|/Ohm	Phase(Z)/deg	time/s	<Ewe>/V	<I>/mA	Cs/µF	Cp/µF	cycle number	I Range	|Ewe|/V	|I|/A	Ns	(Q-Qo)/mA.h	<Ece>/V	|Ece|/V	Phase(Zce)/deg	|Zce|/Ohm	Re(Zce)/Ohm	-Im(Zce)/Ohm	Phase(Zwe-ce)/deg	|Zwe-ce|/Ohm	Re(Zwe-ce)/Ohm	-Im(Zwe-ce)/Ohm	Re(Y)/Ohm-1	Im(Y)/Ohm-1	|Y|/Ohm-1	Phase(Y)/deg	Re(C)/nF	Im(C)/nF	|C|/nF	Phase(C)/deg	Re(M)	Im(M)	|M|	Phase(M)/deg	Re(Permittivity)	Im(Permittivity)	|Permittivity|	Phase(Permittivity)/deg	Re(Resistivity)/Ohm.cm	Im(Resistivity)/Ohm.cm	|Resistivity|/Ohm.cm	Phase(Resistivity)/deg	Re(Conductivity)/mS/cm	Im(Conductivity)/mS/cm	|Conductivity|/mS/cm	Phase(Conductivity)/deg	Tan(Delta)	Loss Angle(Delta)/deg	dq/mA.h	Pwe/W	Pce/W	Pwe-ce/W	<Ewe-Ece>/V	Rwe/Ohm	Rce/Ohm	Rwe-ce/Ohm		Ewe-Ece/V
1.00002e+06	4.17415	1.39344	4.40059	-18.4603	2.23354	3.90055	0.0235202	0.114215	0.0114519	1	10	0.000271168	6.16209e-05	0	3.91378e-06	1.33066e-05	0.000188226	-66.5744	3.05459	1.21437	2.80282	-37.9093	6.82969	5.38852	4.19626	0.215549	0.0719559	0.227242	18.4603	11.4519	34.3051	36.1661	-71.5397	0.0000000E+000	0.0000000E+000	0.0000000E+000	71.5397	0.0000000E+000	0.0000000E+000	0.0000000E+000	-71.5397	0.0000000E+000	0.0000000E+000	0.0000000E+000	-18.4603	0.0000000E+000	0.0000000E+000	0.0000000E+000	18.4603	2.99557	71.5397	3.91378e-06	9.17417e-05	3.12974e-10	9.17414e-05	3.90053	165838	0.565751	165837
251206	1.58096	0.21107	1.59499	-7.60443	5.05852	3.89918	-0.0400426	3.00167	0.0525654	1	9	0.00388324	0.00243465	0	-1.87728e-05	-0.000464442	4.34022e-05	72.143	0.0178269	0.00546648	-0.0169681	-6.97555	1.59826	1.58643	0.194102	0.621449	0.0829679	0.626963	7.60443	52.5654	393.727	397.22	-82.3956	0.0000000E+000	0.0000000E+000	0.0000000E+000	82.3956	0.0000000E+000	0.0000000E+000	0.0000000E+000	-82.3956	0.0000000E+000	0.0000000E+000	0.0000000E+000	-7.60443	0.0000000E+000	0.0000000E+000	0.0000000E+000	7.60443	7.49023	82.3956	-3.90023e-06	-0.000156133	1.85975e-08	-0.000156152	3.89965	97375.8	11.5987	97387.4
63093.8	1.93691	0.642872	2.04081	-18.3613	7.35652	3.8991	-0.036835	3.92382	0.38936	1	9	0.0052914	0.00259279	0	-4.9436e-05	-0.000235123	1.41529e-05	53.1811	0.00545857	0.00327125	-0.00436977	-18.216	2.04255	1.94018	0.638502	0.465055	0.154354	0.490001	18.3613	389.36	1173.11	1236.03	-71.6387	0.0000000E+000	0.0000000E+000	0.0000000E+000	71.6387	0.0000000E+000	0.0000000E+000	0.0000000E+000	-71.6387	0.0000000E+000	0.0000000E+000	0.0000000E+000	-18.3613	0.0000000E+000	0.0000000E+000	0.0000000E+000	18.3613	3.01291	71.6387	-9.11743e-06	-0.000143623	8.66076e-09	-0.000143632	3.89933	105853	6.38313	105859
15847.7	2.64104	1.16219	2.88544	-23.7519	9.65455	3.89908	-0.042467	8.64126	1.40187	1	9	0.00510047	0.00176766	0	-7.20907e-05	-0.000216013	4.28655e-06	-110.289	0.00242499	-0.000840864	0.00227454	-23.8	2.88559	2.6402	1.16446	0.317213	0.13959	0.346568	23.7519	1401.87	3185.7	3480.5	-66.2481	0.0000000E+000	0.0000000E+000	0.0000000E+000	66.2481	0.0000000E+000	0.0000000E+000	0.0000000E+000	-66.2481	0.0000000E+000	0.0000000E+000	0.0000000E+000	-23.7519	0.0000000E+000	0.0000000E+000	0.0000000E+000	23.7519	2.27247	66.2481	-4.11331e-06	-0.000165582	9.17341e-09	-0.000165591	3.8993	91814.5	5.08661	91819.6
3983.6	3.78234	1.9638	4.26176	-27.4385	11.6591	3.89907	-0.027087	20.3445	4.31981	1	10	0.0050424	0.00118317	0	-8.83947e-05	-0.000216013	9.5442e-06	-54.8283	0.0080666	0.0046466	0.00659388	-27.4883	4.26892	3.78698	1.9704	0.208249	0.108124	0.234645	27.4385	4319.81	8320.06	9374.66	-62.5615	0.0000000E+000	0.0000000E+000	0.0000000E+000	62.5615	0.0000000E+000	0.0000000E+000	0.0000000E+000	-62.5615	0.0000000E+000	0.0000000E+000	0.0000000E+000	-27.4385	0.0000000E+000	0.0000000E+000	0.0000000E+000	27.4385	1.92603	62.5615	-8.97088e-07	-0.000105614	5.85115e-09	-0.00010562	3.89929	143946	7.97477	143954
1000.32	5.65559	3.58093	6.69394	-32.3406	14.2878	3.89903	-0.018019	44.4309	12.7149	1	10	0.00473333	0.000707107	0	-0.000100992	-6.31332e-05	1.74065e-06	-50.7453	0.00246165	0.00155765	0.00190615	-32.3472	6.69627	5.65715	3.58283	0.126216	0.0799158	0.149389	32.3406	12714.9	20081.5	23768.4	-57.6594	0.0000000E+000	0.0000000E+000	0.0000000E+000	57.6594	0.0000000E+000	0.0000000E+000	0.0000000E+000	-57.6594	0.0000000E+000	0.0000000E+000	0.0000000E+000	-32.3406	0.0000000E+000	0.0000000E+000	0.0000000E+000	32.3406	1.57936	57.6594	-2.71661e-06	-7.02566e-05	1.1376e-09	-7.02577e-05	3.89909	216384	3.5037	216388
251.044	9.38797	7.03934	11.734	-36.8635	16.9881	3.89902	-0.0222378	90.0611	32.4124	1	10	0.00463235	0.000394781	0	-0.000113808	0.000127966	9.99438e-06	-0.591737	0.0253163	0.0253149	0.000261456	-36.7905	11.7544	9.41328	7.03961	0.0681837	0.0511259	0.0852226	36.8635	32412.4	43226.5	54028.7	-53.1365	0.0000000E+000	0.0000000E+000	0.0000000E+000	53.1365	0.0000000E+000	0.0000000E+000	0.0000000E+000	-53.1365	0.0000000E+000	0.0000000E+000	0.0000000E+000	-36.8635	0.0000000E+000	0.0000000E+000	0.0000000E+000	36.8635	1.33364	53.1365	-2.57922e-06	-8.67058e-05	-2.84569e-09	-8.6703e-05	3.89889	175333	5.75444	175327
63.0823	19.1253	11.5015	22.3173	-31.0216	19.96	3.89905	-0.0077554	219.361	58.2618	1	11	0.00462475	0.000207228	0	-0.000127751	-0.000311563	3.07177e-06	159.102	0.0148232	-0.0138481	-0.00528743	-31.0283	22.3027	19.1114	11.4962	0.0383996	0.0230925	0.0448084	31.0216	58261.8	96881.1	113050	-58.9784	0.0000000E+000	0.0000000E+000	0.0000000E+000	58.9784	0.0000000E+000	0.0000000E+000	0.0000000E+000	-58.9784	0.0000000E+000	0.0000000E+000	0.0000000E+000	-31.0216	0.0000000E+000	0.0000000E+000	0.0000000E+000	31.0216	1.66286	58.9784	-1.96516e-06	-3.02387e-05	2.41629e-09	-3.02411e-05	3.89937	502754	40.1737	502794
15.8576	30.9527	8.20923	32.0228	-14.8539	22.618	3.89905	-0.00812811	1222.59	80.3465	1	11	0.00461596	0.000144146	0	-0.000135696	-4.40233e-05	1.01262e-05	52.5005	0.0702496	0.0427647	-0.0557332	-14.738	32.0499	30.9955	8.1535	0.0301842	0.00800541	0.0312277	14.8539	80346.5	302944	313418	-75.1461	0.0000000E+000	0.0000000E+000	0.0000000E+000	75.1461	0.0000000E+000	0.0000000E+000	0.0000000E+000	-75.1461	0.0000000E+000	0.0000000E+000	0.0000000E+000	-14.8539	0.0000000E+000	0.0000000E+000	0.0000000E+000	14.8539	3.77047	75.1461	-1.71581e-06	-3.16919e-05	3.57826e-10	-3.16923e-05	3.8991	479700	5.41618	479706
3.97785	33.4009	2.79291	33.5175	-4.77983	25.5294	3.89907	-0.00645373	14325.6	99.4687	1	11	0.00461391	0.000137657	0	-0.000140783	-0.000235123	5.97314e-06	2.85167	0.0433915	0.0433378	-0.00215875	-4.77	33.5605	33.4442	2.79076	0.0297314	0.00248608	0.0298352	4.77983	99468.7	1.18956e+06	1.19371e+06	-85.2202	0.0000000E+000	0.0000000E+000	0.0000000E+000	85.2202	0.0000000E+000	0.0000000E+000	0.0000000E+000	-85.2202	0.0000000E+000	0.0000000E+000	0.0000000E+000	-4.77983	0.0000000E+000	0.0000000E+000	0.0000000E+000	4.77983	11.9592	85.2202	-3.99706e-07	-2.51635e-05	1.51742e-09	-2.5165e-05	3.8993	604157	36.4321	604193
1.00469	34.9346	1.51314	34.9673	-2.48013	241.255	3.89903	-0.00647177	104691	196.038	1	11	0.00506389	0.000144818	0	-0.00113971	-4.40233e-05	6.12217e-07	20.0376	0.0042275	0.0039716	-0.0014485	-2.47748	34.9712	34.9385	1.51169	0.0285713	0.00123753	0.0285981	2.48013	196038	4.52603e+06	4.53027e+06	-87.5199	0.0000000E+000	0.0000000E+000	0.0000000E+000	87.5199	0.0000000E+000	0.0000000E+000	0.0000000E+000	-87.5199	0.0000000E+000	0.0000000E+000	0.0000000E+000	-2.48013	0.0000000E+000	0.0000000E+000	0.0000000E+000	2.48013	23.0875	87.5199	-0.000990332	-2.52336e-05	2.84908e-10	-2.52339e-05	3.89907	602467	6.80235	602474
0.251173	35.8498	1.90903	35.9006	-3.04818	241.26	3.89903	-0.00647177	331919	938.55	1	11	0.00509122	0.000141815	0	-0.00113971	-4.40233e-05	4.7589e-07	-4.50441	0.00335572	0.00334536	0.000263545	-3.04831	35.9039	35.8531	1.9093	0.0278153	0.00148119	0.0278547	3.04818	938549	1.7625e+07	1.765e+07	-86.9518	0.0000000E+000	0.0000000E+000	0.0000000E+000	86.9518	0.0000000E+000	0.0000000E+000	0.0000000E+000	-86.9518	0.0000000E+000	0.0000000E+000	0.0000000E+000	-3.04818	0.0000000E+000	0.0000000E+000	0.0000000E+000	3.04818	18.779	86.9518	0.000000000000000E+000	-2.52336e-05	2.84908e-10	-2.52339e-05	3.89907	602467	6.80235	602474
0.0602816	37.1575	3.84802	37.3563	-5.91245	241.264	3.89903	-0.00647177	686117	7280.24	1	11	0.00508393	0.000136093	0	-0.00113971	-4.40233e-05	5.3283e-07	4.63621	0.00391519	0.00390238	-0.00031646	-5.91135	37.3601	37.1614	3.8477	0.0266269	0.00275747	0.0267693	5.91245	7.28023e+06	7.03e+07	7.0676e+07	-84.0876	0.0000000E+000	0.0000000E+000	0.0000000E+000	84.0876	0.0000000E+000	0.0000000E+000	0.0000000E+000	-84.0876	0.0000000E+000	0.0000000E+000	0.0000000E+000	-5.91245	0.0000000E+000	0.0000000E+000	0.0000000E+000	5.91245	9.65628	84.0876	0.000000000000000E+000	-2.52336e-05	2.84908e-10	-2.52339e-05	3.89907	602467	6.80235	602474
0.00796479	36.5094	9.77229	37.7946	-14.9848	20330.2	3.89904	-0.00169201	2.04479e+06	136704	1	11	0.00507488	0.000134275	0	-0.0175383	0.000127966	2.45271e-07	-34.1978	0.00182663	0.00151081	0.00102666	-14.9857	37.7963	36.5109	9.77332	0.0255591	0.00684127	0.0264588	14.9848	1.36704e+08	5.10729e+08	5.28708e+08	-75.0152	0.0000000E+000	0.0000000E+000	0.0000000E+000	75.0152	0.0000000E+000	0.0000000E+000	0.0000000E+000	-75.0152	0.0000000E+000	0.0000000E+000	0.0000000E+000	-14.9848	0.0000000E+000	0.0000000E+000	0.0000000E+000	14.9848	3.73601	75.0152	-0.0163986	-6.59721e-06	-2.1652e-10	-6.59699e-06	3.89891	2.30438e+06	75.6298	2.30431e+06
0.0019912	45.9371	14.4384	48.1527	-17.4484	20330.2	3.89904	-0.00169201	5.53587e+06	497719	1	11	0.00508988	0.000105703	0	-0.0175383	0.000127966	2.95996e-07	6.32499	0.00280027	0.00278322	-0.000308499	-17.447	48.1553	45.9399	14.4381	0.0198117	0.00622699	0.0207673	17.4484	4.97719e+08	1.58354e+09	1.65991e+09	-72.5516	0.0000000E+000	0.0000000E+000	0.0000000E+000	72.5516	0.0000000E+000	0.0000000E+000	0.0000000E+000	-72.5516	0.0000000E+000	0.0000000E+000	0.0000000E+000	-17.4484	0.0000000E+000	0.0000000E+000	0.0000000E+000	17.4484	3.18159	72.5516	0.000000000000000E+000	-6.59721e-06	-2.1652e-10	-6.59699e-06	3.89891	2.30438e+06	75.6298	2.30431e+06
0.000497799	48.6722	23.086	53.8697	-25.3757	20330.2	3.89904	-0.00169201	1.3849e+07	2.54346e+06	1	11	0.00508997	9.44867e-05	0	-0.0175383	0.000127966	2.12544e-06	-61.4911	0.0224946	0.0107366	0.019767	-25.3898	53.8878	48.6829	23.1057	0.0167723	0.00795535	0.0185633	25.3757	2.54346e+09	5.36239e+09	5.93501e+09	-64.6243	0.0000000E+000	0.0000000E+000	0.0000000E+000	64.6243	0.0000000E+000	0.0000000E+000	0.0000000E+000	-64.6243	0.0000000E+000	0.0000000E+000	0.0000000E+000	-25.3757	0.0000000E+000	0.0000000E+000	0.0000000E+000	25.3757	2.1083	64.6243	0.000000000000000E+000	-6.59721e-06	-2.1652e-10	-6.59699e-06	3.89891	2.30438e+06	75.6298	2.30431e+06
9.95598e-05	68.1708	113.037	132.003	-58.9066	20330.2	3.89904	-0.00169201	1.41421e+07	1.03703e+07	1	11	0.00508809	3.85454e-05	0	-0.0175383	0.000127966	4.76346e-06	-39.631	0.123581	0.0951778	0.0788247	-58.8889	132.119	68.2659	113.116	0.00391231	0.00648719	0.00757561	58.9066	1.03703e+10	6.25416e+09	1.21103e+10	-31.0934	0.0000000E+000	0.0000000E+000	0.0000000E+000	31.0934	0.0000000E+000	0.0000000E+000	0.0000000E+000	-31.0934	0.0000000E+000	0.0000000E+000	0.0000000E+000	-58.9066	0.0000000E+000	0.0000000E+000	0.0000000E+000	58.9066	0.603082	31.0934	0.000000000000000E+000	-6.59721e-06	-2.1652e-10	-6.59699e-06	3.89891	2.30438e+06	75.6298	2.30431e+06