File: txt/19496_R316_UA715_SOC00_C06.mpt
EC-Lab ASCII FILE
Nb header lines : 65

Potentio Electrochemical Impedance Spectroscopy

Run on channel : 6 (SN 65795)
User :
CE vs. WE compliance from -10 V to 10 V
Electrode connection : standard
Potential control : Ewe
Ewe ctrl range : min = -10.00 V, max = 10.00 V
Safety Limits :
	Do not start on E overload
Acquisition started on : 12/04/2025 13:10:34.416
Technique started on : 12/04/2025 13:10:36.328
Loaded Setting File :  C:\Users\Celltest\OneDrive - store-dot.com\Documents\EC-Lab\Data\Charmaine\19495_R316_UA628_SOC00_C05.mpr
Saved on :
	File : 19496_R316_UA715_SOC00_C06.mpr
	Directory : C:\Users\Celltest\OneDrive - store-dot.com\Documents\EC-Lab\Data\Charmaine\
	Host : 169.254.61.224
Device : VMP-3e (SN .003165)
Address : USB
EC-LAB for windows v11.62 (software)
Internet server v27.00 (firmware)
Command interpretor v12.03 (firmware)
Electrode material :
Initial state :
Electrolyte :
Comments :
Electrode surface area : 0.001 cm²
Characteristic mass : 0.001 g
Equivalent Weight : 0.000 g/eq.
Density : 0.000 g/cm3
Volume (V) : 0.001 cm³
Record Ece
Cycle Definition : Charge/Discharge alternance
Mode                Single sine
E (V)               0.0000
vs.                 Eoc
tE (h:m:s)          0:00:0.0000
record              0
dI                  0.000
unit dI             mA
dt (s)              0.000
fi                  100.000
unit fi             kHz
ff                  10.000
unit ff             mHz
Nd                  6
Points              per decade
spacing             Logarithmic
Va (mV)             5.0
pw                  0.10
Na                  2
corr                0
E range min (V)     -10.000
E range max (V)     10.000
I Range             Auto
Bandwidth           5
nc cycles           0
goto Ns'            0
nr cycles           0
inc. cycle          0

freq/Hz	Re(Z)/Ohm	-Im(Z)/Ohm	|Z|/Ohm	Phase(Z)/deg	time/s	<Ewe>/V	<I>/mA	Cs/µF	Cp/µF	cycle number	I Range	|Ewe|/V	|I|/A	Ns	(Q-Qo)/mA.h	<Ece>/V	|Ece|/V	Phase(Zce)/deg	|Zce|/Ohm	Re(Zce)/Ohm	-Im(Zce)/Ohm	Phase(Zwe-ce)/deg	|Zwe-ce|/Ohm	Re(Zwe-ce)/Ohm	-Im(Zwe-ce)/Ohm	Re(Y)/Ohm-1	Im(Y)/Ohm-1	|Y|/Ohm-1	Phase(Y)/deg	Re(C)/nF	Im(C)/nF	|C|/nF	Phase(C)/deg	Re(M)	Im(M)	|M|	Phase(M)/deg	Re(Permittivity)	Im(Permittivity)	|Permittivity|	Phase(Permittivity)/deg	Re(Resistivity)/Ohm.cm	Im(Resistivity)/Ohm.cm	|Resistivity|/Ohm.cm	Phase(Resistivity)/deg	Re(Conductivity)/mS/cm	Im(Conductivity)/mS/cm	|Conductivity|/mS/cm	Phase(Conductivity)/deg	Tan(Delta)	Loss Angle(Delta)/deg	dq/mA.h	Pwe/W	Pce/W	Pwe-ce/W	<Ewe-Ece>/V	Rwe/Ohm	Rce/Ohm	Rwe-ce/Ohm		Ewe-Ece/V
100004	1.17119	0.463841	1.2597	-21.6056	1.91152	0.277284	0.0311342	3.43111	0.465199	1	9	0.0045862	0.00364071	0	5.3458e-07	0.000469692	5.19832e-05	89.8588	0.0142783	3.51887e-05	-0.0142783	-20.9987	1.25455	1.17123	0.449562	0.738065	0.292304	0.79384	21.6056	465.199	1174.62	1263.39	-68.3944	0.0000000E+000	0.0000000E+000	0.0000000E+000	68.3944	0.0000000E+000	0.0000000E+000	0.0000000E+000	-68.3944	0.0000000E+000	0.0000000E+000	0.0000000E+000	-21.6056	0.0000000E+000	0.0000000E+000	0.0000000E+000	21.6056	2.52499	68.3944	5.3458e-07	8.63299e-06	1.46235e-08	8.61837e-06	0.276814	8906.09	15.0861	8891
31621.1	1.57307	0.641528	1.69885	-22.1866	3.43455	0.277265	0.0365726	7.84562	1.11879	1	9	0.0050964	0.00299991	0	4.22926e-05	0.000106829	1.55169e-05	64.4469	0.00517245	0.00223112	-0.00466651	-22.0125	1.69916	1.5753	0.636861	0.54505	0.222282	0.588633	22.1866	1118.79	2743.33	2962.7	-67.8134	0.0000000E+000	0.0000000E+000	0.0000000E+000	67.8134	0.0000000E+000	0.0000000E+000	0.0000000E+000	-67.8134	0.0000000E+000	0.0000000E+000	0.0000000E+000	-22.1866	0.0000000E+000	0.0000000E+000	0.0000000E+000	22.1866	2.45206	67.8134	1.67337e-05	1.01403e-05	3.90702e-09	1.01364e-05	0.277158	7581.2	2.92101	7578.28
10002.2	2.06996	0.879562	2.24908	-23.0215	4.33556	0.277265	0.0407446	18.0908	2.76682	1	9	0.0048667	0.00216386	0	4.39857e-05	0.000202319	1.2284e-05	67.9985	0.0056769	0.00212674	-0.00526347	-22.8769	2.24898	2.07208	0.874298	0.409216	0.173883	0.444627	23.0215	2766.82	6511.42	7074.88	-66.9785	0.0000000E+000	0.0000000E+000	0.0000000E+000	66.9785	0.0000000E+000	0.0000000E+000	0.0000000E+000	-66.9785	0.0000000E+000	0.0000000E+000	0.0000000E+000	-23.0215	0.0000000E+000	0.0000000E+000	0.0000000E+000	23.0215	2.3534	66.9785	3.41657e-06	1.1297e-05	8.24341e-09	1.12888e-05	0.277063	6804.95	4.96555	6799.98
3163.08	2.73229	1.25385	3.00625	-24.6504	5.41161	0.277013	-0.0301421	40.1297	6.98078	1	9	0.00482528	0.00160508	0	4.44647e-05	0.0003933	6.76294e-06	25.1477	0.00421345	0.00381408	-0.00179052	-24.5891	3.00897	2.7361	1.25206	0.302327	0.138738	0.33264	24.6504	6980.78	15212	16737.3	-65.3496	0.0000000E+000	0.0000000E+000	0.0000000E+000	65.3496	0.0000000E+000	0.0000000E+000	0.0000000E+000	-65.3496	0.0000000E+000	0.0000000E+000	0.0000000E+000	-24.6504	0.0000000E+000	0.0000000E+000	0.0000000E+000	24.6504	2.17913	65.3496	-2.55364e-06	-8.34976e-06	-1.18549e-08	-8.3379e-06	0.27662	9190.26	13.0482	9177.21
1000.32	3.58467	2.01034	4.10991	-29.2844	7.01082	0.277154	-0.0142175	79.1428	18.9359	1	10	0.00481747	0.00117216	0	5.53779e-05	0.000183221	9.16441e-06	60.7904	0.00781839	0.00381542	-0.00682421	-29.1754	4.10991	3.58849	2.00352	0.212219	0.119016	0.243314	29.2844	18935.9	33764.9	38712.3	-60.7156	0.0000000E+000	0.0000000E+000	0.0000000E+000	60.7156	0.0000000E+000	0.0000000E+000	0.0000000E+000	-60.7156	0.0000000E+000	0.0000000E+000	0.0000000E+000	-29.2844	0.0000000E+000	0.0000000E+000	0.0000000E+000	29.2844	1.78312	60.7156	-6.42458e-07	-3.94044e-06	-2.60494e-09	-3.93783e-06	0.276971	19493.9	12.887	19481
316.316	4.8723	3.95203	6.27358	-39.0463	8.36007	0.277175	-0.0146237	127.315	50.5229	1	10	0.00471837	0.000752101	0	5.00554e-05	0.000145025	7.0098e-06	13.8226	0.0093203	0.00905038	-0.00222677	-38.9785	6.27921	4.88135	3.9498	0.123795	0.100413	0.159399	39.0463	50522.9	62287.6	80201.7	-50.9537	0.0000000E+000	0.0000000E+000	0.0000000E+000	50.9537	0.0000000E+000	0.0000000E+000	0.0000000E+000	-50.9537	0.0000000E+000	0.0000000E+000	0.0000000E+000	-39.0463	0.0000000E+000	0.0000000E+000	0.0000000E+000	39.0463	1.23286	50.9537	-1.01718e-06	-4.05332e-06	-2.1208e-09	-4.0512e-06	0.27703	18953.9	9.91714	18943.9
100.032	8.73057	8.10559	11.9132	-42.8741	9.70786	0.277136	-0.0142995	196.289	90.8681	1	10	0.00469182	0.000393835	0	4.49844e-05	0.000164123	6.63643e-06	56.4712	0.0168508	0.00930762	-0.014047	-42.7941	11.9104	8.73988	8.09154	0.0615161	0.0571124	0.0839408	42.8741	90868.1	97874.5	133553	-47.1259	0.0000000E+000	0.0000000E+000	0.0000000E+000	47.1259	0.0000000E+000	0.0000000E+000	0.0000000E+000	-47.1259	0.0000000E+000	0.0000000E+000	0.0000000E+000	-42.8741	0.0000000E+000	0.0000000E+000	0.0000000E+000	42.8741	1.07711	47.1259	-1.24957e-06	-3.9629e-06	-2.34687e-09	-3.96055e-06	0.276972	19380.8	11.4776	19369.4
31.6296	18.2216	10.6484	21.1049	-30.3014	11.2715	0.277191	-0.00625666	472.543	120.295	1	11	0.00468961	0.000222205	0	3.9678e-05	-7.75924e-06	9.47773e-06	-44.7168	0.042653	0.030309	0.0300108	-30.3302	21.1462	18.2519	10.6784	0.0409092	0.0239067	0.0473824	30.3014	120295	205849	238421	-59.6986	0.0000000E+000	0.0000000E+000	0.0000000E+000	59.6986	0.0000000E+000	0.0000000E+000	0.0000000E+000	-59.6986	0.0000000E+000	0.0000000E+000	0.0000000E+000	-30.3014	0.0000000E+000	0.0000000E+000	0.0000000E+000	30.3014	1.7112	59.6986	-1.94672e-06	-1.73429e-06	4.8547e-11	-1.73434e-06	0.277198	44303.3	1.24016	44304.5
10.0032	26.2126	7.08695	27.1538	-15.129	12.6039	0.277183	-0.00599627	2245.03	152.926	1	11	0.00468949	0.000172701	0	3.82289e-05	0.000469692	1.60799e-05	34.8106	0.0931082	0.0764459	-0.0531523	-14.979	27.2138	26.2891	7.0338	0.0355509	0.00961168	0.0368273	15.129	152926	565629	585937	-74.871	0.0000000E+000	0.0000000E+000	0.0000000E+000	74.871	0.0000000E+000	0.0000000E+000	0.0000000E+000	-74.871	0.0000000E+000	0.0000000E+000	0.0000000E+000	-15.129	0.0000000E+000	0.0000000E+000	0.0000000E+000	15.129	3.69872	74.871	6.87089e-07	-1.66207e-06	-2.8164e-09	-1.65925e-06	0.276714	46226	78.3306	46147.6
3.1604	29.3256	3.82711	29.5742	-7.43531	14.1215	0.27718	-0.00552939	13158.6	220.354	1	11	0.0046836	0.000158368	0	3.64387e-05	0.000221417	7.81266e-06	-4.33809	0.0493325	0.0491911	0.00373159	-7.43015	29.6235	29.3748	3.83084	0.0335289	0.00437566	0.0338132	7.43531	220354	1.68849e+06	1.7028e+06	-82.5647	0.0000000E+000	0.0000000E+000	0.0000000E+000	82.5647	0.0000000E+000	0.0000000E+000	0.0000000E+000	-82.5647	0.0000000E+000	0.0000000E+000	0.0000000E+000	-7.43531	0.0000000E+000	0.0000000E+000	0.0000000E+000	7.43531	7.6626	82.5647	1.09254e-06	-1.53263e-06	-1.2243e-09	-1.53141e-06	0.276958	50128.5	40.0437	50088.4
1.00006	30.8744	2.54832	30.9794	-4.7184	19.7589	0.277197	-0.00363493	62450.9	422.571	1	12	0.00468489	0.000151226	0	2.61852e-05	0.000355103	2.23115e-06	-26.8345	0.0147537	0.013165	0.00666005	-4.72866	30.9931	30.8876	2.55498	0.0321701	0.00265526	0.0322795	4.7184	422572	5.11971e+06	5.13712e+06	-85.2816	0.0000000E+000	0.0000000E+000	0.0000000E+000	85.2816	0.0000000E+000	0.0000000E+000	0.0000000E+000	-85.2816	0.0000000E+000	0.0000000E+000	0.0000000E+000	-4.7184	0.0000000E+000	0.0000000E+000	0.0000000E+000	4.7184	12.1156	85.2816	-8.02842e-06	-1.00759e-06	-1.29078e-09	-1.0063e-06	0.276842	76259.2	97.6919	76161.5
0.316193	32.1012	2.61433	32.2075	-4.65591	34.1028	0.277189	-0.00392362	192534	1268.57	1	12	0.00468391	0.000145429	0	1.0646e-05	0.000202319	2.52185e-06	-36.8844	0.0173408	0.01387	0.010408	-4.67235	32.2222	32.1151	2.62474	0.0309462	0.00252027	0.0310487	4.65591	1.26857e+06	1.55767e+07	1.56283e+07	-85.3441	0.0000000E+000	0.0000000E+000	0.0000000E+000	85.3441	0.0000000E+000	0.0000000E+000	0.0000000E+000	-85.3441	0.0000000E+000	0.0000000E+000	0.0000000E+000	-4.65591	0.0000000E+000	0.0000000E+000	0.0000000E+000	4.65591	12.2789	85.3441	-2.6665e-07	-1.08758e-06	-7.93823e-10	-1.08679e-06	0.276986	70646.2	51.5644	70594.6
0.0999041	33.6393	4.05437	33.8828	-6.87241	79.3107	0.277183	-0.00119807	392929	5626.04	1	12	0.00468818	0.000138365	0	4.29289e-05	0.000374201	2.04392e-06	29.8486	0.014772	0.0128124	-0.00735215	-6.85748	33.8946	33.6521	4.04702	0.0293015	0.00353155	0.0295135	6.87241	5.62603e+06	4.66795e+07	4.70173e+07	-83.1276	0.0000000E+000	0.0000000E+000	0.0000000E+000	83.1276	0.0000000E+000	0.0000000E+000	0.0000000E+000	-83.1276	0.0000000E+000	0.0000000E+000	0.0000000E+000	-6.87241	0.0000000E+000	0.0000000E+000	0.0000000E+000	6.87241	8.29706	83.1276	9.96001e-06	-3.32086e-07	-4.48321e-10	-3.31638e-07	0.276809	231357	312.336	231045
0.0315922	36.0336	8.12568	36.9384	-12.7078	222.194	0.277178	8.77046e-05	619984	30001.5	1	12	0.00468532	0.000126841	0	-0.000127406	1.13388e-05	2.32525e-06	20.6446	0.0183319	0.0171547	-0.00646329	-12.6922	36.9537	36.0507	8.11921	0.026409	0.00595529	0.0270721	12.7078	3.00015e+07	1.33043e+08	1.36384e+08	-77.2922	0.0000000E+000	0.0000000E+000	0.0000000E+000	77.2922	0.0000000E+000	0.0000000E+000	0.0000000E+000	-77.2922	0.0000000E+000	0.0000000E+000	0.0000000E+000	-12.7078	0.0000000E+000	0.0000000E+000	0.0000000E+000	12.7078	4.43453	77.2922	-0.000111288	2.43098e-08	9.94465e-13	2.43088e-08	0.277167	3.16036e+06	129.284	3.16023e+06
0.0100092	40.9537	18.465	44.9239	-24.2694	673.416	0.277177	-0.000634344	861138	145484	1	12	0.00468222	0.000104225	0	-0.000268194	6.86329e-05	1.55097e-06	70.3207	0.0148809	0.00501122	-0.0140117	-24.2505	44.9228	40.9587	18.451	0.0202926	0.00914942	0.0222598	24.2694	1.45484e+08	3.22671e+08	3.53952e+08	-65.7306	0.0000000E+000	0.0000000E+000	0.0000000E+000	65.7306	0.0000000E+000	0.0000000E+000	0.0000000E+000	-65.7306	0.0000000E+000	0.0000000E+000	0.0000000E+000	-24.2694	0.0000000E+000	0.0000000E+000	0.0000000E+000	24.2694	2.21791	65.7306	9.52486e-05	-1.75825e-07	-4.35368e-11	-1.75782e-07	0.277108	436951	108.195	436842