File: txt/19493_R316_UA628_SOC00_C03.mpt
EC-Lab ASCII FILE
Nb header lines : 65

Potentio Electrochemical Impedance Spectroscopy

Run on channel : 3 (SN 65921)
User :
CE vs. WE compliance from -10 V to 10 V
Electrode connection : standard
Potential control : Ewe
Ewe ctrl range : min = -10.00 V, max = 10.00 V
Safety Limits :
	Do not start on E overload
Acquisition started on : 12/04/2025 13:09:42.578
Technique started on : 12/04/2025 13:09:44.172
Loaded Setting File :  C:\Users\Celltest\OneDrive - store-dot.com\Documents\EC-Lab\Data\@Biologic Test Protocols\anode half cell EIS SOC00.mps
Saved on :
	File : 19493_R316_UA628_SOC00_C03.mpr
	Directory : C:\Users\Celltest\OneDrive - store-dot.com\Documents\EC-Lab\Data\Charmaine\
	Host : 169.254.61.224
Device : VMP-3e (SN .003165)
Address : USB
EC-LAB for windows v11.62 (software)
Internet server v27.00 (firmware)
Command interpretor v12.03 (firmware)
Electrode material :
Initial state :
Electrolyte :
Comments :
Electrode surface area : 0.001 cm²
Characteristic mass : 0.001 g
Equivalent Weight : 0.000 g/eq.
Density : 0.000 g/cm3
Volume (V) : 0.001 cm³
Record Ece
Cycle Definition : Charge/Discharge alternance
Mode                Single sine
E (V)               0.0000
vs.                 Eoc
tE (h:m:s)          0:00:0.0000
record              0
dI                  0.000
unit dI             mA
dt (s)              0.000
fi                  100.000
unit fi             kHz
ff                  10.000
unit ff             mHz
Nd                  6
Points              per decade
spacing             Logarithmic
Va (mV)             5.0
pw                  0.10
Na                  2
corr                0
E range min (V)     -10.000
E range max (V)     10.000
I Range             Auto
Bandwidth           5
nc cycles           0
goto Ns'            0
nr cycles           0
inc. cycle          0

freq/Hz	Re(Z)/Ohm	-Im(Z)/Ohm	|Z|/Ohm	Phase(Z)/deg	time/s	<Ewe>/V	<I>/mA	Cs/µF	Cp/µF	cycle number	I Range	|Ewe|/V	|I|/A	Ns	(Q-Qo)/mA.h	<Ece>/V	|Ece|/V	Phase(Zce)/deg	|Zce|/Ohm	Re(Zce)/Ohm	-Im(Zce)/Ohm	Phase(Zwe-ce)/deg	|Zwe-ce|/Ohm	Re(Zwe-ce)/Ohm	-Im(Zwe-ce)/Ohm	Re(Y)/Ohm-1	Im(Y)/Ohm-1	|Y|/Ohm-1	Phase(Y)/deg	Re(C)/nF	Im(C)/nF	|C|/nF	Phase(C)/deg	Re(M)	Im(M)	|M|	Phase(M)/deg	Re(Permittivity)	Im(Permittivity)	|Permittivity|	Phase(Permittivity)/deg	Re(Resistivity)/Ohm.cm	Im(Resistivity)/Ohm.cm	|Resistivity|/Ohm.cm	Phase(Resistivity)/deg	Re(Conductivity)/mS/cm	Im(Conductivity)/mS/cm	|Conductivity|/mS/cm	Phase(Conductivity)/deg	Tan(Delta)	Loss Angle(Delta)/deg	dq/mA.h	Pwe/W	Pce/W	Pwe-ce/W	<Ewe-Ece>/V	Rwe/Ohm	Rce/Ohm	Rwe-ce/Ohm		Ewe-Ece/V
100004	1.1541	0.363735	1.21006	-17.4932	1.59355	0.218901	0.0407182	4.37542	0.395344	1	9	0.00490773	0.00405577	0	-2.63863e-07	-0.000131353	3.49255e-05	48.6931	0.0086113	0.00568425	-0.00646867	-17.1212	1.21356	1.15978	0.357266	0.788187	0.248411	0.826406	17.4932	395.344	1254.39	1315.22	-72.5068	0.0000000E+000	0.0000000E+000	0.0000000E+000	72.5068	0.0000000E+000	0.0000000E+000	0.0000000E+000	-72.5068	0.0000000E+000	0.0000000E+000	0.0000000E+000	-17.4932	0.0000000E+000	0.0000000E+000	0.0000000E+000	17.4932	3.17291	72.5068	-2.63863e-07	8.91325e-06	-5.34846e-09	8.9186e-06	0.219032	5376	3.2259	5379.22
31621.1	1.51274	0.663967	1.65204	-23.6975	3.11653	0.218879	0.0363921	7.58047	1.22447	1	9	0.00506477	0.00306578	0	-1.47338e-06	0.000135964	1.23563e-05	33.3599	0.00403039	0.00336631	-0.0022163	-23.5804	1.65423	1.5161	0.66175	0.554274	0.24328	0.605314	23.6975	1224.47	2789.76	3046.65	-66.3025	0.0000000E+000	0.0000000E+000	0.0000000E+000	66.3025	0.0000000E+000	0.0000000E+000	0.0000000E+000	-66.3025	0.0000000E+000	0.0000000E+000	0.0000000E+000	-23.6975	0.0000000E+000	0.0000000E+000	0.0000000E+000	23.6975	2.27833	66.3025	-2.70514e-06	7.96547e-06	4.94802e-09	7.96052e-06	0.218743	6014.45	3.73608	6010.71
10002.2	2.06302	0.974713	2.28169	-25.2893	4.51557	0.218867	0.0415759	16.3248	2.97911	1	9	0.00549599	0.00240874	0	5.29142e-06	-9.31649e-05	7.63469e-06	-24.764	0.00316958	0.00287811	0.00132768	-25.2886	2.28486	2.0659	0.97604	0.396269	0.187225	0.438272	25.2893	2979.11	6305.41	6973.76	-64.7107	0.0000000E+000	0.0000000E+000	0.0000000E+000	64.7107	0.0000000E+000	0.0000000E+000	0.0000000E+000	-64.7107	0.0000000E+000	0.0000000E+000	0.0000000E+000	-25.2893	0.0000000E+000	0.0000000E+000	0.0000000E+000	25.2893	2.11654	64.7107	2.24636e-07	9.09959e-06	-3.87342e-09	9.10347e-06	0.21896	5264.27	2.24084	5266.51
3163.08	2.84451	1.41926	3.17892	-26.5168	5.84265	0.218855	0.0275908	35.4525	7.06664	1	9	0.00521308	0.00163989	0	2.31905e-05	-0.000150447	3.79819e-06	-3.82815	0.00231613	0.00231096	0.000154634	-26.5007	3.18106	2.84682	1.41942	0.28148	0.140444	0.314572	26.5168	7066.64	14163.1	15828.1	-63.4832	0.0000000E+000	0.0000000E+000	0.0000000E+000	63.4832	0.0000000E+000	0.0000000E+000	0.0000000E+000	-63.4832	0.0000000E+000	0.0000000E+000	0.0000000E+000	-26.5168	0.0000000E+000	0.0000000E+000	0.0000000E+000	26.5168	2.00422	63.4832	2.61441e-06	6.03837e-06	-4.15096e-09	6.04252e-06	0.219005	7932.15	5.4528	7937.61
1000.32	3.84631	2.13068	4.39703	-28.9844	7.65578	0.21888	-0.00697736	74.6729	17.534	1	10	0.00502618	0.00114309	0	2.9537e-05	-9.31649e-05	7.85933e-06	-28.2401	0.00687554	0.00605716	0.00325329	-28.9833	4.40391	3.85237	2.13393	0.198941	0.110204	0.227426	28.9844	17534	31652.4	36184.4	-61.0156	0.0000000E+000	0.0000000E+000	0.0000000E+000	61.0156	0.0000000E+000	0.0000000E+000	0.0000000E+000	-61.0156	0.0000000E+000	0.0000000E+000	0.0000000E+000	-28.9844	0.0000000E+000	0.0000000E+000	0.0000000E+000	28.9844	1.8052	61.0156	-1.82767e-06	-1.5272e-06	6.50044e-10	-1.52785e-06	0.218973	31370	13.3525	31383.4
316.316	5.42282	3.73067	6.58216	-34.5263	9.00608	0.218876	-0.00677228	134.869	43.326	1	10	0.00473959	0.000720065	0	2.7149e-05	7.86817e-05	5.28048e-06	85.2434	0.00733333	0.000608096	-0.00730808	-34.4708	6.57853	5.42343	3.72336	0.125166	0.0861091	0.151926	34.5263	43326	62977.8	76441.7	-55.4737	0.0000000E+000	0.0000000E+000	0.0000000E+000	55.4737	0.0000000E+000	0.0000000E+000	0.0000000E+000	-55.4737	0.0000000E+000	0.0000000E+000	0.0000000E+000	-34.5263	0.0000000E+000	0.0000000E+000	0.0000000E+000	34.5263	1.45358	55.4737	-7.72827e-07	-1.48229e-06	-5.32855e-10	-1.48176e-06	0.218797	32319.3	11.6182	32307.7
100.032	8.98594	6.75444	11.2414	-36.931	10.3539	0.218888	-0.00601533	235.555	85.041	1	10	0.00463504	0.000412318	0	2.4064e-05	0.00011687	6.7929e-06	-156.306	0.0164749	-0.0150862	0.00662041	-37.0043	11.2333	8.97085	6.76106	0.0711084	0.0534499	0.0889567	36.931	85041	113136	141534	-53.069	0.0000000E+000	0.0000000E+000	0.0000000E+000	53.069	0.0000000E+000	0.0000000E+000	0.0000000E+000	-53.069	0.0000000E+000	0.0000000E+000	0.0000000E+000	-36.931	0.0000000E+000	0.0000000E+000	0.0000000E+000	36.931	1.33037	53.069	-3.88085e-07	-1.31668e-06	-7.0301e-10	-1.31598e-06	0.218771	36388.4	19.4287	36369
31.6296	16.4852	8.09247	18.3644	-26.146	11.9166	0.21888	-0.0102314	621.793	120.741	1	11	0.00460772	0.000250905	0	2.09799e-05	-0.000169541	1.29181e-05	-14.7734	0.0514859	0.0497839	0.0131287	-26.1145	18.4149	16.535	8.1056	0.0488812	0.0239954	0.0544532	26.146	120741	245962	274000	-63.854	0.0000000E+000	0.0000000E+000	0.0000000E+000	63.854	0.0000000E+000	0.0000000E+000	0.0000000E+000	-63.854	0.0000000E+000	0.0000000E+000	0.0000000E+000	-26.146	0.0000000E+000	0.0000000E+000	0.0000000E+000	26.146	2.03711	63.854	-1.75938e-06	-2.23945e-06	1.73464e-09	-2.24118e-06	0.21905	21393.1	16.5707	21409.6
10.0032	22.1793	4.83405	22.7	-12.2955	13.2498	0.218881	-0.00958737	3291.32	149.259	1	11	0.00461345	0.000203236	0	1.62316e-05	-9.31649e-05	4.80474e-06	27.6451	0.0236412	0.0209423	-0.0109694	-12.2572	22.7181	22.2002	4.82308	0.0430425	0.00938124	0.0440529	12.2955	149259	684823	700900	-77.7045	0.0000000E+000	0.0000000E+000	0.0000000E+000	77.7045	0.0000000E+000	0.0000000E+000	0.0000000E+000	-77.7045	0.0000000E+000	0.0000000E+000	0.0000000E+000	-12.2955	0.0000000E+000	0.0000000E+000	0.0000000E+000	12.2955	4.58814	77.7045	-1.49535e-06	-2.09849e-06	8.93206e-10	-2.09938e-06	0.218974	22830.1	9.71746	22839.8
3.1604	24.0166	2.31926	24.1284	-5.51589	14.7665	0.218876	-0.00887625	21713.4	200.619	1	11	0.00461152	0.000191125	0	1.44692e-05	2.13995e-05	7.27267e-06	-8.24043	0.038052	0.0376591	0.00545389	-5.52018	24.1664	24.0543	2.32472	0.0412531	0.00398377	0.041445	5.51589	200619	2.07747e+06	2.08714e+06	-84.4841	0.0000000E+000	0.0000000E+000	0.0000000E+000	84.4841	0.0000000E+000	0.0000000E+000	0.0000000E+000	-84.4841	0.0000000E+000	0.0000000E+000	0.0000000E+000	-5.51589	0.0000000E+000	0.0000000E+000	0.0000000E+000	5.51589	10.3553	84.4841	-1.22634e-06	-1.9428e-06	-1.89948e-10	-1.94261e-06	0.218855	24658.6	2.41088	24656.2
1.00006	24.792	1.45432	24.8346	-3.35718	20.407	0.21888	-0.00829213	109429	375.266	1	12	0.00461182	0.000185701	0	-6.70539e-06	-5.49767e-05	3.15719e-06	-11.2737	0.0170014	0.0166734	0.0033237	-3.36258	24.8514	24.8086	1.45765	0.0401973	0.00235802	0.0402664	3.35718	375266	6.3972e+06	6.40819e+06	-86.6428	0.0000000E+000	0.0000000E+000	0.0000000E+000	86.6428	0.0000000E+000	0.0000000E+000	0.0000000E+000	-86.6428	0.0000000E+000	0.0000000E+000	0.0000000E+000	-3.35718	0.0000000E+000	0.0000000E+000	0.0000000E+000	3.35718	17.0471	86.6428	-8.7424e-06	-1.81498e-06	4.55874e-10	-1.81544e-06	0.218935	26396.2	6.62999	26402.8
0.316193	25.3892	1.53187	25.4354	-3.45277	34.7491	0.218885	-0.00646798	328584	1191.82	1	12	0.00461441	0.000181417	0	-5.97449e-06	2.13995e-05	1.49019e-06	-43.8209	0.00821416	0.00592658	0.00568753	-3.46476	25.4417	25.3952	1.53756	0.0392439	0.0023678	0.0393153	3.45277	1.19182e+06	1.97533e+07	1.97892e+07	-86.5472	0.0000000E+000	0.0000000E+000	0.0000000E+000	86.5472	0.0000000E+000	0.0000000E+000	0.0000000E+000	-86.5472	0.0000000E+000	0.0000000E+000	0.0000000E+000	-3.45277	0.0000000E+000	0.0000000E+000	0.0000000E+000	3.45277	16.574	86.5472	8.8493e-07	-1.41575e-06	-1.38412e-10	-1.41561e-06	0.218864	33841.4	3.30853	33838
0.0999041	26.2701	2.77487	26.4162	-6.02972	79.9569	0.218885	-0.00318109	574108	6334.88	1	12	0.00461295	0.000174626	0	-0.000110722	9.77758e-05	1.74587e-06	10.5835	0.00999776	0.00982769	-0.00183627	-6.02352	26.4258	26.2799	2.77304	0.0376461	0.00397651	0.0378555	6.02972	6.33488e+06	5.99731e+07	6.03068e+07	-83.9703	0.0000000E+000	0.0000000E+000	0.0000000E+000	83.9703	0.0000000E+000	0.0000000E+000	0.0000000E+000	-83.9703	0.0000000E+000	0.0000000E+000	0.0000000E+000	-6.02972	0.0000000E+000	0.0000000E+000	0.0000000E+000	6.02972	9.46713	83.9703	-6.40725e-05	-6.96294e-07	-3.11033e-10	-6.95983e-07	0.218788	68808.4	30.7366	68777.6
0.0315922	28.3856	5.94021	29.0005	-11.8196	222.84	0.218885	-0.00288553	848083	35582.1	1	12	0.00461081	0.000158991	0	-0.000370163	2.30547e-06	2.46844e-06	4.20372	0.0155257	0.0154839	-0.00113808	-11.8112	29.0154	28.4011	5.93907	0.0337511	0.00706303	0.0344822	11.8196	3.55821e+07	1.70031e+08	1.73714e+08	-78.1804	0.0000000E+000	0.0000000E+000	0.0000000E+000	78.1804	0.0000000E+000	0.0000000E+000	0.0000000E+000	-78.1804	0.0000000E+000	0.0000000E+000	0.0000000E+000	-11.8196	0.0000000E+000	0.0000000E+000	0.0000000E+000	11.8196	4.77855	78.1804	-6.00375e-05	-6.316e-07	-6.65251e-12	-6.31593e-07	0.218883	75856.1	0.798976	75855.3
0.0100092	32.9142	12.3184	35.1438	-20.5188	674.059	0.218882	0.000214295	1.29082e+06	158591	1	12	0.00461387	0.000131285	0	0.000258145	0.00021234	8.08005e-07	-20.1485	0.00615458	0.00577793	0.00211998	-20.5187	35.15	32.92	12.3205	0.0266493	0.0099737	0.0284545	20.5188	1.58591e+08	4.23748e+08	4.52452e+08	-69.4812	0.0000000E+000	0.0000000E+000	0.0000000E+000	69.4812	0.0000000E+000	0.0000000E+000	0.0000000E+000	-69.4812	0.0000000E+000	0.0000000E+000	0.0000000E+000	-20.5188	0.0000000E+000	0.0000000E+000	0.0000000E+000	20.5188	2.67195	69.4812	0.000334232	4.69053e-08	4.55035e-11	4.68598e-08	0.21867	1.0214e+06	990.877	1.02041e+06