File: txt/19498_R316_UA715_SOC00_C08.mpt
EC-Lab ASCII FILE
Nb header lines : 65

Potentio Electrochemical Impedance Spectroscopy

Run on channel : 8 (SN 65398)
User :
CE vs. WE compliance from -10 V to 10 V
Electrode connection : standard
Potential control : Ewe
Ewe ctrl range : min = -10.00 V, max = 10.00 V
Safety Limits :
	Do not start on E overload
Acquisition started on : 12/04/2025 13:10:46.563
Technique started on : 12/04/2025 13:10:48.433
Loaded Setting File :  NONE
Saved on :
	File : 19498_R316_UA715_SOC00_C08.mpr
	Directory : C:\Users\Celltest\OneDrive - store-dot.com\Documents\EC-Lab\Data\Charmaine\
	Host : 169.254.61.224
Device : VMP-3e (SN .003165)
Address : USB
EC-LAB for windows v11.62 (software)
Internet server v27.00 (firmware)
Command interpretor v12.03 (firmware)
Electrode material :
Initial state :
Electrolyte :
Comments :
Electrode surface area : 0.001 cm²
Characteristic mass : 0.001 g
Equivalent Weight : 0.000 g/eq.
Density : 0.000 g/cm3
Volume (V) : 0.001 cm³
Record Ece
Cycle Definition : Charge/Discharge alternance
Mode                Single sine
E (V)               0.0000
vs.                 Eoc
tE (h:m:s)          0:00:0.0000
record              0
dI                  0.000
unit dI             mA
dt (s)              0.000
fi                  100.000
unit fi             kHz
ff                  10.000
unit ff             mHz
Nd                  6
Points              per decade
spacing             Logarithmic
Va (mV)             5.0
pw                  0.10
Na                  2
corr                0
E range min (V)     -10.000
E range max (V)     10.000
I Range             Auto
Bandwidth           5
nc cycles           0
goto Ns'            0
nr cycles           0
inc. cycle          0

freq/Hz	Re(Z)/Ohm	-Im(Z)/Ohm	|Z|/Ohm	Phase(Z)/deg	time/s	<Ewe>/V	<I>/mA	Cs/µF	Cp/µF	cycle number	I Range	|Ewe|/V	|I|/A	Ns	(Q-Qo)/mA.h	<Ece>/V	|Ece|/V	Phase(Zce)/deg	|Zce|/Ohm	Re(Zce)/Ohm	-Im(Zce)/Ohm	Phase(Zwe-ce)/deg	|Zwe-ce|/Ohm	Re(Zwe-ce)/Ohm	-Im(Zwe-ce)/Ohm	Re(Y)/Ohm-1	Im(Y)/Ohm-1	|Y|/Ohm-1	Phase(Y)/deg	Re(C)/nF	Im(C)/nF	|C|/nF	Phase(C)/deg	Re(M)	Im(M)	|M|	Phase(M)/deg	Re(Permittivity)	Im(Permittivity)	|Permittivity|	Phase(Permittivity)/deg	Re(Resistivity)/Ohm.cm	Im(Resistivity)/Ohm.cm	|Resistivity|/Ohm.cm	Phase(Resistivity)/deg	Re(Conductivity)/mS/cm	Im(Conductivity)/mS/cm	|Conductivity|/mS/cm	Phase(Conductivity)/deg	Tan(Delta)	Loss Angle(Delta)/deg	dq/mA.h	Pwe/W	Pce/W	Pwe-ce/W	<Ewe-Ece>/V	Rwe/Ohm	Rce/Ohm	Rwe-ce/Ohm		Ewe-Ece/V
100004	1.02742	0.42845	1.11318	-22.6369	1.86956	0.272119	0.0261556	3.71453	0.55027	1	9	0.00493163	0.00443023	0	-1.8488e-06	8.98672e-05	5.95957e-05	80.4903	0.013452	0.00222247	-0.0132672	-21.9608	1.1102	1.02964	0.415183	0.829124	0.345758	0.898329	22.6369	550.27	1319.54	1429.68	-67.3631	0.0000000E+000	0.0000000E+000	0.0000000E+000	67.3631	0.0000000E+000	0.0000000E+000	0.0000000E+000	-67.3631	0.0000000E+000	0.0000000E+000	0.0000000E+000	-22.6369	0.0000000E+000	0.0000000E+000	0.0000000E+000	22.6369	2.39799	67.3631	-1.8488e-06	7.11744e-06	2.35053e-09	7.11509e-06	0.272029	10403.8	3.43586	10400.4
31621.1	1.40211	0.612245	1.52995	-23.589	3.01854	0.27211	0.025486	8.22086	1.31648	1	9	0.0054771	0.00357992	0	-2.09841e-05	0.000147131	1.67594e-05	34.94	0.00468149	0.00383766	-0.00268118	-23.4397	1.5324	1.40595	0.609564	0.598999	0.261559	0.653616	23.589	1316.48	3014.87	3289.77	-66.411	0.0000000E+000	0.0000000E+000	0.0000000E+000	66.411	0.0000000E+000	0.0000000E+000	0.0000000E+000	-66.411	0.0000000E+000	0.0000000E+000	0.0000000E+000	-23.589	0.0000000E+000	0.0000000E+000	0.0000000E+000	23.589	2.29011	66.411	4.01295e-06	6.93497e-06	3.74978e-09	6.93122e-06	0.271962	10676.8	5.77304	10671.1
10002.2	1.86844	0.840908	2.04895	-24.2305	4.16755	0.27211	0.0197568	18.9223	3.18719	1	9	0.00528663	0.00258017	0	-1.67255e-05	3.2603e-05	9.24788e-06	-98.978	0.00358422	-0.000559336	0.00354031	-24.3272	2.0499	1.86788	0.844448	0.445058	0.200302	0.488054	24.2305	3187.19	7081.73	7765.9	-65.7695	0.0000000E+000	0.0000000E+000	0.0000000E+000	65.7695	0.0000000E+000	0.0000000E+000	0.0000000E+000	-65.7695	0.0000000E+000	0.0000000E+000	0.0000000E+000	-24.2305	0.0000000E+000	0.0000000E+000	0.0000000E+000	24.2305	2.22193	65.7695	1.82307e-06	5.37602e-06	6.44131e-10	5.37538e-06	0.272077	13773	1.65022	13771.3
3163.08	2.49476	1.22888	2.781	-26.224	5.31462	0.272039	-0.0113815	40.9451	7.99494	1	9	0.00498905	0.00179397	0	-7.86069e-06	7.07791e-05	8.4338e-06	-24.7256	0.00470118	0.00427019	0.00196637	-26.2215	2.7857	2.49903	1.23084	0.322572	0.158893	0.359583	26.224	7994.94	16230.7	18092.9	-63.776	0.0000000E+000	0.0000000E+000	0.0000000E+000	63.776	0.0000000E+000	0.0000000E+000	0.0000000E+000	-63.776	0.0000000E+000	0.0000000E+000	0.0000000E+000	-26.224	0.0000000E+000	0.0000000E+000	0.0000000E+000	26.224	2.03012	63.776	-2.06296e-07	-3.09621e-06	-8.05573e-10	-3.0954e-06	0.271968	23901.8	6.21879	23895.6
1000.32	3.27216	2.02823	3.84978	-31.7925	6.91483	0.272063	-0.0138715	78.4446	21.7735	1	10	0.004853	0.00126059	0	-9.41059e-06	0.000204395	6.55608e-06	70.8434	0.00520079	0.00170665	-0.0049128	-31.717	3.84864	3.27387	2.02332	0.220782	0.136851	0.259755	31.7925	21773.5	35127.3	41328.1	-58.2075	0.0000000E+000	0.0000000E+000	0.0000000E+000	58.2075	0.0000000E+000	0.0000000E+000	0.0000000E+000	-58.2075	0.0000000E+000	0.0000000E+000	0.0000000E+000	-31.7925	0.0000000E+000	0.0000000E+000	0.0000000E+000	31.7925	1.61331	58.2075	-2.70034e-06	-3.77391e-06	-2.83527e-09	-3.77108e-06	0.271858	19613.1	14.7349	19598.4
316.316	4.54918	4.1454	6.15462	-42.3411	8.26401	0.272069	-0.0143402	121.376	55.0634	1	10	0.00466789	0.000758436	0	-1.40904e-05	-6.28373e-05	6.88928e-06	-27.0474	0.00908354	0.00809008	0.00413054	-42.3188	6.16338	4.55727	4.14953	0.120096	0.109437	0.16248	42.3411	55063.4	60426.8	81751.9	-47.6589	0.0000000E+000	0.0000000E+000	0.0000000E+000	47.6589	0.0000000E+000	0.0000000E+000	0.0000000E+000	-47.6589	0.0000000E+000	0.0000000E+000	0.0000000E+000	-42.3411	0.0000000E+000	0.0000000E+000	0.0000000E+000	42.3411	1.0974	47.6589	-2.34325e-06	-3.90153e-06	9.011e-10	-3.90243e-06	0.272132	18972.4	4.38189	18976.8
100.032	8.47874	8.83114	12.2425	-46.1663	9.61181	0.272084	-0.0128932	180.163	93.7475	1	10	0.00461316	0.000376816	0	-1.89492e-05	0.000108955	1.18681e-05	71.8954	0.0314957	0.00978737	-0.0299364	-46.036	12.2277	8.48853	8.8012	0.0565709	0.0589222	0.0816829	46.1663	93747.5	90006.6	129961	-43.8337	0.0000000E+000	0.0000000E+000	0.0000000E+000	43.8337	0.0000000E+000	0.0000000E+000	0.0000000E+000	-43.8337	0.0000000E+000	0.0000000E+000	0.0000000E+000	-46.1663	0.0000000E+000	0.0000000E+000	0.0000000E+000	46.1663	0.960096	43.8337	-1.96366e-06	-3.50802e-06	-1.40478e-09	-3.50661e-06	0.271975	21103	8.45063	21094.5
31.6296	18.9505	12.3306	22.609	-33.0509	11.1806	0.272075	-0.00922027	408.078	121.38	1	11	0.00461655	0.000204191	0	-2.34434e-05	7.07791e-05	7.34756e-06	42.7908	0.0359838	0.0264063	-0.0244446	-32.9625	22.6178	18.9769	12.3061	0.0370732	0.0241225	0.0442302	33.0509	121380	186546	222560	-56.9491	0.0000000E+000	0.0000000E+000	0.0000000E+000	56.9491	0.0000000E+000	0.0000000E+000	0.0000000E+000	-56.9491	0.0000000E+000	0.0000000E+000	0.0000000E+000	-33.0509	0.0000000E+000	0.0000000E+000	0.0000000E+000	33.0509	1.53687	56.9491	-1.07687e-06	-2.50861e-06	-6.52602e-10	-2.50795e-06	0.272004	29508.4	7.67647	29500.7
10.0032	28.7236	8.53966	29.9662	-16.5574	12.5128	0.272073	-0.00844788	1863.12	151.307	1	11	0.00460786	0.000153768	0	-2.72746e-05	-0.000196454	1.2252e-05	91.3161	0.079678	-0.00183013	-0.079657	-16.4123	29.9418	28.7218	8.46	0.0319872	0.00950993	0.0333709	16.5574	151307	508929	530945	-73.4426	0.0000000E+000	0.0000000E+000	0.0000000E+000	73.4426	0.0000000E+000	0.0000000E+000	0.0000000E+000	-73.4426	0.0000000E+000	0.0000000E+000	0.0000000E+000	-16.5574	0.0000000E+000	0.0000000E+000	0.0000000E+000	16.5574	3.36356	73.4426	-8.81713e-07	-2.29844e-06	1.65962e-09	-2.3001e-06	0.272269	32206	23.2548	32229.3
3.1604	32.6658	4.60468	32.9887	-8.02374	14.0294	0.272081	-0.00771625	10936.5	213.082	1	11	0.00460771	0.000139675	0	-2.89764e-05	-5.57311e-06	9.45678e-06	-27.7043	0.0677054	0.0599436	0.0314768	-8.06327	33.0525	32.7257	4.63616	0.0300166	0.00423124	0.0303134	8.02374	213082	1.51161e+06	1.52656e+06	-81.9763	0.0000000E+000	0.0000000E+000	0.0000000E+000	81.9763	0.0000000E+000	0.0000000E+000	0.0000000E+000	-81.9763	0.0000000E+000	0.0000000E+000	0.0000000E+000	-8.02374	0.0000000E+000	0.0000000E+000	0.0000000E+000	8.02374	7.09404	81.9763	-4.95215e-07	-2.09944e-06	4.30035e-11	-2.09949e-06	0.272087	35260.8	0.722256	35261.5
1.00006	34.646	3.06879	34.7817	-5.06179	19.3527	0.272085	-0.00656881	51859.2	403.7	1	12	0.00461168	0.000132589	0	-4.46366e-05	-5.57311e-06	4.97801e-06	46.0106	0.0375446	0.0260756	-0.0270121	-5.01371	34.8053	34.6721	3.04177	0.0286387	0.00253668	0.0287508	5.06179	403700	4.55769e+06	4.57554e+06	-84.9382	0.0000000E+000	0.0000000E+000	0.0000000E+000	84.9382	0.0000000E+000	0.0000000E+000	0.0000000E+000	-84.9382	0.0000000E+000	0.0000000E+000	0.0000000E+000	-5.06179	0.0000000E+000	0.0000000E+000	0.0000000E+000	5.06179	11.2898	84.9382	-4.95218e-06	-1.78727e-06	3.66087e-11	-1.78731e-06	0.272091	41420.8	0.84842	41421.6
0.316193	36.0164	2.91979	36.1346	-4.63473	33.6958	0.272078	-0.00543257	172392	1125.57	1	12	0.00460684	0.000127491	0	-4.72936e-05	7.07791e-05	4.15864e-06	30.0763	0.0326191	0.0282272	-0.0163472	-4.6053	36.1614	36.0447	2.90344	0.0275838	0.00223617	0.0276743	4.63473	1.12557e+06	1.38842e+07	1.39298e+07	-85.3653	0.0000000E+000	0.0000000E+000	0.0000000E+000	85.3653	0.0000000E+000	0.0000000E+000	0.0000000E+000	-85.3653	0.0000000E+000	0.0000000E+000	0.0000000E+000	-4.63473	0.0000000E+000	0.0000000E+000	0.0000000E+000	4.63473	12.3353	85.3653	3.22469e-07	-1.47808e-06	-3.84513e-10	-1.4777e-06	0.272007	50082.7	13.0287	50069.7
0.0999041	37.7378	4.41492	37.9951	-6.67267	78.9039	0.272087	-0.0018353	360840	4871.96	1	12	0.00461232	0.000121392	0	-0.000107606	-2.46612e-05	3.48603e-06	18.6202	0.0287171	0.0272139	-0.00916917	-6.65418	38.0211	37.765	4.40575	0.0261409	0.0030582	0.0263192	6.67267	4.87196e+06	4.16444e+07	4.19284e+07	-83.3273	0.0000000E+000	0.0000000E+000	0.0000000E+000	83.3273	0.0000000E+000	0.0000000E+000	0.0000000E+000	-83.3273	0.0000000E+000	0.0000000E+000	0.0000000E+000	-6.67267	0.0000000E+000	0.0000000E+000	0.0000000E+000	6.67267	8.54779	83.3273	-3.87878e-05	-4.99362e-07	4.52607e-11	-4.99408e-07	0.272112	148252	13.4371	148265
0.0315922	40.7429	8.47365	41.6147	-11.7488	221.786	0.272087	-0.00159187	594524	24650	1	12	0.00460743	0.000110716	0	-0.000301269	0.000128043	3.86585e-06	28.0459	0.0349167	0.0308165	-0.0164171	-11.7181	41.6416	40.7737	8.45723	0.0235265	0.00489302	0.02403	11.7488	2.465e+07	1.18522e+08	1.21058e+08	-78.2512	0.0000000E+000	0.0000000E+000	0.0000000E+000	78.2512	0.0000000E+000	0.0000000E+000	0.0000000E+000	-78.2512	0.0000000E+000	0.0000000E+000	0.0000000E+000	-11.7488	0.0000000E+000	0.0000000E+000	0.0000000E+000	11.7488	4.80818	78.2512	-5.80771e-05	-4.33127e-07	-2.03828e-10	-4.32923e-07	0.271959	170922	80.4357	170842
0.0100092	45.6708	17.8772	49.045	-21.3772	673.009	0.272089	-0.000100723	889451	118177	1	12	0.00460731	9.39404e-05	0	0.000105666	-0.000120101	5.0666e-06	30.3635	0.0539342	0.0465363	-0.0272629	-21.3278	49.0784	45.7173	17.85	0.0189867	0.00743208	0.0203894	21.3772	1.18177e+08	3.01905e+08	3.24211e+08	-68.6228	0.0000000E+000	0.0000000E+000	0.0000000E+000	68.6228	0.0000000E+000	0.0000000E+000	0.0000000E+000	-68.6228	0.0000000E+000	0.0000000E+000	0.0000000E+000	-21.3772	0.0000000E+000	0.0000000E+000	0.0000000E+000	21.3772	2.55469	68.6228	0.000253704	-2.74055e-08	1.20969e-11	-2.74176e-08	0.272209	2.70137e+06	1192.4	2.70256e+06