File: txt/19494_R316_UA628_SOC00_C04.mpt
EC-Lab ASCII FILE
Nb header lines : 65

Potentio Electrochemical Impedance Spectroscopy

Run on channel : 4 (SN 66756)
User :
CE vs. WE compliance from -10 V to 10 V
Electrode connection : standard
Potential control : Ewe
Ewe ctrl range : min = -10.00 V, max = 10.00 V
Safety Limits :
	Do not start on E overload
Acquisition started on : 12/04/2025 13:09:48.031
Technique started on : 12/04/2025 13:09:49.757
Loaded Setting File :  C:\Users\Celltest\OneDrive - store-dot.com\Documents\EC-Lab\Data\@Biologic Test Protocols\anode half cell EIS SOC00.mps
Saved on :
	File : 19494_R316_UA628_SOC00_C04.mpr
	Directory : C:\Users\Celltest\OneDrive - store-dot.com\Documents\EC-Lab\Data\Charmaine\
	Host : 169.254.61.224
Device : VMP-3e (SN .003165)
Address : USB
EC-LAB for windows v11.62 (software)
Internet server v27.00 (firmware)
Command interpretor v12.03 (firmware)
Electrode material :
Initial state :
Electrolyte :
Comments :
Electrode surface area : 0.001 cm²
Characteristic mass : 0.001 g
Equivalent Weight : 0.000 g/eq.
Density : 0.000 g/cm3
Volume (V) : 0.001 cm³
Record Ece
Cycle Definition : Charge/Discharge alternance
Mode                Single sine
E (V)               0.0000
vs.                 Eoc
tE (h:m:s)          0:00:0.0000
record              0
dI                  0.000
unit dI             mA
dt (s)              0.000
fi                  100.000
unit fi             kHz
ff                  10.000
unit ff             mHz
Nd                  6
Points              per decade
spacing             Logarithmic
Va (mV)             5.0
pw                  0.10
Na                  2
corr                0
E range min (V)     -10.000
E range max (V)     10.000
I Range             Auto
Bandwidth           5
nc cycles           0
goto Ns'            0
nr cycles           0
inc. cycle          0

freq/Hz	Re(Z)/Ohm	-Im(Z)/Ohm	|Z|/Ohm	Phase(Z)/deg	time/s	<Ewe>/V	<I>/mA	Cs/µF	Cp/µF	cycle number	I Range	|Ewe|/V	|I|/A	Ns	(Q-Qo)/mA.h	<Ece>/V	|Ece|/V	Phase(Zce)/deg	|Zce|/Ohm	Re(Zce)/Ohm	-Im(Zce)/Ohm	Phase(Zwe-ce)/deg	|Zwe-ce|/Ohm	Re(Zwe-ce)/Ohm	-Im(Zwe-ce)/Ohm	Re(Y)/Ohm-1	Im(Y)/Ohm-1	|Y|/Ohm-1	Phase(Y)/deg	Re(C)/nF	Im(C)/nF	|C|/nF	Phase(C)/deg	Re(M)	Im(M)	|M|	Phase(M)/deg	Re(Permittivity)	Im(Permittivity)	|Permittivity|	Phase(Permittivity)/deg	Re(Resistivity)/Ohm.cm	Im(Resistivity)/Ohm.cm	|Resistivity|/Ohm.cm	Phase(Resistivity)/deg	Re(Conductivity)/mS/cm	Im(Conductivity)/mS/cm	|Conductivity|/mS/cm	Phase(Conductivity)/deg	Tan(Delta)	Loss Angle(Delta)/deg	dq/mA.h	Pwe/W	Pce/W	Pwe-ce/W	<Ewe-Ece>/V	Rwe/Ohm	Rce/Ohm	Rwe-ce/Ohm		Ewe-Ece/V
100004	1.11345	0.39976	1.18304	-19.7496	1.72556	0.219144	0.0154931	3.98112	0.454577	1	9	0.00462345	0.00390812	0	1.30414e-05	-0.000292453	3.53409e-05	81.3092	0.00904294	0.0013664	-0.00893911	-19.3191	1.18133	1.11481	0.390821	0.795562	0.28563	0.845283	19.7496	454.577	1266.13	1345.26	-70.2504	0.0000000E+000	0.0000000E+000	0.0000000E+000	70.2504	0.0000000E+000	0.0000000E+000	0.0000000E+000	-70.2504	0.0000000E+000	0.0000000E+000	0.0000000E+000	-19.7496	0.0000000E+000	0.0000000E+000	0.0000000E+000	19.7496	2.78529	70.2504	1.30414e-05	3.39522e-06	-4.531e-09	3.39975e-06	0.219436	14144.6	18.8763	14163.5
31621.1	1.46063	0.575326	1.56985	-21.499	3.24655	0.219132	0.012472	8.7484	1.175	1	9	0.00502057	0.00319812	0	1.77306e-05	-4.40233e-05	1.17771e-05	30.179	0.00368251	0.00318338	-0.00185121	-21.3937	1.57214	1.46381	0.573475	0.592683	0.233452	0.637003	21.499	1175	2983.08	3206.15	-68.501	0.0000000E+000	0.0000000E+000	0.0000000E+000	68.501	0.0000000E+000	0.0000000E+000	0.0000000E+000	-68.501	0.0000000E+000	0.0000000E+000	0.0000000E+000	-21.499	0.0000000E+000	0.0000000E+000	0.0000000E+000	21.499	2.53878	68.501	2.0137e-06	2.73301e-06	-5.49059e-10	2.73356e-06	0.219176	17569.9	3.52977	17573.4
10002.2	1.915	0.791962	2.0723	-22.4679	4.27154	0.219144	0.00255091	20.0918	2.93442	1	9	0.00480294	0.00231768	0	1.32966e-05	8.97464e-05	1.10502e-05	-74.0914	0.00476779	0.00130687	0.00458519	-22.5711	2.07527	1.91631	0.796547	0.445926	0.184416	0.482555	22.4679	2934.42	7095.56	7678.39	-67.5321	0.0000000E+000	0.0000000E+000	0.0000000E+000	67.5321	0.0000000E+000	0.0000000E+000	0.0000000E+000	-67.5321	0.0000000E+000	0.0000000E+000	0.0000000E+000	-22.4679	0.0000000E+000	0.0000000E+000	0.0000000E+000	22.4679	2.41805	67.5321	-1.62208e-06	5.59016e-07	2.28935e-10	5.58787e-07	0.219054	85908.1	35.1821	85873
3163.08	2.5057	1.14942	2.75676	-24.6419	5.29766	0.21896	-0.0508961	43.7756	7.61011	1	9	0.00489771	0.00177662	0	8.13748e-06	-0.000158683	5.92384e-06	16.6601	0.00333433	0.00319436	-0.000955928	-24.5962	2.75926	2.5089	1.14846	0.32971	0.151245	0.362745	24.6419	7610.11	16589.8	18252	-65.3581	0.0000000E+000	0.0000000E+000	0.0000000E+000	65.3581	0.0000000E+000	0.0000000E+000	0.0000000E+000	-65.3581	0.0000000E+000	0.0000000E+000	0.0000000E+000	-24.6419	0.0000000E+000	0.0000000E+000	0.0000000E+000	24.6419	2.17997	65.3581	-4.6428e-06	-1.11442e-05	8.07635e-09	-1.11523e-05	0.219119	4302.1	3.11778	4305.22
1000.32	3.34534	1.85493	3.82519	-29.0076	6.89578	0.219043	0.00395922	85.7735	20.1698	1	10	0.0048761	0.00127473	0	1.26781e-05	-0.000177793	1.29468e-05	-38.2062	0.0101565	0.00798085	0.00628171	-29.0318	3.83522	3.35332	1.86121	0.228631	0.126771	0.261425	29.0076	20169.8	36376	41593.7	-60.9924	0.0000000E+000	0.0000000E+000	0.0000000E+000	60.9924	0.0000000E+000	0.0000000E+000	0.0000000E+000	-60.9924	0.0000000E+000	0.0000000E+000	0.0000000E+000	-29.0076	0.0000000E+000	0.0000000E+000	0.0000000E+000	29.0076	1.80349	60.9924	2.78162e-06	8.67241e-07	-7.03921e-10	8.67945e-07	0.219221	55324.9	44.9061	55369.8
316.316	4.72174	3.39779	5.8172	-35.7389	8.24604	0.219054	0.00281031	148.082	50.5204	1	10	0.00477569	0.000820961	0	1.39807e-05	-5.80336e-06	3.29441e-06	-38.7441	0.00401287	0.00312983	0.00251143	-35.741	5.82121	4.72487	3.4003	0.139532	0.100408	0.171904	35.7389	50520.4	70205.9	86493.8	-54.2611	0.0000000E+000	0.0000000E+000	0.0000000E+000	54.2611	0.0000000E+000	0.0000000E+000	0.0000000E+000	-54.2611	0.0000000E+000	0.0000000E+000	0.0000000E+000	-35.7389	0.0000000E+000	0.0000000E+000	0.0000000E+000	35.7389	1.38965	54.261	3.37234e-07	6.15611e-07	-1.63093e-11	6.15627e-07	0.21906	77946.6	2.06502	77948.6
100.032	8.01741	6.20076	10.1355	-37.7188	9.59285	0.219056	0.00271705	256.588	96.0363	1	10	0.00474713	0.000468366	0	1.59914e-05	0.000242626	5.16546e-06	-137.721	0.0110287	-0.00815987	0.00741944	-37.7802	10.1336	8.00926	6.20818	0.0780448	0.0603607	0.0986631	37.7188	96036.3	124172	156977	-52.2812	0.0000000E+000	0.0000000E+000	0.0000000E+000	52.2812	0.0000000E+000	0.0000000E+000	0.0000000E+000	-52.2812	0.0000000E+000	0.0000000E+000	0.0000000E+000	-37.7188	0.0000000E+000	0.0000000E+000	0.0000000E+000	37.7188	1.29297	52.2812	-1.07723e-07	5.95186e-07	6.59226e-10	5.94527e-07	0.218814	80623	89.2978	80533.7
31.6296	14.9568	7.13816	16.5728	-25.513	10.9225	0.219053	-0.00172187	704.921	130.774	1	10	0.00477934	0.000288384	0	1.67973e-05	0.000108856	3.19428e-05	144.59	0.110765	-0.0902756	-0.0641804	-25.4467	16.4637	14.8665	7.07398	0.0544559	0.0259893	0.0603398	25.513	130774	274014	303620	-64.487	0.0000000E+000	0.0000000E+000	0.0000000E+000	64.487	0.0000000E+000	0.0000000E+000	0.0000000E+000	-64.487	0.0000000E+000	0.0000000E+000	0.0000000E+000	-25.513	0.0000000E+000	0.0000000E+000	0.0000000E+000	25.513	2.09532	64.487	3.65783e-07	-3.77181e-07	-1.87436e-10	-3.76994e-07	0.218944	127218	63.2199	127155
10.0032	20.0271	4.14887	20.4523	-11.704	12.4868	0.219075	0.0168708	3834.87	157.807	1	11	0.00476006	0.00023274	0	2.15226e-05	-0.000311563	3.0989e-05	6.74171	0.133148	0.132228	-0.0156308	-11.5867	20.5786	20.1593	4.13324	0.0478777	0.0099185	0.0488943	11.704	157807	761753	777928	-78.296	0.0000000E+000	0.0000000E+000	0.0000000E+000	78.296	0.0000000E+000	0.0000000E+000	0.0000000E+000	-78.296	0.0000000E+000	0.0000000E+000	0.0000000E+000	-11.704	0.0000000E+000	0.0000000E+000	0.0000000E+000	11.704	4.82711	78.296	7.59614e-07	3.69596e-06	-5.2563e-09	3.70122e-06	0.219387	12985.5	18.4676	13004
3.1604	21.4426	1.94378	21.5305	-5.17974	14.0034	0.219082	0.0173377	25907.8	211.163	1	11	0.00473757	0.00022004	0	3.01821e-05	-0.000177793	3.16823e-06	-4.27281	0.0143984	0.0143584	0.00107276	-5.17914	21.5449	21.4569	1.94486	0.0462561	0.00419315	0.0464458	5.17974	211163	2.32942e+06	2.33897e+06	-84.8203	0.0000000E+000	0.0000000E+000	0.0000000E+000	84.8203	0.0000000E+000	0.0000000E+000	0.0000000E+000	-84.8203	0.0000000E+000	0.0000000E+000	0.0000000E+000	-5.17974	0.0000000E+000	0.0000000E+000	0.0000000E+000	5.17974	11.0314	84.8203	2.18243e-06	3.79837e-06	-3.08251e-09	3.80145e-06	0.21926	12636.2	10.2547	12646.5
1.00006	21.9981	1.18081	22.0297	-3.07257	19.6419	0.219095	0.0158296	134776	387.217	1	12	0.00474117	0.000215217	0	5.12276e-05	8.97464e-05	3.66533e-06	-68.6292	0.0170309	0.00620608	0.0158598	-3.11288	22.0368	22.0043	1.19667	0.0453279	0.00243311	0.0453932	3.07257	387217	7.21371e+06	7.22409e+06	-86.9274	0.0000000E+000	0.0000000E+000	0.0000000E+000	86.9274	0.0000000E+000	0.0000000E+000	0.0000000E+000	-86.9274	0.0000000E+000	0.0000000E+000	0.0000000E+000	-3.07257	0.0000000E+000	0.0000000E+000	0.0000000E+000	3.07257	18.6296	86.9274	1.62648e-05	3.46819e-06	1.42065e-09	3.46677e-06	0.219005	13840.8	5.66951	13835.1
0.316193	22.5203	1.35424	22.561	-3.4413	33.9841	0.219091	0.0140139	371682	1339.21	1	12	0.00474029	0.00021011	0	0.00013704	-0.000196903	2.49321e-06	-15.2914	0.0118662	0.0114461	0.00312946	-3.44748	22.5726	22.5317	1.35737	0.0442444	0.00266061	0.0443244	3.4413	1.33921e+06	2.22703e+07	2.23105e+07	-86.5587	0.0000000E+000	0.0000000E+000	0.0000000E+000	86.5587	0.0000000E+000	0.0000000E+000	0.0000000E+000	-86.5587	0.0000000E+000	0.0000000E+000	0.0000000E+000	-3.4413	0.0000000E+000	0.0000000E+000	0.0000000E+000	3.4413	16.6294	86.5587	3.3487e-05	3.07032e-06	-2.75938e-09	3.07308e-06	0.219288	15633.8	14.0505	15647.9
0.0999041	23.2963	2.51609	23.4318	-6.16427	79.1921	0.219091	0.0109738	633155	7300.49	1	12	0.00474025	0.0002023	0	0.000193013	1.33066e-05	2.26224e-06	5.23876	0.0111826	0.0111359	-0.00102104	-6.15887	23.4428	23.3075	2.51507	0.0424303	0.00458263	0.042677	6.16427	7.30049e+06	6.75947e+07	6.79878e+07	-83.8357	0.0000000E+000	0.0000000E+000	0.0000000E+000	83.8357	0.0000000E+000	0.0000000E+000	0.0000000E+000	-83.8357	0.0000000E+000	0.0000000E+000	0.0000000E+000	-6.16427	0.0000000E+000	0.0000000E+000	0.0000000E+000	6.16427	9.25893	83.8357	9.90433e-06	2.40427e-06	1.46024e-10	2.40412e-06	0.219078	19964.9	1.21257	19963.6
0.0315922	25.2054	5.31377	25.7594	-11.9047	222.075	0.219093	0.007619	948064	40343.3	1	12	0.00474235	0.000184102	0	0.000539959	-2.49133e-05	1.90912e-06	20.6766	0.0103699	0.00970199	-0.00366156	-11.8923	25.7681	25.2151	5.31011	0.0379858	0.00800813	0.0388208	11.9047	4.03433e+07	1.91365e+08	1.95571e+08	-78.0953	0.0000000E+000	0.0000000E+000	0.0000000E+000	78.0953	0.0000000E+000	0.0000000E+000	0.0000000E+000	-78.0953	0.0000000E+000	0.0000000E+000	0.0000000E+000	-11.9047	0.0000000E+000	0.0000000E+000	0.0000000E+000	11.9047	4.74341	78.0953	0.000233246	1.66927e-06	-1.89815e-10	1.66946e-06	0.219118	28756.1	3.26989	28759.4
0.0100092	29.5002	11.1553	31.539	-20.7138	673.297	0.219092	0.0078974	1.42541e+06	178324	1	12	0.00474507	0.000150451	0	0.0022808	-0.000120463	2.84602e-06	19.0601	0.0189166	0.0178795	-0.00617741	-20.6918	31.5535	29.5181	11.1492	0.0296573	0.0112147	0.0317068	20.7138	1.78324e+08	4.71577e+08	5.04167e+08	-69.2862	0.0000000E+000	0.0000000E+000	0.0000000E+000	69.2862	0.0000000E+000	0.0000000E+000	0.0000000E+000	-69.2862	0.0000000E+000	0.0000000E+000	0.0000000E+000	-20.7138	0.0000000E+000	0.0000000E+000	0.0000000E+000	20.7138	2.6445	69.2862	0.000673937	1.73026e-06	-9.51345e-10	1.73121e-06	0.219212	27742.3	15.2535	27757.5