File: txt/19491_R316_UA628_SOC00_C01.mpt
EC-Lab ASCII FILE
Nb header lines : 65

Potentio Electrochemical Impedance Spectroscopy

Run on channel : 1 (SN 66354)
User :
CE vs. WE compliance from -10 V to 10 V
Electrode connection : standard
Potential control : Ewe
Ewe ctrl range : min = -10.00 V, max = 10.00 V
Safety Limits :
	Do not start on E overload
Acquisition started on : 12/04/2025 13:09:28.813
Technique started on : 12/04/2025 13:09:30.725
Loaded Setting File :  C:\Users\Celltest\OneDrive - store-dot.com\Documents\EC-Lab\Data\@Biologic Test Protocols\anode half cell EIS SOC00.mps
Saved on :
	File : 19491_R316_UA628_SOC00_C01.mpr
	Directory : C:\Users\Celltest\OneDrive - store-dot.com\Documents\EC-Lab\Data\Charmaine\
	Host : 169.254.61.224
Device : VMP-3e (SN .003165)
Address : USB
EC-LAB for windows v11.62 (software)
Internet server v27.00 (firmware)
Command interpretor v12.03 (firmware)
Electrode material :
Initial state :
Electrolyte :
Comments :
Electrode surface area : 0.001 cm²
Characteristic mass : 0.001 g
Equivalent Weight : 0.000 g/eq.
Density : 0.000 g/cm3
Volume (V) : 0.001 cm³
Record Ece
Cycle Definition : Charge/Discharge alternance
Mode                Single sine
E (V)               0.0000
vs.                 Eoc
tE (h:m:s)          0:00:0.0000
record              0
dI                  0.000
unit dI             mA
dt (s)              0.000
fi                  100.000
unit fi             kHz
ff                  10.000
unit ff             mHz
Nd                  6
Points              per decade
spacing             Logarithmic
Va (mV)             5.0
pw                  0.10
Na                  2
corr                0
E range min (V)     -10.000
E range max (V)     10.000
I Range             Auto
Bandwidth           5
nc cycles           0
goto Ns'            0
nr cycles           0
inc. cycle          0

freq/Hz	Re(Z)/Ohm	-Im(Z)/Ohm	|Z|/Ohm	Phase(Z)/deg	time/s	<Ewe>/V	<I>/mA	Cs/µF	Cp/µF	cycle number	I Range	|Ewe|/V	|I|/A	Ns	(Q-Qo)/mA.h	<Ece>/V	|Ece|/V	Phase(Zce)/deg	|Zce|/Ohm	Re(Zce)/Ohm	-Im(Zce)/Ohm	Phase(Zwe-ce)/deg	|Zwe-ce|/Ohm	Re(Zwe-ce)/Ohm	-Im(Zwe-ce)/Ohm	Re(Y)/Ohm-1	Im(Y)/Ohm-1	|Y|/Ohm-1	Phase(Y)/deg	Re(C)/nF	Im(C)/nF	|C|/nF	Phase(C)/deg	Re(M)	Im(M)	|M|	Phase(M)/deg	Re(Permittivity)	Im(Permittivity)	|Permittivity|	Phase(Permittivity)/deg	Re(Resistivity)/Ohm.cm	Im(Resistivity)/Ohm.cm	|Resistivity|/Ohm.cm	Phase(Resistivity)/deg	Re(Conductivity)/mS/cm	Im(Conductivity)/mS/cm	|Conductivity|/mS/cm	Phase(Conductivity)/deg	Tan(Delta)	Loss Angle(Delta)/deg	dq/mA.h	Pwe/W	Pce/W	Pwe-ce/W	<Ewe-Ece>/V	Rwe/Ohm	Rce/Ohm	Rwe-ce/Ohm		Ewe-Ece/V
100004	1.1005	0.40792	1.17367	-20.3381	1.91156	0.220025	0.0677611	3.90147	0.471288	1	9	0.00478268	0.00407497	0	5.833e-06	0.000277768	4.61486e-05	91.555	0.0113249	-0.000307323	-0.0113207	-19.8233	1.1695	1.10019	0.396599	0.798911	0.29613	0.852028	20.3381	471.288	1271.46	1355.99	-69.6619	0.0000000E+000	0.0000000E+000	0.0000000E+000	69.6619	0.0000000E+000	0.0000000E+000	0.0000000E+000	-69.6619	0.0000000E+000	0.0000000E+000	0.0000000E+000	-20.3381	0.0000000E+000	0.0000000E+000	0.0000000E+000	20.3381	2.69784	69.6619	5.833e-06	1.49091e-05	1.88219e-08	1.48903e-05	0.219747	3247.06	4.09923	3242.96
31621.1	1.46346	0.567152	1.56952	-21.1834	3.43253	0.220029	0.0729767	8.87448	1.1588	1	9	0.00510324	0.00325147	0	1.39465e-06	-0.000122855	1.35674e-05	19.285	0.00417271	0.00393857	-0.00137811	-21.0847	1.5727	1.4674	0.565774	0.594086	0.230233	0.637138	21.1834	1158.8	2990.14	3206.83	-68.8166	0.0000000E+000	0.0000000E+000	0.0000000E+000	68.8166	0.0000000E+000	0.0000000E+000	0.0000000E+000	-68.8166	0.0000000E+000	0.0000000E+000	0.0000000E+000	-21.1834	0.0000000E+000	0.0000000E+000	0.0000000E+000	21.1834	2.58037	68.8166	1.23012e-05	1.6057e-05	-8.96558e-09	1.6066e-05	0.220152	3015.06	1.68349	3016.74
10002.2	1.90209	0.751083	2.04501	-21.5477	4.58155	0.220028	0.0787511	21.1854	2.85772	1	9	0.00487702	0.00238483	0	2.80769e-05	-2.74688e-05	3.88108e-06	-21.6018	0.0016274	0.0015131	0.000599133	-21.5477	2.04664	1.9036	0.751682	0.45482	0.179596	0.488995	21.5477	2857.72	7237.07	7780.86	-68.4523	0.0000000E+000	0.0000000E+000	0.0000000E+000	68.4523	0.0000000E+000	0.0000000E+000	0.0000000E+000	-68.4523	0.0000000E+000	0.0000000E+000	0.0000000E+000	-21.5477	0.0000000E+000	0.0000000E+000	0.0000000E+000	21.5477	2.53246	68.4523	1.1082e-05	1.73275e-05	-2.1632e-09	1.73296e-05	0.220056	2793.97	0.348805	2794.32
3163.08	2.46058	1.08139	2.68772	-23.7248	5.60668	0.219766	0.000144423	46.5296	7.53222	1	9	0.00491135	0.00182733	0	3.74165e-05	6.79177e-05	8.77214e-06	-12.3529	0.00480052	0.00468938	0.00102699	-23.7046	2.69243	2.46527	1.08241	0.340619	0.149697	0.372063	23.7248	7532.22	17138.8	18720.9	-66.2752	0.0000000E+000	0.0000000E+000	0.0000000E+000	66.2752	0.0000000E+000	0.0000000E+000	0.0000000E+000	-66.2752	0.0000000E+000	0.0000000E+000	0.0000000E+000	-23.7248	0.0000000E+000	0.0000000E+000	0.0000000E+000	23.7248	2.27539	66.2752	1.81553e-07	3.17392e-08	9.8089e-12	3.17294e-08	0.219698	1.52168e+06	470.269	1.52121e+06
1000.32	3.23919	1.71996	3.66751	-27.9675	7.20383	0.219941	-0.0161716	92.5047	20.3449	1	10	0.00493414	0.00134537	0	7.388e-05	1.06858e-05	7.75344e-06	-89.4738	0.00576307	5.29222e-05	0.00576282	-28.0466	3.67026	3.23925	1.72572	0.240821	0.127872	0.272665	27.9675	20344.9	38315.6	43382	-62.0325	0.0000000E+000	0.0000000E+000	0.0000000E+000	62.0325	0.0000000E+000	0.0000000E+000	0.0000000E+000	-62.0325	0.0000000E+000	0.0000000E+000	0.0000000E+000	-27.9675	0.0000000E+000	0.0000000E+000	0.0000000E+000	27.9675	1.8833	62.0325	6.92289e-06	-3.5568e-06	-1.72807e-10	-3.55662e-06	0.21993	13600.4	0.660775	13599.8
316.316	4.47248	3.14237	5.46604	-35.0919	8.55306	0.219934	-0.016835	160.119	52.9189	1	10	0.00483542	0.00088463	0	6.90409e-05	-0.000103778	2.48726e-06	-17.4198	0.00281164	0.00268269	0.000841723	-35.083	5.46872	4.47517	3.14321	0.149694	0.105175	0.182948	35.0919	52918.9	75318.6	92050.5	-54.9081	0.0000000E+000	0.0000000E+000	0.0000000E+000	54.9081	0.0000000E+000	0.0000000E+000	0.0000000E+000	-54.9081	0.0000000E+000	0.0000000E+000	0.0000000E+000	-35.0919	0.0000000E+000	0.0000000E+000	0.0000000E+000	35.0919	1.42328	54.9081	-1.41643e-06	-3.70259e-06	1.74711e-09	-3.70434e-06	0.220038	13064.1	6.16441	13070.2
100.032	7.51357	5.7901	9.48573	-37.6185	9.9008	0.219937	-0.0160896	274.786	102.383	1	10	0.00480255	0.000506292	0	6.38474e-05	-8.47007e-05	2.99689e-05	39.0072	0.0591929	0.0459968	-0.0372571	-37.2712	9.4996	7.55957	5.75285	0.0835036	0.0643495	0.105422	37.6185	102383	132858	167730	-52.3815	0.0000000E+000	0.0000000E+000	0.0000000E+000	52.3815	0.0000000E+000	0.0000000E+000	0.0000000E+000	-52.3815	0.0000000E+000	0.0000000E+000	0.0000000E+000	-37.6185	0.0000000E+000	0.0000000E+000	0.0000000E+000	37.6185	1.29766	52.3815	-1.83107e-06	-3.53871e-06	1.36281e-09	-3.54007e-06	0.220022	13669.5	5.2643	13674.7
31.6296	14.0847	7.0578	15.7541	-26.6153	11.2305	0.219935	-0.0208303	712.948	143.09	1	10	0.00481161	0.00030542	0	5.8415e-05	0.000182382	5.74724e-06	47.5982	0.0188175	0.0126891	-0.0138955	-26.5495	15.7592	14.0974	7.0439	0.0567494	0.028437	0.0634756	26.6153	143090	285554	319399	-63.3847	0.0000000E+000	0.0000000E+000	0.0000000E+000	63.3847	0.0000000E+000	0.0000000E+000	0.0000000E+000	-63.3847	0.0000000E+000	0.0000000E+000	0.0000000E+000	-26.6153	0.0000000E+000	0.0000000E+000	0.0000000E+000	26.6153	1.99562	63.3847	-1.6081e-06	-4.58132e-06	-3.79907e-09	-4.57752e-06	0.219753	10558.4	8.75558	10549.7
10.0032	19.1118	4.26355	19.5816	-12.5759	12.7948	0.219971	-0.00436856	3731.73	176.912	1	11	0.0048059	0.00024543	0	5.56131e-05	0.000373155	7.86049e-06	-89.7221	0.0320274	0.000155351	0.0320271	-12.6672	19.5887	19.1119	4.29558	0.0498433	0.0111193	0.0510685	12.5759	176912	793026	812520	-77.4241	0.0000000E+000	0.0000000E+000	0.0000000E+000	77.4241	0.0000000E+000	0.0000000E+000	0.0000000E+000	-77.4241	0.0000000E+000	0.0000000E+000	0.0000000E+000	-12.5759	0.0000000E+000	0.0000000E+000	0.0000000E+000	12.5759	4.48259	77.4241	-2.50524e-06	-9.60959e-07	-1.63015e-09	-9.59328e-07	0.219598	50353.2	85.4182	50267.8
3.1604	20.6886	2.06267	20.7912	-5.6936	14.3114	0.219984	-0.00267995	24414.6	240.297	1	11	0.00480105	0.000230918	0	5.32428e-05	0.000258691	8.04241e-06	40.9106	0.0348281	0.0263207	-0.0228082	-5.62394	20.8151	20.715	2.03986	0.04786	0.00477166	0.0480973	5.6936	240297	2.41019e+06	2.42214e+06	-84.3064	0.0000000E+000	0.0000000E+000	0.0000000E+000	84.3064	0.0000000E+000	0.0000000E+000	0.0000000E+000	-84.3064	0.0000000E+000	0.0000000E+000	0.0000000E+000	-5.6936	0.0000000E+000	0.0000000E+000	0.0000000E+000	5.6936	10.03	84.3064	-3.70436e-06	-5.89547e-07	-6.93279e-10	-5.88854e-07	0.219725	82085	96.5281	81988.5
1.00006	21.4101	1.30806	21.45	-3.49617	19.951	0.219989	-0.00293041	121665	452.444	1	12	0.00480779	0.000224139	0	5.72854e-05	0.000430387	3.62913e-06	39.2733	0.0161914	0.0125343	-0.0102495	-3.46681	21.4619	21.4226	1.29781	0.0465332	0.00284297	0.04662	3.49617	452443	7.40552e+06	7.41933e+06	-86.5038	0.0000000E+000	0.0000000E+000	0.0000000E+000	86.5038	0.0000000E+000	0.0000000E+000	0.0000000E+000	-86.5038	0.0000000E+000	0.0000000E+000	0.0000000E+000	-3.49617	0.0000000E+000	0.0000000E+000	0.0000000E+000	3.49617	16.3678	86.5038	5.47753e-06	-6.44657e-07	-1.26121e-09	-6.43396e-07	0.219559	75071.2	146.869	74924.4
0.316193	21.9918	1.40762	22.0368	-3.66232	34.2947	0.219985	-0.000901465	357587	1459.01	1	12	0.00480646	0.000218111	0	4.64565e-05	0.000144227	3.73361e-06	12.9421	0.0171179	0.0166831	-0.00383384	-3.64961	22.0532	22.0085	1.40379	0.045286	0.00289861	0.0453786	3.66232	1.459e+06	2.27946e+07	2.28412e+07	-86.3377	0.0000000E+000	0.0000000E+000	0.0000000E+000	86.3377	0.0000000E+000	0.0000000E+000	0.0000000E+000	-86.3377	0.0000000E+000	0.0000000E+000	0.0000000E+000	-3.66232	0.0000000E+000	0.0000000E+000	0.0000000E+000	3.66232	15.6234	86.3377	-1.44429e-05	-1.98309e-07	-1.30016e-10	-1.98179e-07	0.219841	244030	159.992	243870
0.0999041	22.8744	2.4476	23.005	-6.10752	79.5027	0.219984	-0.00226849	650872	7367.76	1	12	0.00481063	0.000209113	0	-5.76923e-05	0.000163304	2.67928e-06	0.120949	0.0128126	0.0128126	-2.70469e-05	-6.10406	23.0177	22.8872	2.44758	0.0432222	0.00462486	0.0434689	6.10752	7.36775e+06	6.88562e+07	6.92493e+07	-83.8925	0.0000000E+000	0.0000000E+000	0.0000000E+000	83.8925	0.0000000E+000	0.0000000E+000	0.0000000E+000	-83.8925	0.0000000E+000	0.0000000E+000	0.0000000E+000	-6.10752	0.0000000E+000	0.0000000E+000	0.0000000E+000	6.10752	9.34562	83.8925	-3.38775e-05	-4.99032e-07	-3.70454e-10	-4.98662e-07	0.219821	96974.1	71.9882	96902.1
0.0315922	24.4981	5.12898	25.0292	-11.8248	222.385	0.219986	-0.000436749	982220	41245.5	1	12	0.0048098	0.000192167	0	0.000172553	1.06858e-05	3.24875e-06	-30.7068	0.0169058	0.0145355	0.00863289	-11.8373	25.0452	24.5126	5.13762	0.0391054	0.00818722	0.0399533	11.8248	4.12455e+07	1.97005e+08	2.01276e+08	-78.1752	0.0000000E+000	0.0000000E+000	0.0000000E+000	78.1752	0.0000000E+000	0.0000000E+000	0.0000000E+000	-78.1752	0.0000000E+000	0.0000000E+000	0.0000000E+000	-11.8248	0.0000000E+000	0.0000000E+000	0.0000000E+000	11.8248	4.7764	78.1752	0.000162945	-9.60788e-08	-4.66702e-12	-9.60742e-08	0.219976	503690	24.4667	503665
0.0100092	28.2766	11.3	30.4508	-21.7829	673.607	0.219985	0.00321012	1.40716e+06	193777	1	12	0.00480909	0.00015793	0	0.000429693	1.06858e-05	3.08133e-06	-12.5639	0.0195108	0.0190436	0.00424414	-21.777	30.4701	28.2956	11.3043	0.0304949	0.0121865	0.0328398	21.7829	1.93777e+08	4.84897e+08	5.22183e+08	-68.2171	0.0000000E+000	0.0000000E+000	0.0000000E+000	68.2171	0.0000000E+000	0.0000000E+000	0.0000000E+000	-68.2171	0.0000000E+000	0.0000000E+000	0.0000000E+000	-21.7829	0.0000000E+000	0.0000000E+000	0.0000000E+000	21.7829	2.50234	68.2171	-7.84108e-05	7.06177e-07	3.43027e-11	7.06142e-07	0.219974	68528.6	3.32879	68525.3