File: txt/19495_R316_UA628_SOC00_C05.mpt
EC-Lab ASCII FILE
Nb header lines : 65

Potentio Electrochemical Impedance Spectroscopy

Run on channel : 5 (SN 65912)
User :
CE vs. WE compliance from -10 V to 10 V
Electrode connection : standard
Potential control : Ewe
Ewe ctrl range : min = -10.00 V, max = 10.00 V
Safety Limits :
	Do not start on E overload
Acquisition started on : 12/04/2025 13:09:55.781
Technique started on : 12/04/2025 13:09:57.375
Loaded Setting File :  C:\Users\Celltest\OneDrive - store-dot.com\Documents\EC-Lab\Data\@Biologic Test Protocols\anode half cell EIS SOC00.mps
Saved on :
	File : 19495_R316_UA628_SOC00_C05.mpr
	Directory : C:\Users\Celltest\OneDrive - store-dot.com\Documents\EC-Lab\Data\Charmaine\
	Host : 169.254.61.224
Device : VMP-3e (SN .003165)
Address : USB
EC-LAB for windows v11.62 (software)
Internet server v27.00 (firmware)
Command interpretor v12.03 (firmware)
Electrode material :
Initial state :
Electrolyte :
Comments :
Electrode surface area : 0.001 cm²
Characteristic mass : 0.001 g
Equivalent Weight : 0.000 g/eq.
Density : 0.000 g/cm3
Volume (V) : 0.001 cm³
Record Ece
Cycle Definition : Charge/Discharge alternance
Mode                Single sine
E (V)               0.0000
vs.                 Eoc
tE (h:m:s)          0:00:0.0000
record              0
dI                  0.000
unit dI             mA
dt (s)              0.000
fi                  100.000
unit fi             kHz
ff                  10.000
unit ff             mHz
Nd                  6
Points              per decade
spacing             Logarithmic
Va (mV)             5.0
pw                  0.10
Na                  2
corr                0
E range min (V)     -10.000
E range max (V)     10.000
I Range             Auto
Bandwidth           5
nc cycles           0
goto Ns'            0
nr cycles           0
inc. cycle          0

freq/Hz	Re(Z)/Ohm	-Im(Z)/Ohm	|Z|/Ohm	Phase(Z)/deg	time/s	<Ewe>/V	<I>/mA	Cs/µF	Cp/µF	cycle number	I Range	|Ewe|/V	|I|/A	Ns	(Q-Qo)/mA.h	<Ece>/V	|Ece|/V	Phase(Zce)/deg	|Zce|/Ohm	Re(Zce)/Ohm	-Im(Zce)/Ohm	Phase(Zwe-ce)/deg	|Zwe-ce|/Ohm	Re(Zwe-ce)/Ohm	-Im(Zwe-ce)/Ohm	Re(Y)/Ohm-1	Im(Y)/Ohm-1	|Y|/Ohm-1	Phase(Y)/deg	Re(C)/nF	Im(C)/nF	|C|/nF	Phase(C)/deg	Re(M)	Im(M)	|M|	Phase(M)/deg	Re(Permittivity)	Im(Permittivity)	|Permittivity|	Phase(Permittivity)/deg	Re(Resistivity)/Ohm.cm	Im(Resistivity)/Ohm.cm	|Resistivity|/Ohm.cm	Phase(Resistivity)/deg	Re(Conductivity)/mS/cm	Im(Conductivity)/mS/cm	|Conductivity|/mS/cm	Phase(Conductivity)/deg	Tan(Delta)	Loss Angle(Delta)/deg	dq/mA.h	Pwe/W	Pce/W	Pwe-ce/W	<Ewe-Ece>/V	Rwe/Ohm	Rce/Ohm	Rwe-ce/Ohm		Ewe-Ece/V
100004	1.22647	-0.0355673	1.22698	1.6611	1.59352	0.217158	0.00448445	-44.7459	-0.037599	1	9	0.000921642	0.000751144	0	-2.57969e-06	-9.38465e-06	1.8265e-05	60.6154	0.0243163	0.0119313	-0.0211879	2.624	1.2397	1.2384	-0.0567552	0.814664	-0.0236251	0.815006	-1.6611	-37.5991	1296.53	1297.07	-91.6611	0.0000000E+000	0.0000000E+000	0.0000000E+000	91.6611	0.0000000E+000	0.0000000E+000	0.0000000E+000	-91.6611	0.0000000E+000	0.0000000E+000	0.0000000E+000	1.6611	0.0000000E+000	0.0000000E+000	0.0000000E+000	-1.6611	34.483	88.3389	-2.57969e-06	9.73831e-07	-4.20849e-11	9.73873e-07	0.217167	48424.6	2.09271	48426.7
31621.1	1.3695	0.550909	1.47615	-21.9135	2.99652	0.217082	-0.00795359	9.13614	1.27251	1	9	0.00534433	0.00362045	0	0.000190939	-0.000181206	1.76774e-05	35.7582	0.00488266	0.00396223	-0.00285326	-21.7536	1.47877	1.37346	0.548056	0.628491	0.252823	0.677437	21.9135	1272.51	3163.31	3409.66	-68.0865	0.0000000E+000	0.0000000E+000	0.0000000E+000	68.0865	0.0000000E+000	0.0000000E+000	0.0000000E+000	-68.0865	0.0000000E+000	0.0000000E+000	0.0000000E+000	-21.9135	0.0000000E+000	0.0000000E+000	0.0000000E+000	21.9135	2.48589	68.0865	0.000193378	-1.72658e-06	1.44123e-09	-1.72802e-06	0.217263	27293.5	22.7829	27316.3
10002.2	1.79996	0.745357	1.94818	-22.4943	4.02156	0.217081	-0.00229315	21.3481	3.12486	1	9	0.00480738	0.00246763	0	0.000178541	-2.84759e-05	8.53879e-06	-114.542	0.00346033	-0.00143728	0.00314771	-22.596	1.94806	1.79852	0.748505	0.474247	0.196384	0.5133	22.4943	3124.86	7546.19	8167.61	-67.5057	0.0000000E+000	0.0000000E+000	0.0000000E+000	67.5057	0.0000000E+000	0.0000000E+000	0.0000000E+000	-67.5057	0.0000000E+000	0.0000000E+000	0.0000000E+000	-22.4943	0.0000000E+000	0.0000000E+000	0.0000000E+000	22.4943	2.41489	67.5057	-2.41101e-07	-4.97801e-07	6.52995e-11	-4.97866e-07	0.21711	94665	12.4178	94677.4
3163.08	2.37472	1.10017	2.61719	-24.8576	5.04561	0.216868	-0.0958396	45.735	8.08167	1	9	0.00491283	0.00187714	0	0.000166291	-0.000429391	8.17988e-06	-75.5396	0.00435763	0.00108815	0.00421958	-24.9313	2.61995	2.37581	1.10439	0.346691	0.160617	0.38209	24.8576	8081.67	17444.3	19225.4	-65.1424	0.0000000E+000	0.0000000E+000	0.0000000E+000	65.1424	0.0000000E+000	0.0000000E+000	0.0000000E+000	-65.1424	0.0000000E+000	0.0000000E+000	0.0000000E+000	-24.8576	0.0000000E+000	0.0000000E+000	0.0000000E+000	24.8576	2.1585	65.1424	-9.72608e-06	-2.07845e-05	4.11527e-08	-2.08257e-05	0.217297	2262.82	4.48031	2267.3
1000.32	3.11043	1.77842	3.58295	-29.7592	6.64483	0.217008	-0.0237575	89.4637	22.0411	1	10	0.00489039	0.0013649	0	0.00016419	-0.000219388	8.23628e-06	-20.844	0.00603433	0.0056394	0.00214716	-29.7443	3.58891	3.11607	1.78057	0.242292	0.138533	0.279099	29.7592	22041.1	38549.6	44405.8	-60.2408	0.0000000E+000	0.0000000E+000	0.0000000E+000	60.2408	0.0000000E+000	0.0000000E+000	0.0000000E+000	-60.2408	0.0000000E+000	0.0000000E+000	0.0000000E+000	-29.7592	0.0000000E+000	0.0000000E+000	0.0000000E+000	29.7592	1.74899	60.2408	-7.69185e-07	-5.15556e-06	5.21211e-09	-5.16077e-06	0.217227	9134.29	9.23448	9143.53
316.316	4.36363	3.34259	5.49675	-37.4525	7.99402	0.217006	-0.0244203	150.527	55.6636	1	10	0.00477367	0.000868453	0	0.000155845	0.000143345	1.12689e-05	-13.1912	0.0129758	0.0126335	0.00296111	-37.3971	5.50858	4.37627	3.34555	0.144423	0.11063	0.181926	37.4525	55663.6	72666.8	91536.3	-52.5475	0.0000000E+000	0.0000000E+000	0.0000000E+000	52.5475	0.0000000E+000	0.0000000E+000	0.0000000E+000	-52.5475	0.0000000E+000	0.0000000E+000	0.0000000E+000	-37.4525	0.0000000E+000	0.0000000E+000	0.0000000E+000	37.4525	1.30546	52.5475	-2.3007e-06	-5.29933e-06	-3.50052e-09	-5.29583e-06	0.216862	8886.29	5.86992	8880.42
100.032	7.53631	6.5414	9.97927	-40.9575	9.34082	0.217005	-0.0239884	243.226	104.509	1	10	0.00474963	0.000475949	0	0.000146709	8.60714e-05	9.10208e-06	-98.8951	0.0191241	-0.00295707	0.0188941	-41.0505	9.98944	7.53335	6.5603	0.0756765	0.0656861	0.100208	40.9575	104509	120404	159434	-49.0425	0.0000000E+000	0.0000000E+000	0.0000000E+000	49.0425	0.0000000E+000	0.0000000E+000	0.0000000E+000	-49.0425	0.0000000E+000	0.0000000E+000	0.0000000E+000	-40.9575	0.0000000E+000	0.0000000E+000	0.0000000E+000	40.9575	1.15209	49.0425	-2.23925e-06	-5.20559e-06	-2.06471e-09	-5.20353e-06	0.216919	9046.26	3.58805	9042.67
31.6296	15.1569	8.604	17.4288	-29.5819	10.9045	0.217034	-0.0120638	584.826	142.526	1	11	0.00475007	0.000272542	0	0.000138014	0.000200619	1.18769e-05	-6.91979	0.0435783	0.0432609	0.0052503	-29.5268	17.469	15.2002	8.60925	0.0498975	0.0283248	0.0573764	29.5819	142526	251076	288709	-60.4181	0.0000000E+000	0.0000000E+000	0.0000000E+000	60.4181	0.0000000E+000	0.0000000E+000	0.0000000E+000	-60.4181	0.0000000E+000	0.0000000E+000	0.0000000E+000	-29.5819	0.0000000E+000	0.0000000E+000	0.0000000E+000	29.5819	1.76162	60.4181	-3.21048e-06	-2.61824e-06	-2.42021e-09	-2.61582e-06	0.216833	17990.6	16.6299	17973.9
10.0032	21.5883	5.4622	22.2686	-14.1988	12.2368	0.217036	-0.0112469	2912.82	175.252	1	11	0.00474306	0.000212993	0	0.000133908	4.7889e-05	2.37468e-05	22.6791	0.111491	0.10287	-0.0429876	-14.0273	22.3579	21.6912	5.41921	0.0435344	0.0110149	0.0449063	14.1988	175252	692650	714477	-75.8012	0.0000000E+000	0.0000000E+000	0.0000000E+000	75.8012	0.0000000E+000	0.0000000E+000	0.0000000E+000	-75.8012	0.0000000E+000	0.0000000E+000	0.0000000E+000	-14.1988	0.0000000E+000	0.0000000E+000	0.0000000E+000	14.1988	3.95231	75.8012	-6.34254e-08	-2.44098e-06	-5.38602e-10	-2.44044e-06	0.216988	19297.5	4.25798	19293.2
3.1604	23.7521	2.57542	23.8913	-6.18836	13.7544	0.217022	-0.0109312	19553.8	227.22	1	11	0.00474936	0.000198791	0	0.000131095	0.000143345	8.43669e-06	14.2553	0.0424401	0.0411333	-0.0104506	-6.15287	23.931	23.7932	2.56497	0.0416124	0.004512	0.0418563	6.18836	227221	2.09556e+06	2.10785e+06	-83.8116	0.0000000E+000	0.0000000E+000	0.0000000E+000	83.8116	0.0000000E+000	0.0000000E+000	0.0000000E+000	-83.8116	0.0000000E+000	0.0000000E+000	0.0000000E+000	-6.18836	0.0000000E+000	0.0000000E+000	0.0000000E+000	6.18836	9.22261	83.8116	5.03341e-07	-2.3723e-06	-1.56693e-09	-2.37074e-06	0.216879	19853.6	13.1134	19840.4
1.00006	24.5762	1.52937	24.6237	-3.56091	19.3929	0.217039	-0.00859096	104059	401.418	1	12	0.0047462	0.000192749	0	0.000107094	-4.75671e-05	2.5795e-06	-7.20282	0.0133827	0.0132771	0.00167795	-3.56288	24.6371	24.5895	1.53105	0.0405328	0.00252234	0.0406112	3.56091	401418	6.45058e+06	6.46306e+06	-86.4391	0.0000000E+000	0.0000000E+000	0.0000000E+000	86.4391	0.0000000E+000	0.0000000E+000	0.0000000E+000	-86.4391	0.0000000E+000	0.0000000E+000	0.0000000E+000	-3.56091	0.0000000E+000	0.0000000E+000	0.0000000E+000	3.56091	16.0695	86.4391	-1.41026e-05	-1.86457e-06	4.08647e-10	-1.86498e-06	0.217087	25263.7	5.53688	25269.2
0.316193	25.199	1.55612	25.247	-3.53371	33.7368	0.217043	-0.00793441	323463	1228.83	1	12	0.00474637	0.000187998	0	9.11637e-05	-0.000372118	1.34993e-06	-39.559	0.00718058	0.00553601	0.00457311	-3.5433	25.2528	25.2045	1.56069	0.0395334	0.00244132	0.0396087	3.53371	1.22883e+06	1.9899e+07	1.99369e+07	-86.4663	0.0000000E+000	0.0000000E+000	0.0000000E+000	86.4663	0.0000000E+000	0.0000000E+000	0.0000000E+000	-86.4663	0.0000000E+000	0.0000000E+000	0.0000000E+000	-3.53371	0.0000000E+000	0.0000000E+000	0.0000000E+000	3.53371	16.1935	86.4663	4.16256e-07	-1.72211e-06	2.95254e-09	-1.72506e-06	0.217415	27354.6	46.8992	27401.5
0.0999041	26.1678	2.63424	26.3001	-5.74843	78.9458	0.217042	-0.00357977	604758	6067.06	1	12	0.00474621	0.000180464	0	6.6674e-05	-0.000123932	1.62436e-06	-50.4198	0.00900102	0.00573507	0.00693739	-5.76222	26.3065	26.1735	2.64118	0.0378315	0.00380839	0.0380227	5.74843	6.06706e+06	6.02685e+07	6.05731e+07	-84.2516	0.0000000E+000	0.0000000E+000	0.0000000E+000	84.2516	0.0000000E+000	0.0000000E+000	0.0000000E+000	-84.2516	0.0000000E+000	0.0000000E+000	0.0000000E+000	-5.74843	0.0000000E+000	0.0000000E+000	0.0000000E+000	5.74843	9.93373	84.2516	-2.72331e-05	-7.76962e-07	4.43648e-10	-7.77406e-07	0.217166	60630.2	34.6201	60664.8
0.0315922	28.1324	5.27658	28.6229	-10.6231	221.829	0.217043	-0.00210935	954746	32446.3	1	12	0.00474908	0.000165919	0	-0.000307187	0.000296075	2.42244e-06	20.3467	0.0146001	0.0136891	-0.00507647	-10.6081	28.6354	28.146	5.2715	0.0343383	0.00644058	0.034937	10.6231	3.24463e+07	1.72989e+08	1.76006e+08	-79.3769	0.0000000E+000	0.0000000E+000	0.0000000E+000	79.3769	0.0000000E+000	0.0000000E+000	0.0000000E+000	-79.3769	0.0000000E+000	0.0000000E+000	0.0000000E+000	-10.6231	0.0000000E+000	0.0000000E+000	0.0000000E+000	10.6231	5.33155	79.3769	-0.000173959	-4.5782e-07	-6.24526e-10	-4.57195e-07	0.216747	102896	140.363	102755
0.0100092	32.2456	11.0631	34.0906	-18.9365	673.052	0.217047	-0.000516422	1.43729e+06	151366	1	12	0.00474839	0.000139287	0	-0.000101621	-2.84759e-05	3.29537e-06	4.68607	0.0236588	0.0235797	-0.00193284	-18.9206	34.1123	32.2692	11.0612	0.027746	0.00951934	0.0293336	18.9365	1.51366e+08	4.41187e+08	4.66431e+08	-71.0635	0.0000000E+000	0.0000000E+000	0.0000000E+000	71.0635	0.0000000E+000	0.0000000E+000	0.0000000E+000	-71.0635	0.0000000E+000	0.0000000E+000	0.0000000E+000	-18.9365	0.0000000E+000	0.0000000E+000	0.0000000E+000	18.9365	2.9147	71.0635	0.00031346	-1.12088e-07	1.47056e-11	-1.12103e-07	0.217075	420290	55.1407	420345