File: txt/19492_R316_UA628_SOC00_C02.mpt
EC-Lab ASCII FILE
Nb header lines : 65

Potentio Electrochemical Impedance Spectroscopy

Run on channel : 2 (SN 66139)
User :
CE vs. WE compliance from -10 V to 10 V
Electrode connection : standard
Potential control : Ewe
Ewe ctrl range : min = -10.00 V, max = 10.00 V
Safety Limits :
	Do not start on E overload
Acquisition started on : 12/04/2025 13:09:36.565
Technique started on : 12/04/2025 13:09:38.159
Loaded Setting File :  C:\Users\Celltest\OneDrive - store-dot.com\Documents\EC-Lab\Data\@Biologic Test Protocols\anode half cell EIS SOC00.mps
Saved on :
	File : 19492_R316_UA628_SOC00_C02.mpr
	Directory : C:\Users\Celltest\OneDrive - store-dot.com\Documents\EC-Lab\Data\Charmaine\
	Host : 169.254.61.224
Device : VMP-3e (SN .003165)
Address : USB
EC-LAB for windows v11.62 (software)
Internet server v27.00 (firmware)
Command interpretor v12.03 (firmware)
Electrode material :
Initial state :
Electrolyte :
Comments :
Electrode surface area : 0.001 cm²
Characteristic mass : 0.001 g
Equivalent Weight : 0.000 g/eq.
Density : 0.000 g/cm3
Volume (V) : 0.001 cm³
Record Ece
Cycle Definition : Charge/Discharge alternance
Mode                Single sine
E (V)               0.0000
vs.                 Eoc
tE (h:m:s)          0:00:0.0000
record              0
dI                  0.000
unit dI             mA
dt (s)              0.000
fi                  100.000
unit fi             kHz
ff                  10.000
unit ff             mHz
Nd                  6
Points              per decade
spacing             Logarithmic
Va (mV)             5.0
pw                  0.10
Na                  2
corr                0
E range min (V)     -10.000
E range max (V)     10.000
I Range             Auto
Bandwidth           5
nc cycles           0
goto Ns'            0
nr cycles           0
inc. cycle          0

freq/Hz	Re(Z)/Ohm	-Im(Z)/Ohm	|Z|/Ohm	Phase(Z)/deg	time/s	<Ewe>/V	<I>/mA	Cs/µF	Cp/µF	cycle number	I Range	|Ewe|/V	|I|/A	Ns	(Q-Qo)/mA.h	<Ece>/V	|Ece|/V	Phase(Zce)/deg	|Zce|/Ohm	Re(Zce)/Ohm	-Im(Zce)/Ohm	Phase(Zwe-ce)/deg	|Zwe-ce|/Ohm	Re(Zwe-ce)/Ohm	-Im(Zwe-ce)/Ohm	Re(Y)/Ohm-1	Im(Y)/Ohm-1	|Y|/Ohm-1	Phase(Y)/deg	Re(C)/nF	Im(C)/nF	|C|/nF	Phase(C)/deg	Re(M)	Im(M)	|M|	Phase(M)/deg	Re(Permittivity)	Im(Permittivity)	|Permittivity|	Phase(Permittivity)/deg	Re(Resistivity)/Ohm.cm	Im(Resistivity)/Ohm.cm	|Resistivity|/Ohm.cm	Phase(Resistivity)/deg	Re(Conductivity)/mS/cm	Im(Conductivity)/mS/cm	|Conductivity|/mS/cm	Phase(Conductivity)/deg	Tan(Delta)	Loss Angle(Delta)/deg	dq/mA.h	Pwe/W	Pce/W	Pwe-ce/W	<Ewe-Ece>/V	Rwe/Ohm	Rce/Ohm	Rwe-ce/Ohm		Ewe-Ece/V
100004	1.05756	0.392033	1.12789	-20.3394	1.59353	0.217925	0.0272291	4.05959	0.49045	1	9	0.00477488	0.00423347	0	-3.28232e-06	0.000307323	1.94347e-05	23.7844	0.00459073	0.00420084	-0.00185142	-20.1776	1.13119	1.06176	0.390181	0.831333	0.30817	0.886613	20.3394	490.45	1323.06	1411.04	-69.6606	0.0000000E+000	0.0000000E+000	0.0000000E+000	69.6606	0.0000000E+000	0.0000000E+000	0.0000000E+000	-69.6606	0.0000000E+000	0.0000000E+000	0.0000000E+000	-20.3394	0.0000000E+000	0.0000000E+000	0.0000000E+000	20.3394	2.69764	69.6606	-3.28232e-06	5.93389e-06	8.36813e-09	5.92553e-06	0.217618	8003.39	11.2866	7992.1
31621.1	1.40703	0.594534	1.52749	-22.9062	3.11454	0.217857	0.00856886	8.46576	1.28252	1	9	0.00506324	0.00331475	0	-1.2798e-05	-0.000169948	3.71172e-05	-44.8373	0.0111976	0.00794032	0.00789536	-23.062	1.53788	1.41497	0.602429	0.603045	0.254813	0.65467	22.9062	1282.52	3035.24	3295.08	-67.0938	0.0000000E+000	0.0000000E+000	0.0000000E+000	67.0938	0.0000000E+000	0.0000000E+000	0.0000000E+000	-67.0938	0.0000000E+000	0.0000000E+000	0.0000000E+000	-22.9062	0.0000000E+000	0.0000000E+000	0.0000000E+000	22.9062	2.36662	67.0938	-7.271e-06	1.86678e-06	-1.45626e-09	1.86824e-06	0.218027	25424.2	19.8332	25444.1
10002.2	1.88268	0.824682	2.05538	-23.6552	4.38754	0.217838	0.0115113	19.2946	3.10617	1	9	0.00544446	0.00264888	0	-3.4979e-06	7.82332e-05	8.01063e-06	5.9834	0.00302416	0.00300768	-0.000315239	-23.6135	2.05801	1.88569	0.824367	0.445648	0.19521	0.486528	23.6552	3106.17	7091.14	7741.61	-66.3448	0.0000000E+000	0.0000000E+000	0.0000000E+000	66.3448	0.0000000E+000	0.0000000E+000	0.0000000E+000	-66.3448	0.0000000E+000	0.0000000E+000	0.0000000E+000	-23.6552	0.0000000E+000	0.0000000E+000	0.0000000E+000	23.6552	2.28292	66.3448	3.60301e-06	2.50759e-06	9.00564e-10	2.50669e-06	0.21776	18923.9	6.79622	18917.1
3163.08	2.4902	1.17688	2.75429	-25.2955	5.83968	0.21784	0.00946272	42.7543	7.80584	1	9	0.00524641	0.00190481	0	5.56935e-06	0.000326414	4.6647e-06	67.5323	0.0024489	0.000935877	-0.00226302	-25.2447	2.75417	2.49114	1.17461	0.328257	0.155135	0.363069	25.2955	7805.84	16516.7	18268.4	-64.7045	0.0000000E+000	0.0000000E+000	0.0000000E+000	64.7045	0.0000000E+000	0.0000000E+000	0.0000000E+000	-64.7045	0.0000000E+000	0.0000000E+000	0.0000000E+000	-25.2955	0.0000000E+000	0.0000000E+000	0.0000000E+000	25.2955	2.11594	64.7045	8.35228e-07	2.06136e-06	3.08877e-09	2.05827e-06	0.217513	23020.8	34.4947	22986.3
1000.32	3.30229	1.90924	3.81449	-30.0347	7.65081	0.21782	-0.0106166	83.3336	20.8771	1	10	0.00514566	0.00134898	0	6.62396e-06	0.000135506	5.13202e-06	47.0457	0.00380437	0.00259235	-0.00278441	-29.979	3.81534	3.30488	1.90646	0.226956	0.131217	0.262158	30.0347	20877.1	36109.7	41710.5	-59.9653	0.0000000E+000	0.0000000E+000	0.0000000E+000	59.9653	0.0000000E+000	0.0000000E+000	0.0000000E+000	-59.9653	0.0000000E+000	0.0000000E+000	0.0000000E+000	-30.0347	0.0000000E+000	0.0000000E+000	0.0000000E+000	30.0347	1.72963	59.9653	-5.47508e-07	-2.31251e-06	-1.43861e-09	-2.31108e-06	0.217685	20516.9	12.7636	20504.2
316.316	4.65468	3.60556	5.88779	-37.7618	9.00101	0.217834	-0.0107247	139.549	52.332	1	10	0.00481055	0.000817038	0	1.68583e-06	0.000326414	3.77954e-06	15.2742	0.00462591	0.00446251	-0.00121864	-37.7258	5.89057	4.65914	3.60435	0.134272	0.104008	0.169843	37.7618	52332	67559.1	85456.8	-52.2382	0.0000000E+000	0.0000000E+000	0.0000000E+000	52.2382	0.0000000E+000	0.0000000E+000	0.0000000E+000	-52.2382	0.0000000E+000	0.0000000E+000	0.0000000E+000	-37.7618	0.0000000E+000	0.0000000E+000	0.0000000E+000	37.7618	1.29097	52.2382	-1.86953e-06	-2.33619e-06	-3.50068e-09	-2.33269e-06	0.217507	20311.5	30.4358	20281
100.032	8.07365	6.99934	10.6852	-40.9232	10.3489	0.217829	-0.00962573	227.313	97.5368	1	10	0.00469591	0.000439476	0	-1.69871e-06	0.000440959	6.3802e-06	47.1604	0.0145177	0.00987131	-0.0106453	-40.8454	10.6857	8.08352	6.98869	0.0707132	0.0613038	0.093587	40.9232	97536.8	112508	148901	-49.0768	0.0000000E+000	0.0000000E+000	0.0000000E+000	49.0768	0.0000000E+000	0.0000000E+000	0.0000000E+000	-49.0768	0.0000000E+000	0.0000000E+000	0.0000000E+000	-40.9232	0.0000000E+000	0.0000000E+000	0.0000000E+000	40.9232	1.15349	49.0768	-1.77814e-06	-2.09676e-06	-4.24455e-09	-2.09252e-06	0.217388	22629.8	45.8105	22584
31.6296	16.1904	9.06956	18.5576	-29.2567	11.9125	0.217833	-0.0102907	554.805	132.516	1	11	0.00468667	0.000252547	0	-5.8801e-06	9.7324e-05	1.62982e-05	-24.5077	0.0645354	0.0587211	0.0267703	-29.2403	18.622	16.2491	9.09633	0.0470124	0.0263355	0.0538862	29.2567	132516	236559	271147	-60.7433	0.0000000E+000	0.0000000E+000	0.0000000E+000	60.7433	0.0000000E+000	0.0000000E+000	0.0000000E+000	-60.7433	0.0000000E+000	0.0000000E+000	0.0000000E+000	-29.2567	0.0000000E+000	0.0000000E+000	0.0000000E+000	29.2567	1.78514	60.7433	-1.57465e-06	-2.24165e-06	-1.00153e-09	-2.24065e-06	0.217736	21168	9.45749	21158.5
10.0032	22.9071	5.6717	23.5988	-13.9065	13.2448	0.217834	-0.00984139	2805.22	162.037	1	11	0.00467343	0.000198036	0	-9.71301e-06	0.000116415	6.7405e-06	7.43888	0.0340367	0.0337502	-0.00440668	-13.8765	23.6305	22.9409	5.6673	0.0411329	0.0101843	0.042375	13.9065	162037	654441	674203	-76.0935	0.0000000E+000	0.0000000E+000	0.0000000E+000	76.0935	0.0000000E+000	0.0000000E+000	0.0000000E+000	-76.0935	0.0000000E+000	0.0000000E+000	0.0000000E+000	-13.9065	0.0000000E+000	0.0000000E+000	0.0000000E+000	13.9065	4.03885	76.0935	-2.55714e-06	-2.14379e-06	-1.14568e-09	-2.14265e-06	0.217718	22134.5	11.8291	22122.7
3.1604	25.0896	2.67206	25.2315	-6.07912	14.7625	0.217847	-0.00864491	18846.6	211.368	1	11	0.00467088	0.000185121	0	-1.4909e-05	2.09606e-05	5.52133e-06	-26.8292	0.0298255	0.026615	0.0134612	-6.10309	25.2594	25.1162	2.68552	0.0394101	0.0041972	0.039633	6.07912	211368	1.98466e+06	1.99588e+06	-83.9209	0.0000000E+000	0.0000000E+000	0.0000000E+000	83.9209	0.0000000E+000	0.0000000E+000	0.0000000E+000	-83.9209	0.0000000E+000	0.0000000E+000	0.0000000E+000	-6.07912	0.0000000E+000	0.0000000E+000	0.0000000E+000	6.07912	9.38961	83.9209	-4.15897e-06	-1.88327e-06	-1.81203e-10	-1.88309e-06	0.217826	25199.4	2.42462	25197
1.00006	25.9165	1.63302	25.9679	-3.60549	20.4008	0.21785	-0.00798869	97454.5	385.399	1	12	0.00466674	0.000179712	0	-1.91322e-05	5.91423e-05	2.27473e-06	-32.5163	0.0126577	0.0106734	0.006804	-3.61898	25.9789	25.9271	1.63982	0.0384329	0.00242169	0.0385091	3.60549	385399	6.1164e+06	6.12853e+06	-86.3945	0.0000000E+000	0.0000000E+000	0.0000000E+000	86.3945	0.0000000E+000	0.0000000E+000	0.0000000E+000	-86.3945	0.0000000E+000	0.0000000E+000	0.0000000E+000	-3.60549	0.0000000E+000	0.0000000E+000	0.0000000E+000	3.60549	15.8703	86.3945	-9.42947e-07	-1.74034e-06	-4.7247e-10	-1.73986e-06	0.217791	27269.8	7.40326	27262.4
0.316193	26.6684	1.70865	26.7231	-3.66594	34.7439	0.217844	-0.0056768	294588	1204.34	1	12	0.004665	0.000174568	0	-5.80419e-05	0.00023096	1.91628e-06	-14.1657	0.0109773	0.0106435	0.00268643	-3.67023	26.7339	26.679	1.71134	0.0373443	0.00239266	0.0374208	3.66594	1.20434e+06	1.87971e+07	1.88357e+07	-86.3341	0.0000000E+000	0.0000000E+000	0.0000000E+000	86.3341	0.0000000E+000	0.0000000E+000	0.0000000E+000	-86.3341	0.0000000E+000	0.0000000E+000	0.0000000E+000	-3.66594	0.0000000E+000	0.0000000E+000	0.0000000E+000	3.66594	15.6079	86.3341	-2.45326e-05	-1.23666e-06	-1.31111e-09	-1.23535e-06	0.217614	38374.5	40.6849	38333.8
0.0999041	27.7974	2.87056	27.9452	-5.89589	79.9528	0.217843	-0.00531832	554970	5855.85	1	12	0.00466865	0.000167065	0	-0.000172002	0.000421868	2.72285e-06	-26.8551	0.0162982	0.0145405	0.00736249	-5.90784	27.9604	27.8119	2.87793	0.035595	0.00367581	0.0357843	5.89589	5.85586e+06	5.67057e+07	5.70072e+07	-84.1041	0.0000000E+000	0.0000000E+000	0.0000000E+000	84.1041	0.0000000E+000	0.0000000E+000	0.0000000E+000	-84.1041	0.0000000E+000	0.0000000E+000	0.0000000E+000	-5.89589	0.0000000E+000	0.0000000E+000	0.0000000E+000	5.89589	9.68359	84.1041	-3.37608e-05	-1.15856e-06	-2.24363e-09	-1.15632e-06	0.217421	40960.8	79.3236	40881.5
0.0315922	29.7938	5.65975	30.3266	-10.756	222.835	0.217834	-0.00225998	890108	31002	1	12	0.00466658	0.000153877	0	-5.86806e-05	2.09606e-05	2.81894e-06	-6.84658	0.0183194	0.0181888	0.00218388	-10.7536	30.3449	29.812	5.66194	0.032395	0.00615388	0.0329743	10.756	3.1002e+07	1.63199e+08	1.66118e+08	-79.244	0.0000000E+000	0.0000000E+000	0.0000000E+000	79.244	0.0000000E+000	0.0000000E+000	0.0000000E+000	-79.244	0.0000000E+000	0.0000000E+000	0.0000000E+000	-10.756	0.0000000E+000	0.0000000E+000	0.0000000E+000	10.756	5.26416	79.244	8.23873e-05	-4.923e-07	-4.73706e-11	-4.92252e-07	0.217813	96387.5	9.2747	96378.2
0.0100092	34.148	11.7486	36.1126	-18.9857	674.058	0.217829	0.00112232	1.35343e+06	143249	1	12	0.00466463	0.000129169	0	-0.000267378	9.7324e-05	1.45315e-06	16.6192	0.01125	0.01078	-0.0032176	-18.9753	36.1217	34.1588	11.7454	0.0261848	0.00900885	0.0276912	18.9857	1.43249e+08	4.16362e+08	4.40315e+08	-71.0143	0.0000000E+000	0.0000000E+000	0.0000000E+000	71.0143	0.0000000E+000	0.0000000E+000	0.0000000E+000	-71.0143	0.0000000E+000	0.0000000E+000	0.0000000E+000	-18.9857	0.0000000E+000	0.0000000E+000	0.0000000E+000	18.9857	2.90656	71.0143	-0.000236719	2.44473e-07	1.09228e-10	2.44364e-07	0.217731	194088	86.717	194002