File: txt/19497_R316_UA715_SOC00_C07.mpt
EC-Lab ASCII FILE
Nb header lines : 65

Potentio Electrochemical Impedance Spectroscopy

Run on channel : 7 (SN 66126)
User :
CE vs. WE compliance from -10 V to 10 V
Electrode connection : standard
Potential control : Ewe
Ewe ctrl range : min = -10.00 V, max = 10.00 V
Safety Limits :
	Do not start on E overload
Acquisition started on : 12/04/2025 13:10:40.560
Technique started on : 12/04/2025 13:10:42.471
Loaded Setting File :  NONE
Saved on :
	File : 19497_R316_UA715_SOC00_C07.mpr
	Directory : C:\Users\Celltest\OneDrive - store-dot.com\Documents\EC-Lab\Data\Charmaine\
	Host : 169.254.61.224
Device : VMP-3e (SN .003165)
Address : USB
EC-LAB for windows v11.62 (software)
Internet server v27.00 (firmware)
Command interpretor v12.03 (firmware)
Electrode material :
Initial state :
Electrolyte :
Comments :
Electrode surface area : 0.001 cm²
Characteristic mass : 0.001 g
Equivalent Weight : 0.000 g/eq.
Density : 0.000 g/cm3
Volume (V) : 0.001 cm³
Record Ece
Cycle Definition : Charge/Discharge alternance
Mode                Single sine
E (V)               0.0000
vs.                 Eoc
tE (h:m:s)          0:00:0.0000
record              0
dI                  0.000
unit dI             mA
dt (s)              0.000
fi                  100.000
unit fi             kHz
ff                  10.000
unit ff             mHz
Nd                  6
Points              per decade
spacing             Logarithmic
Va (mV)             5.0
pw                  0.10
Na                  2
corr                0
E range min (V)     -10.000
E range max (V)     10.000
I Range             Auto
Bandwidth           5
nc cycles           0
goto Ns'            0
nr cycles           0
inc. cycle          0

freq/Hz	Re(Z)/Ohm	-Im(Z)/Ohm	|Z|/Ohm	Phase(Z)/deg	time/s	<Ewe>/V	<I>/mA	Cs/µF	Cp/µF	cycle number	I Range	|Ewe|/V	|I|/A	Ns	(Q-Qo)/mA.h	<Ece>/V	|Ece|/V	Phase(Zce)/deg	|Zce|/Ohm	Re(Zce)/Ohm	-Im(Zce)/Ohm	Phase(Zwe-ce)/deg	|Zwe-ce|/Ohm	Re(Zwe-ce)/Ohm	-Im(Zwe-ce)/Ohm	Re(Y)/Ohm-1	Im(Y)/Ohm-1	|Y|/Ohm-1	Phase(Y)/deg	Re(C)/nF	Im(C)/nF	|C|/nF	Phase(C)/deg	Re(M)	Im(M)	|M|	Phase(M)/deg	Re(Permittivity)	Im(Permittivity)	|Permittivity|	Phase(Permittivity)/deg	Re(Resistivity)/Ohm.cm	Im(Resistivity)/Ohm.cm	|Resistivity|/Ohm.cm	Phase(Resistivity)/deg	Re(Conductivity)/mS/cm	Im(Conductivity)/mS/cm	|Conductivity|/mS/cm	Phase(Conductivity)/deg	Tan(Delta)	Loss Angle(Delta)/deg	dq/mA.h	Pwe/W	Pce/W	Pwe-ce/W	<Ewe-Ece>/V	Rwe/Ohm	Rce/Ohm	Rwe-ce/Ohm		Ewe-Ece/V
100004	1.07312	0.445374	1.16187	-22.5397	1.91055	0.269409	0.0653567	3.57338	0.525061	1	9	0.00470877	0.00405274	0	5.07896e-06	-1.80035e-05	3.8681e-05	91.8055	0.00954442	-0.00030071	-0.00953968	-22.1094	1.15797	1.07282	0.435834	0.794934	0.329918	0.860678	22.5397	525.061	1265.13	1369.76	-67.4603	0.0000000E+000	0.0000000E+000	0.0000000E+000	67.4603	0.0000000E+000	0.0000000E+000	0.0000000E+000	-67.4603	0.0000000E+000	0.0000000E+000	0.0000000E+000	-22.5397	0.0000000E+000	0.0000000E+000	0.0000000E+000	22.5397	2.40949	67.4603	5.07896e-06	1.76077e-05	-1.17665e-09	1.76089e-05	0.269427	4122.14	0.275466	4122.42
31621.1	1.4613	0.629583	1.59116	-23.3082	3.43352	0.269433	0.0637183	7.99446	1.25161	1	9	0.00513724	0.00322862	0	2.4222e-05	-1.80035e-05	2.22884e-05	5.39695	0.00690339	0.00687279	-0.000649301	-23.1892	1.59722	1.46818	0.628934	0.577183	0.248672	0.628473	23.3082	1251.61	2905.07	3163.22	-66.6918	0.0000000E+000	0.0000000E+000	0.0000000E+000	66.6918	0.0000000E+000	0.0000000E+000	0.0000000E+000	-66.6918	0.0000000E+000	0.0000000E+000	0.0000000E+000	-23.3082	0.0000000E+000	0.0000000E+000	0.0000000E+000	23.3082	2.32106	66.6918	9.33417e-06	1.71678e-05	-1.14715e-09	1.7169e-05	0.269452	4228.51	0.282549	4228.8
10002.2	1.95354	0.871138	2.13897	-24.0334	4.58251	0.269443	0.0638299	18.2657	3.02971	1	9	0.00485719	0.00227081	0	4.1196e-05	-0.000246909	1.03773e-05	-148.555	0.00456989	-0.00389876	0.00238402	-24.1344	2.13638	1.94964	0.873522	0.426985	0.190405	0.467514	24.0334	3029.71	6794.16	7439.07	-65.9666	0.0000000E+000	0.0000000E+000	0.0000000E+000	65.9666	0.0000000E+000	0.0000000E+000	0.0000000E+000	-65.9666	0.0000000E+000	0.0000000E+000	0.0000000E+000	-24.0334	0.0000000E+000	0.0000000E+000	0.0000000E+000	24.0334	2.24251	65.9666	6.21994e-06	1.71985e-05	-1.57602e-08	1.72143e-05	0.26969	4221.27	3.86823	4225.14
3163.08	2.59097	1.24947	2.8765	-25.7452	5.60768	0.26922	-0.0104933	40.2703	7.59809	1	9	0.00485813	0.0016889	0	4.98678e-05	5.82982e-05	4.71117e-06	11.4018	0.00278949	0.00273444	-0.000551449	-25.7117	2.87873	2.5937	1.24891	0.313135	0.151006	0.347644	25.7452	7598.09	15755.9	17492.2	-64.2548	0.0000000E+000	0.0000000E+000	0.0000000E+000	64.2548	0.0000000E+000	0.0000000E+000	0.0000000E+000	-64.2548	0.0000000E+000	0.0000000E+000	0.0000000E+000	-25.7452	0.0000000E+000	0.0000000E+000	0.0000000E+000	25.7452	2.07366	64.2548	-1.01244e-06	-2.82501e-06	-6.11739e-10	-2.8244e-06	0.269162	25656.4	5.55576	25650.9
1000.32	3.38533	2.06327	3.96454	-31.3612	7.20678	0.269366	-0.0161039	77.1124	20.8859	1	10	0.00486415	0.00122692	0	6.31154e-05	0.000153675	7.82966e-06	-17.546	0.00638158	0.00608468	0.00192386	-31.3393	3.97073	3.39141	2.0652	0.215385	0.131272	0.252236	31.3612	20885.9	34268.7	40131.8	-58.6387	0.0000000E+000	0.0000000E+000	0.0000000E+000	58.6387	0.0000000E+000	0.0000000E+000	0.0000000E+000	-58.6387	0.0000000E+000	0.0000000E+000	0.0000000E+000	-31.3612	0.0000000E+000	0.0000000E+000	0.0000000E+000	31.3612	1.64076	58.6387	-1.6716e-06	-4.33785e-06	-2.47477e-09	-4.33537e-06	0.269213	16726.8	9.54274	16717.2
316.316	4.66863	4.27967	6.33337	-42.5111	8.55707	0.269346	-0.0181589	117.568	53.6832	1	10	0.00477183	0.000753442	0	5.61063e-05	-0.000285059	9.19057e-06	-70.5219	0.0121981	0.00406742	0.0115	-42.5628	6.34415	4.67269	4.29117	0.116391	0.106694	0.157894	42.5111	53683.2	58562.3	79444.5	-47.4889	0.0000000E+000	0.0000000E+000	0.0000000E+000	47.4889	0.0000000E+000	0.0000000E+000	0.0000000E+000	-47.4889	0.0000000E+000	0.0000000E+000	0.0000000E+000	-42.5111	0.0000000E+000	0.0000000E+000	0.0000000E+000	42.5111	1.09089	47.489	-2.66323e-06	-4.89103e-06	5.17636e-09	-4.8962e-06	0.269632	14832.8	15.6981	14848.5
100.032	8.76937	9.14169	12.6678	-46.1908	9.9048	0.269346	-0.0172952	174.042	90.6374	1	10	0.00473172	0.000373524	0	4.98505e-05	-0.000113381	8.09515e-06	-42.5377	0.0216723	0.0159689	0.0146521	-46.1846	12.6894	8.78534	9.15634	0.0546473	0.0569674	0.0789405	46.1908	90637.4	86946	125598	-43.8092	0.0000000E+000	0.0000000E+000	0.0000000E+000	43.8092	0.0000000E+000	0.0000000E+000	0.0000000E+000	-43.8092	0.0000000E+000	0.0000000E+000	0.0000000E+000	-46.1908	0.0000000E+000	0.0000000E+000	0.0000000E+000	46.1908	0.959273	43.8092	-2.24996e-06	-4.65839e-06	1.96094e-09	-4.66035e-06	0.269459	15573.4	6.55561	15580
31.6296	19.6694	12.648	23.385	-32.7421	11.4736	0.269387	-0.00634129	397.838	116.379	1	11	0.00473796	0.000202607	0	4.55702e-05	-0.000285059	1.19572e-05	92.2401	0.0590169	-0.00230683	-0.0589718	-32.6235	23.3512	19.6671	12.589	0.0359681	0.0231285	0.0427625	32.7421	116379	180986	215174	-57.2579	0.0000000E+000	0.0000000E+000	0.0000000E+000	57.2579	0.0000000E+000	0.0000000E+000	0.0000000E+000	-57.2579	0.0000000E+000	0.0000000E+000	0.0000000E+000	-32.7421	0.0000000E+000	0.0000000E+000	0.0000000E+000	32.7421	1.55514	57.2579	-8.57679e-07	-1.70826e-06	1.80765e-09	-1.71007e-06	0.269672	42481.4	44.9529	42526.3
10.0032	29.2305	8.50857	30.4437	-16.2295	12.8058	0.269394	-0.00603751	1869.93	146.064	1	11	0.00468171	0.000153782	0	4.29316e-05	-0.000285059	4.359e-05	158.131	0.283453	-0.263054	-0.105584	-16.1766	30.1617	28.9675	8.40298	0.0315385	0.00918038	0.0328475	16.2295	146064	501790	522617	-73.7705	0.0000000E+000	0.0000000E+000	0.0000000E+000	73.7705	0.0000000E+000	0.0000000E+000	0.0000000E+000	-73.7705	0.0000000E+000	0.0000000E+000	0.0000000E+000	-16.2295	0.0000000E+000	0.0000000E+000	0.0000000E+000	16.2295	3.43543	73.7705	-2.59239e-07	-1.62647e-06	1.72105e-09	-1.62819e-06	0.269679	44619.9	47.2147	44667.2
3.1604	33.3871	4.59612	33.7019	-7.83817	14.3225	0.269392	-0.00462037	10956.9	203.779	1	11	0.00472808	0.000140291	0	4.2501e-05	3.92227e-05	6.76196e-06	20.7799	0.0481996	0.0450642	-0.0171002	-7.79897	33.7443	33.4321	4.57902	0.0293947	0.00404652	0.0296719	7.83817	203779	1.48029e+06	1.49425e+06	-82.1618	0.0000000E+000	0.0000000E+000	0.0000000E+000	82.1618	0.0000000E+000	0.0000000E+000	0.0000000E+000	-82.1618	0.0000000E+000	0.0000000E+000	0.0000000E+000	-7.83817	0.0000000E+000	0.0000000E+000	0.0000000E+000	7.83817	7.26419	82.1618	5.13537e-07	-1.24469e-06	-1.81224e-10	-1.24451e-06	0.269352	58305.2	8.48909	58296.7
1.00006	35.3591	2.98345	35.4847	-4.82295	19.6419	0.269397	-0.00420228	53342.5	377.076	1	12	0.00473533	0.000133447	0	2.9897e-05	-5.61544e-05	2.70147e-06	69.8993	0.0202438	0.00695721	-0.0190107	-4.79143	35.4901	35.366	2.96444	0.0280814	0.00236939	0.0281811	4.82295	377076	4.469e+06	4.48488e+06	-85.177	0.0000000E+000	0.0000000E+000	0.0000000E+000	85.177	0.0000000E+000	0.0000000E+000	0.0000000E+000	-85.177	0.0000000E+000	0.0000000E+000	0.0000000E+000	-4.82295	0.0000000E+000	0.0000000E+000	0.0000000E+000	4.82295	11.8517	85.177	-4.68283e-06	-1.13208e-06	2.35977e-10	-1.13232e-06	0.269453	64107.3	13.3628	64120.7
0.316193	36.6976	2.80588	36.8048	-4.3723	33.9841	0.2694	-0.00355921	179390	1042.63	1	12	0.0047376	0.000128723	0	3.37029e-05	0.000115524	2.43439e-06	47.9388	0.0189119	0.0126696	-0.0140408	-4.34901	36.8163	36.7103	2.79184	0.0270913	0.00207139	0.0271704	4.3723	1.04263e+06	1.36363e+07	1.36761e+07	-85.6277	0.0000000E+000	0.0000000E+000	0.0000000E+000	85.6277	0.0000000E+000	0.0000000E+000	0.0000000E+000	-85.6277	0.0000000E+000	0.0000000E+000	0.0000000E+000	-4.3723	0.0000000E+000	0.0000000E+000	0.0000000E+000	4.3723	13.0788	85.6277	4.97783e-06	-9.58851e-07	-4.11175e-10	-9.5844e-07	0.269285	75691.1	32.4579	75658.6
0.0999041	38.3344	4.24651	38.5689	-6.3212	79.1931	0.269411	-0.00054551	375150	4547.74	1	12	0.00473402	0.000122742	0	8.28013e-06	0.000153675	2.53292e-06	-30.5338	0.0206361	0.0177745	0.0104841	-6.33377	38.5877	38.3521	4.257	0.02577	0.00285469	0.0259277	6.3212	4.54774e+06	4.10536e+07	4.13048e+07	-83.6788	0.0000000E+000	0.0000000E+000	0.0000000E+000	83.6788	0.0000000E+000	0.0000000E+000	0.0000000E+000	-83.6788	0.0000000E+000	0.0000000E+000	0.0000000E+000	-6.3212	0.0000000E+000	0.0000000E+000	0.0000000E+000	6.3212	9.02726	83.6788	-2.41117e-05	-1.46966e-07	-8.38313e-11	-1.46883e-07	0.269258	493871	281.709	493589
0.0315922	41.1644	8.16614	41.9666	-11.2206	222.077	0.269412	-0.000958348	616912	23358.8	1	12	0.0047364	0.000112861	0	-0.000180948	-5.61544e-05	8.48716e-07	61.2947	0.00752	0.00361189	-0.00659581	-11.2108	41.9688	41.168	8.15954	0.023373	0.00463671	0.0238285	11.2206	2.33588e+07	1.17748e+08	1.20043e+08	-78.7794	0.0000000E+000	0.0000000E+000	0.0000000E+000	78.7794	0.0000000E+000	0.0000000E+000	0.0000000E+000	-78.7794	0.0000000E+000	0.0000000E+000	0.0000000E+000	-11.2206	0.0000000E+000	0.0000000E+000	0.0000000E+000	11.2206	5.04087	78.7794	-7.11663e-05	-2.5819e-07	5.38154e-11	-2.58244e-07	0.269468	281121	58.595	281179
0.0100092	45.974	17.5203	49.1992	-20.8614	673.302	0.269421	-0.000238754	907572	115092	1	12	0.00473653	9.62725e-05	0	0.000179969	-9.43052e-05	4.66651e-06	35.0731	0.0484719	0.0396704	-0.027853	-20.8147	49.2264	46.0136	17.4924	0.0189931	0.00723809	0.0203255	20.8614	1.15092e+08	3.02007e+08	3.23194e+08	-69.1386	0.0000000E+000	0.0000000E+000	0.0000000E+000	69.1386	0.0000000E+000	0.0000000E+000	0.0000000E+000	-69.1386	0.0000000E+000	0.0000000E+000	0.0000000E+000	-20.8614	0.0000000E+000	0.0000000E+000	0.0000000E+000	20.8614	2.62404	69.1386	0.000260819	-6.43254e-08	2.25157e-11	-6.43479e-08	0.269516	1.12845e+06	394.989	1.12884e+06