File: txt/19500_R316_UA715_SOC00_C02.mpt
EC-Lab ASCII FILE
Nb header lines : 65

Potentio Electrochemical Impedance Spectroscopy

Run on channel : 2 (SN 66139)
User :
CE vs. WE compliance from -10 V to 10 V
Electrode connection : standard
Potential control : Ewe
Ewe ctrl range : min = -10.00 V, max = 10.00 V
Safety Limits :
	Do not start on E overload
Acquisition started on : 12/04/2025 15:14:24.544
Technique started on : 12/04/2025 15:14:26.414
Loaded Setting File :  C:\Users\Celltest\OneDrive - store-dot.com\Documents\EC-Lab\Data\@Biologic Test Protocols\anode half cell EIS SOC00.mps
Saved on :
	File : 19500_R316_UA715_SOC00_C02.mpr
	Directory : C:\Users\Celltest\OneDrive - store-dot.com\Documents\EC-Lab\Data\Charmaine\
	Host : 169.254.61.224
Device : VMP-3e (SN .003165)
Address : USB
EC-LAB for windows v11.62 (software)
Internet server v27.00 (firmware)
Command interpretor v12.03 (firmware)
Electrode material :
Initial state :
Electrolyte :
Comments :
Electrode surface area : 0.001 cm²
Characteristic mass : 0.001 g
Equivalent Weight : 0.000 g/eq.
Density : 0.000 g/cm3
Volume (V) : 0.001 cm³
Record Ece
Cycle Definition : Charge/Discharge alternance
Mode                Single sine
E (V)               0.0000
vs.                 Eoc
tE (h:m:s)          0:00:0.0000
record              0
dI                  0.000
unit dI             mA
dt (s)              0.000
fi                  100.000
unit fi             kHz
ff                  10.000
unit ff             mHz
Nd                  6
Points              per decade
spacing             Logarithmic
Va (mV)             5.0
pw                  0.10
Na                  2
corr                0
E range min (V)     -10.000
E range max (V)     10.000
I Range             Auto
Bandwidth           5
nc cycles           0
goto Ns'            0
nr cycles           0
inc. cycle          0

freq/Hz	Re(Z)/Ohm	-Im(Z)/Ohm	|Z|/Ohm	Phase(Z)/deg	time/s	<Ewe>/V	<I>/mA	Cs/µF	Cp/µF	cycle number	I Range	|Ewe|/V	|I|/A	Ns	(Q-Qo)/mA.h	<Ece>/V	|Ece|/V	Phase(Zce)/deg	|Zce|/Ohm	Re(Zce)/Ohm	-Im(Zce)/Ohm	Phase(Zwe-ce)/deg	|Zwe-ce|/Ohm	Re(Zwe-ce)/Ohm	-Im(Zwe-ce)/Ohm	Re(Y)/Ohm-1	Im(Y)/Ohm-1	|Y|/Ohm-1	Phase(Y)/deg	Re(C)/nF	Im(C)/nF	|C|/nF	Phase(C)/deg	Re(M)	Im(M)	|M|	Phase(M)/deg	Re(Permittivity)	Im(Permittivity)	|Permittivity|	Phase(Permittivity)/deg	Re(Resistivity)/Ohm.cm	Im(Resistivity)/Ohm.cm	|Resistivity|/Ohm.cm	Phase(Resistivity)/deg	Re(Conductivity)/mS/cm	Im(Conductivity)/mS/cm	|Conductivity|/mS/cm	Phase(Conductivity)/deg	Tan(Delta)	Loss Angle(Delta)/deg	dq/mA.h	Pwe/W	Pce/W	Pwe-ce/W	<Ewe-Ece>/V	Rwe/Ohm	Rce/Ohm	Rwe-ce/Ohm		Ewe-Ece/V
100004	1.19758	0.402508	1.26341	-18.5775	1.86954	0.273861	-0.00390851	3.95393	0.401317	1	9	0.00494685	0.00391546	0	-4.29613e-06	-0.000131766	2.32486e-05	89.7979	0.00593765	2.09484e-05	-0.00593761	-18.3216	1.26155	1.1976	0.39657	0.750264	0.252164	0.791506	18.5775	401.317	1194.04	1259.67	-71.4225	0.0000000E+000	0.0000000E+000	0.0000000E+000	71.4225	0.0000000E+000	0.0000000E+000	0.0000000E+000	-71.4225	0.0000000E+000	0.0000000E+000	0.0000000E+000	-18.5775	0.0000000E+000	0.0000000E+000	0.0000000E+000	18.5775	2.9753	71.4225	-4.29613e-06	-1.07039e-06	5.1501e-10	-1.0709e-06	0.273993	70067.7	33.7126	70101.5
31621.1	1.54653	0.596433	1.65755	-21.0896	3.39456	0.273839	-0.0138904	8.43881	1.09262	1	9	0.00514466	0.00310377	0	-4.2892e-05	-9.35844e-05	7.54401e-06	58.4569	0.0024306	0.00127154	-0.00207147	-21.007	1.658	1.5478	0.594361	0.562889	0.217083	0.603298	21.0896	1092.62	2833.12	3036.51	-68.9104	0.0000000E+000	0.0000000E+000	0.0000000E+000	68.9104	0.0000000E+000	0.0000000E+000	0.0000000E+000	-68.9104	0.0000000E+000	0.0000000E+000	0.0000000E+000	-21.0896	0.0000000E+000	0.0000000E+000	0.0000000E+000	21.0896	2.59297	68.9104	1.27106e-06	-3.80374e-06	1.29993e-09	-3.80504e-06	0.273933	19714.2	6.73734	19721
10002.2	2.0288	0.837997	2.19505	-22.4431	4.54353	0.273832	-0.0138532	18.9881	2.76742	1	9	0.00484399	0.00220678	0	-4.34108e-05	0.000307323	7.34e-06	-68.414	0.00332612	0.00122367	0.00309284	-22.5055	2.19737	2.03002	0.84109	0.421065	0.173921	0.45557	22.4431	2767.42	6699.96	7249.01	-67.5569	0.0000000E+000	0.0000000E+000	0.0000000E+000	67.5569	0.0000000E+000	0.0000000E+000	0.0000000E+000	-67.5569	0.0000000E+000	0.0000000E+000	0.0000000E+000	-22.4431	0.0000000E+000	0.0000000E+000	0.0000000E+000	22.4431	2.42101	67.5569	-8.08153e-07	-3.79346e-06	-4.25741e-09	-3.7892e-06	0.273525	19766.7	22.1843	19744.5
3163.08	2.66102	1.23395	2.93319	-24.8777	5.57064	0.273615	-0.0786239	40.7769	7.21646	1	9	0.00488865	0.00166666	0	-5.57643e-05	9.7324e-05	9.55673e-06	44.114	0.00573405	0.0041168	-0.0039914	-24.7732	2.93525	2.66513	1.22995	0.30929	0.143422	0.340925	24.8777	7216.46	15562.4	17154.2	-65.1223	0.0000000E+000	0.0000000E+000	0.0000000E+000	65.1223	0.0000000E+000	0.0000000E+000	0.0000000E+000	-65.1223	0.0000000E+000	0.0000000E+000	0.0000000E+000	-24.8777	0.0000000E+000	0.0000000E+000	0.0000000E+000	24.8777	2.15651	65.1223	-8.80296e-06	-2.15127e-05	-7.65199e-09	-2.1505e-05	0.273518	3480.05	1.23784	3478.81
1000.32	3.42552	2.0055	3.96941	-30.3472	7.1698	0.273783	-0.0263631	79.3338	20.2512	1	10	0.00491103	0.00123722	0	-5.09936e-05	-9.35844e-05	6.18591e-06	50.555	0.00499986	0.0031766	-0.00386106	-30.2759	3.97021	3.4287	2.00164	0.217407	0.127283	0.251926	30.3472	20251.2	34590.4	40082.5	-59.6528	0.0000000E+000	0.0000000E+000	0.0000000E+000	59.6528	0.0000000E+000	0.0000000E+000	0.0000000E+000	-59.6528	0.0000000E+000	0.0000000E+000	0.0000000E+000	-30.3472	0.0000000E+000	0.0000000E+000	0.0000000E+000	30.3472	1.70806	59.6528	-2.49301e-06	-7.21777e-06	2.46718e-09	-7.22023e-06	0.273876	10385.1	3.54982	10388.6
316.316	4.67314	4.08006	6.20364	-41.1238	8.52008	0.273779	-0.0270225	123.32	53.3424	1	10	0.00482562	0.000777868	0	-6.03934e-05	0.000288232	6.26308e-06	47.8304	0.00805159	0.00540525	-0.00596753	-41.0494	6.20379	4.67855	4.07409	0.121427	0.106016	0.161196	41.1238	53342.4	61096.3	81105.9	-48.8762	0.0000000E+000	0.0000000E+000	0.0000000E+000	48.8762	0.0000000E+000	0.0000000E+000	0.0000000E+000	-48.8762	0.0000000E+000	0.0000000E+000	0.0000000E+000	-41.1238	0.0000000E+000	0.0000000E+000	0.0000000E+000	41.1238	1.14536	48.8762	-3.04657e-06	-7.3982e-06	-7.78876e-09	-7.39041e-06	0.273491	10131.5	10.6664	10120.9
100.032	8.46972	8.69902	12.1412	-45.7652	9.8678	0.273778	-0.0257149	182.899	93.8917	1	10	0.00479698	0.000395099	0	-6.89689e-05	0.000307323	9.58612e-06	-28.2473	0.0242626	0.0213732	0.011483	-45.7308	12.1644	8.49109	8.7105	0.0574572	0.0590128	0.0823641	45.7652	93891.7	91416.8	131045	-44.2348	0.0000000E+000	0.0000000E+000	0.0000000E+000	44.2348	0.0000000E+000	0.0000000E+000	0.0000000E+000	-44.2348	0.0000000E+000	0.0000000E+000	0.0000000E+000	-45.7652	0.0000000E+000	0.0000000E+000	0.0000000E+000	45.7652	0.97364	44.2348	-3.27802e-06	-7.0402e-06	-7.9028e-09	-7.0323e-06	0.273471	10646.7	11.9512	10634.7
31.6296	18.7663	12.5006	22.5486	-33.6685	11.4365	0.27382	-0.0111609	402.527	123.714	1	11	0.00478804	0.000212343	0	-7.63668e-05	-9.35844e-05	7.38408e-06	-52.3818	0.0347743	0.0212261	0.0275446	-33.6968	22.5816	18.7875	12.5282	0.0369096	0.0245863	0.0443486	33.6685	123714	185723	223155	-56.3315	0.0000000E+000	0.0000000E+000	0.0000000E+000	56.3315	0.0000000E+000	0.0000000E+000	0.0000000E+000	-56.3315	0.0000000E+000	0.0000000E+000	0.0000000E+000	-33.6685	0.0000000E+000	0.0000000E+000	0.0000000E+000	33.6685	1.50123	56.3315	-8.5545e-07	-3.05609e-06	1.04449e-09	-3.05713e-06	0.273914	24533.9	8.38501	24542.2
10.0032	29.044	8.80671	30.3499	-16.8683	12.7688	0.273822	-0.010278	1806.62	152.118	1	11	0.00478584	0.000157689	0	-8.07622e-05	9.7324e-05	1.32971e-05	-80.7877	0.0843249	0.0134998	0.0832373	-17.0111	30.387	29.0575	8.88995	0.0315314	0.00956093	0.0329491	16.8683	152118	501677	524233	-73.1317	0.0000000E+000	0.0000000E+000	0.0000000E+000	73.1317	0.0000000E+000	0.0000000E+000	0.0000000E+000	-73.1317	0.0000000E+000	0.0000000E+000	0.0000000E+000	-16.8683	0.0000000E+000	0.0000000E+000	0.0000000E+000	16.8683	3.29795	73.1317	-2.54735e-06	-2.81434e-06	-1.0003e-09	-2.81334e-06	0.273724	26641.5	9.46915	26632.1
3.1604	33.1294	4.6362	33.4523	-7.96635	14.2855	0.273827	-0.00891206	10862.2	208.636	1	11	0.00479016	0.000143194	0	-8.52091e-05	4.00515e-05	6.12275e-06	-36.1042	0.0427585	0.0345466	0.0251957	-8.00084	33.49	33.164	4.66139	0.0296049	0.00414296	0.0298933	7.96635	208636	1.49088e+06	1.5054e+06	-82.0337	0.0000000E+000	0.0000000E+000	0.0000000E+000	82.0337	0.0000000E+000	0.0000000E+000	0.0000000E+000	-82.0337	0.0000000E+000	0.0000000E+000	0.0000000E+000	-7.96635	0.0000000E+000	0.0000000E+000	0.0000000E+000	7.96635	7.14582	82.0337	-3.67194e-06	-2.44036e-06	-3.56941e-10	-2.44001e-06	0.273787	30725.4	4.49408	30720.9
1.00006	34.8831	2.92223	35.0053	-4.78861	19.6056	0.273833	-0.00790088	54460	379.524	1	12	0.00479263	0.000136911	0	-9.26564e-05	4.00515e-05	1.14401e-06	37.6647	0.00835581	0.00661446	-0.00510573	-4.77938	35.0114	34.8897	2.91712	0.0284674	0.00238477	0.0285671	4.78861	379524	4.53044e+06	4.54631e+06	-85.2114	0.0000000E+000	0.0000000E+000	0.0000000E+000	85.2114	0.0000000E+000	0.0000000E+000	0.0000000E+000	-85.2114	0.0000000E+000	0.0000000E+000	0.0000000E+000	-4.78861	0.0000000E+000	0.0000000E+000	0.0000000E+000	4.78861	11.9371	85.2114	-2.36527e-07	-2.16352e-06	-3.16442e-10	-2.16321e-06	0.273793	34658.6	5.06924	34653.5
0.316193	36.2217	2.8103	36.3306	-4.43647	33.946	0.273831	-0.0051224	179108	1071.71	1	12	0.00478872	0.00013181	0	-0.000120492	0.000211869	2.95527e-06	26.8748	0.0224208	0.0199992	-0.0101351	-4.4181	36.3498	36.2417	2.80017	0.0274425	0.00212916	0.027525	4.43647	1.0717e+06	1.38131e+07	1.38546e+07	-85.5635	0.0000000E+000	0.0000000E+000	0.0000000E+000	85.5635	0.0000000E+000	0.0000000E+000	0.0000000E+000	-85.5635	0.0000000E+000	0.0000000E+000	0.0000000E+000	-4.43647	0.0000000E+000	0.0000000E+000	0.0000000E+000	4.43647	12.8889	85.5635	-1.78303e-05	-1.40267e-06	-1.08528e-09	-1.40159e-06	0.273619	53457.6	41.3613	53416.2
0.0999041	37.9893	4.26945	38.2285	-6.41232	79.1551	0.273824	-0.00370873	373134	4654.1	1	12	0.00478746	0.000125233	0	-0.0002225	-0.000265402	2.15034e-06	-48.2632	0.0171707	0.0114307	0.012813	-6.42949	38.2412	38.0007	4.28227	0.0259949	0.00292145	0.0261585	6.41232	4.6541e+06	4.14118e+07	4.16726e+07	-83.5877	0.0000000E+000	0.0000000E+000	0.0000000E+000	83.5877	0.0000000E+000	0.0000000E+000	0.0000000E+000	-83.5877	0.0000000E+000	0.0000000E+000	0.0000000E+000	-6.41232	0.0000000E+000	0.0000000E+000	0.0000000E+000	6.41232	8.89793	83.5877	-3.49076e-05	-1.01554e-06	9.84304e-10	-1.01652e-06	0.274089	73832.3	71.5615	73903.8
0.0315922	40.5007	8.29109	41.3407	-11.5694	222.04	0.273816	-0.00122374	607615	24439.7	1	12	0.00479017	0.000115871	0	-0.000140194	0.000250051	1.97635e-06	-40.9132	0.0170565	0.0128896	0.0111705	-11.581	41.3555	40.5136	8.30226	0.0236978	0.00485128	0.0241893	11.5694	2.44397e+07	1.19385e+08	1.2186e+08	-78.4306	0.0000000E+000	0.0000000E+000	0.0000000E+000	78.4306	0.0000000E+000	0.0000000E+000	0.0000000E+000	-78.4306	0.0000000E+000	0.0000000E+000	0.0000000E+000	-11.5694	0.0000000E+000	0.0000000E+000	0.0000000E+000	11.5694	4.88485	78.4306	7.70161e-05	-3.35078e-07	-3.05996e-10	-3.34772e-07	0.273566	223754	204.334	223550
0.0100092	45.5865	18.2147	49.0908	-21.7798	673.263	0.273812	0.000484988	872972	120183	1	12	0.00478924	9.75588e-05	0	-9.54307e-05	0.00023096	3.73079e-06	17.5604	0.0382414	0.0364594	-0.0115379	-21.7515	49.1204	45.623	18.2031	0.0189163	0.00755825	0.0203704	21.7798	1.20183e+08	3.00787e+08	3.23908e+08	-68.2202	0.0000000E+000	0.0000000E+000	0.0000000E+000	68.2202	0.0000000E+000	0.0000000E+000	0.0000000E+000	-68.2202	0.0000000E+000	0.0000000E+000	0.0000000E+000	-21.7798	0.0000000E+000	0.0000000E+000	0.0000000E+000	21.7798	2.50274	68.2202	-0.000113079	1.32795e-07	1.12013e-10	1.32683e-07	0.273581	564575	476.218	564099