File: txt/19503_R316_UA716_SOC00_C05.mpt
EC-Lab ASCII FILE
Nb header lines : 65

Potentio Electrochemical Impedance Spectroscopy

Run on channel : 5 (SN 65912)
User :
CE vs. WE compliance from -10 V to 10 V
Electrode connection : standard
Potential control : Ewe
Ewe ctrl range : min = -10.00 V, max = 10.00 V
Safety Limits :
	Do not start on E overload
Acquisition started on : 12/04/2025 15:15:00.169
Technique started on : 12/04/2025 15:15:02.224
Loaded Setting File :  C:\Users\Celltest\OneDrive - store-dot.com\Documents\EC-Lab\Data\@Biologic Test Protocols\anode half cell EIS SOC00.mps
Saved on :
	File : 19503_R316_UA716_SOC00_C05.mpr
	Directory : C:\Users\Celltest\OneDrive - store-dot.com\Documents\EC-Lab\Data\Charmaine\
	Host : 169.254.61.224
Device : VMP-3e (SN .003165)
Address : USB
EC-LAB for windows v11.62 (software)
Internet server v27.00 (firmware)
Command interpretor v12.03 (firmware)
Electrode material :
Initial state :
Electrolyte :
Comments :
Electrode surface area : 0.001 cm²
Characteristic mass : 0.001 g
Equivalent Weight : 0.000 g/eq.
Density : 0.000 g/cm3
Volume (V) : 0.001 cm³
Record Ece
Cycle Definition : Charge/Discharge alternance
Mode                Single sine
E (V)               0.0000
vs.                 Eoc
tE (h:m:s)          0:00:0.0000
record              0
dI                  0.000
unit dI             mA
dt (s)              0.000
fi                  100.000
unit fi             kHz
ff                  10.000
unit ff             mHz
Nd                  6
Points              per decade
spacing             Logarithmic
Va (mV)             5.0
pw                  0.10
Na                  2
corr                0
E range min (V)     -10.000
E range max (V)     10.000
I Range             Auto
Bandwidth           5
nc cycles           0
goto Ns'            0
nr cycles           0
inc. cycle          0

freq/Hz	Re(Z)/Ohm	-Im(Z)/Ohm	|Z|/Ohm	Phase(Z)/deg	time/s	<Ewe>/V	<I>/mA	Cs/µF	Cp/µF	cycle number	I Range	|Ewe|/V	|I|/A	Ns	(Q-Qo)/mA.h	<Ece>/V	|Ece|/V	Phase(Zce)/deg	|Zce|/Ohm	Re(Zce)/Ohm	-Im(Zce)/Ohm	Phase(Zwe-ce)/deg	|Zwe-ce|/Ohm	Re(Zwe-ce)/Ohm	-Im(Zwe-ce)/Ohm	Re(Y)/Ohm-1	Im(Y)/Ohm-1	|Y|/Ohm-1	Phase(Y)/deg	Re(C)/nF	Im(C)/nF	|C|/nF	Phase(C)/deg	Re(M)	Im(M)	|M|	Phase(M)/deg	Re(Permittivity)	Im(Permittivity)	|Permittivity|	Phase(Permittivity)/deg	Re(Resistivity)/Ohm.cm	Im(Resistivity)/Ohm.cm	|Resistivity|/Ohm.cm	Phase(Resistivity)/deg	Re(Conductivity)/mS/cm	Im(Conductivity)/mS/cm	|Conductivity|/mS/cm	Phase(Conductivity)/deg	Tan(Delta)	Loss Angle(Delta)/deg	dq/mA.h	Pwe/W	Pce/W	Pwe-ce/W	<Ewe-Ece>/V	Rwe/Ohm	Rce/Ohm	Rwe-ce/Ohm		Ewe-Ece/V
100004	1.32769	0.487266	1.41428	-20.1533	2.05454	0.219593	0.0231417	3.26616	0.387705	1	9	0.00493846	0.00349186	0	-4.31923e-06	-8.57495e-05	3.5381e-05	61.0194	0.0101324	0.0049093	-0.00886366	-19.7482	1.41587	1.3326	0.478403	0.663783	0.243611	0.707075	20.1533	387.705	1056.4	1125.3	-69.8467	0.0000000E+000	0.0000000E+000	0.0000000E+000	69.8467	0.0000000E+000	0.0000000E+000	0.0000000E+000	-69.8467	0.0000000E+000	0.0000000E+000	0.0000000E+000	-20.1533	0.0000000E+000	0.0000000E+000	0.0000000E+000	20.1533	2.72477	69.8467	-4.31923e-06	5.08174e-06	-1.98439e-09	5.08373e-06	0.219679	9489.08	3.70542	9492.78
31621.1	1.78095	0.762415	1.93728	-23.1755	3.45154	0.219547	0.0202742	6.60163	1.02246	1	9	0.00541242	0.00279382	0	-4.58394e-06	-0.000104841	7.85458e-06	6.1003	0.00281141	0.00279549	-0.000298767	-23.1349	1.93974	1.78375	0.762116	0.474532	0.203144	0.516187	23.1755	1022.46	2388.41	2598.06	-66.8245	0.0000000E+000	0.0000000E+000	0.0000000E+000	66.8245	0.0000000E+000	0.0000000E+000	0.0000000E+000	-66.8245	0.0000000E+000	0.0000000E+000	0.0000000E+000	-23.1755	0.0000000E+000	0.0000000E+000	0.0000000E+000	23.1755	2.33594	66.8245	9.83422e-06	4.45113e-06	-2.12556e-09	4.45326e-06	0.219652	10828.9	5.17115	10834.1
10002.2	2.39631	1.08725	2.63143	-24.4047	4.60252	0.219535	0.0108897	14.635	2.49845	1	9	0.00521011	0.00197996	0	-8.10306e-06	-9.38465e-06	1.2117e-05	-64.941	0.00611984	0.00259206	0.00554379	-24.4912	2.63608	2.3989	1.0928	0.346067	0.157017	0.380022	24.4047	2498.45	5506.6	6046.89	-65.5953	0.0000000E+000	0.0000000E+000	0.0000000E+000	65.5953	0.0000000E+000	0.0000000E+000	0.0000000E+000	-65.5953	0.0000000E+000	0.0000000E+000	0.0000000E+000	-24.4047	0.0000000E+000	0.0000000E+000	0.0000000E+000	24.4047	2.20401	65.5953	2.64872e-06	2.39067e-06	-1.02196e-10	2.39077e-06	0.219544	20159.8	0.86179	20160.7
3163.08	3.21285	1.60311	3.59059	-26.5178	5.62666	0.21942	-0.0360324	31.3867	6.25664	1	9	0.00498579	0.00138857	0	-1.3183e-05	0.000181527	6.88966e-06	-73.6398	0.00496169	0.00139758	0.00476079	-26.5757	3.59397	3.21425	1.60787	0.249206	0.124346	0.278506	26.5178	6256.64	12539.1	14013.4	-63.4822	0.0000000E+000	0.0000000E+000	0.0000000E+000	63.4822	0.0000000E+000	0.0000000E+000	0.0000000E+000	-63.4822	0.0000000E+000	0.0000000E+000	0.0000000E+000	-26.5178	0.0000000E+000	0.0000000E+000	0.0000000E+000	26.5178	2.00413	63.4822	-3.6433e-06	-7.90625e-06	-6.54088e-09	-7.89971e-06	0.219239	6089.52	5.03789	6084.48
1000.32	4.35141	2.5502	5.04364	-30.373	7.22482	0.219474	-0.0142032	62.3888	15.9502	1	10	0.00480941	0.00095356	0	-1.98107e-05	-0.000143023	9.30057e-06	-79.0584	0.00975353	0.0018513	0.00957622	-30.4561	5.05008	4.35326	2.55978	0.171057	0.10025	0.198269	30.373	15950.2	27215.9	31545.5	-59.627	0.0000000E+000	0.0000000E+000	0.0000000E+000	59.627	0.0000000E+000	0.0000000E+000	0.0000000E+000	-59.627	0.0000000E+000	0.0000000E+000	0.0000000E+000	-30.373	0.0000000E+000	0.0000000E+000	0.0000000E+000	30.373	1.7063	59.627	-9.09189e-07	-3.11723e-06	2.03139e-09	-3.11926e-06	0.219617	15452.4	10.0698	15462.5
316.316	6.03822	4.67742	7.63796	-37.7627	8.57407	0.219497	-0.0138123	107.57	40.3414	1	10	0.00467403	0.000611948	0	-2.49235e-05	-4.75671e-05	7.74265e-06	-88.4095	0.0126525	0.000351186	0.0126476	-37.836	7.64599	6.03857	4.69007	0.103503	0.0801774	0.130925	37.7627	40341.4	52077.9	65875.2	-52.2373	0.0000000E+000	0.0000000E+000	0.0000000E+000	52.2373	0.0000000E+000	0.0000000E+000	0.0000000E+000	-52.2373	0.0000000E+000	0.0000000E+000	0.0000000E+000	-37.7627	0.0000000E+000	0.0000000E+000	0.0000000E+000	37.7627	1.29093	52.2373	-1.21233e-06	-3.03175e-06	6.5701e-10	-3.0324e-06	0.219544	15891.4	3.44383	15894.9
100.032	10.0038	9.58577	13.8551	-43.7775	9.9218	0.219489	-0.013708	165.979	79.4492	1	10	0.00463124	0.000334263	0	-3.01346e-05	-0.000123932	6.18772e-06	63.4316	0.0185115	0.00827958	-0.0165567	-43.7043	13.8496	10.0121	9.56921	0.0521132	0.0499354	0.0721756	43.7775	79449.2	82914.1	114834	-46.2225	0.0000000E+000	0.0000000E+000	0.0000000E+000	46.2225	0.0000000E+000	0.0000000E+000	0.0000000E+000	-46.2225	0.0000000E+000	0.0000000E+000	0.0000000E+000	-43.7775	0.0000000E+000	0.0000000E+000	0.0000000E+000	43.7775	1.04361	46.2225	-1.24823e-06	-3.00876e-06	1.69886e-09	-3.01046e-06	0.219613	16011.7	9.04083	16020.8
31.6296	21.3652	14.8159	25.9997	-34.7398	11.4905	0.21949	-0.00830742	339.624	110.286	1	11	0.00464201	0.000178541	0	-3.44207e-05	9.70657e-06	8.06325e-06	56.4199	0.045162	0.0249792	-0.037625	-34.6403	25.9988	21.3902	14.7783	0.0316061	0.0219176	0.038462	34.7398	110286	159037	193535	-55.2602	0.0000000E+000	0.0000000E+000	0.0000000E+000	55.2602	0.0000000E+000	0.0000000E+000	0.0000000E+000	-55.2602	0.0000000E+000	0.0000000E+000	0.0000000E+000	-34.7398	0.0000000E+000	0.0000000E+000	0.0000000E+000	34.7398	1.44204	55.2602	-1.14625e-06	-1.82339e-06	-8.06365e-11	-1.82331e-06	0.21948	26420.9	1.16842	26419.8
10.0032	34.1757	11.2544	35.9811	-18.2272	12.8228	0.219498	-0.00773591	1413.71	138.31	1	11	0.00462303	0.000128485	0	-3.64842e-05	6.69802e-05	9.75426e-06	-46.2259	0.0759176	0.0525211	0.0548181	-18.2838	36.0482	34.2283	11.3092	0.0263978	0.00869304	0.0277923	18.2272	138310	420000	442187	-71.7728	0.0000000E+000	0.0000000E+000	0.0000000E+000	71.7728	0.0000000E+000	0.0000000E+000	0.0000000E+000	-71.7728	0.0000000E+000	0.0000000E+000	0.0000000E+000	-18.2272	0.0000000E+000	0.0000000E+000	0.0000000E+000	18.2272	3.03666	71.7728	-5.82559e-07	-1.69802e-06	-5.18153e-10	-1.6975e-06	0.219431	28373.9	8.65835	28365.3
3.1604	39.7039	5.91552	40.1422	-8.47421	14.3394	0.219495	-0.00742446	8513.05	184.871	1	11	0.00462771	0.000115283	0	-4.08439e-05	-0.000104841	8.06781e-06	-34.9681	0.0699827	0.0573489	0.0401085	-8.5187	40.2048	39.7613	5.95563	0.0246395	0.00367106	0.0249114	8.47421	184871	1.24082e+06	1.25452e+06	-81.5258	0.0000000E+000	0.0000000E+000	0.0000000E+000	81.5258	0.0000000E+000	0.0000000E+000	0.0000000E+000	-81.5258	0.0000000E+000	0.0000000E+000	0.0000000E+000	-8.47421	0.0000000E+000	0.0000000E+000	0.0000000E+000	8.47421	6.71182	81.5258	-1.51583e-06	-1.62963e-06	7.78386e-10	-1.63041e-06	0.2196	29563.8	14.121	29577.9
1.00006	41.9366	3.47625	42.0805	-4.73858	19.6607	0.219504	-0.0057611	45780.6	312.423	1	12	0.00462955	0.000110017	0	-4.61085e-05	-0.000143023	2.70817e-06	-48.7904	0.024616	0.0162174	0.0185187	-4.76188	42.0982	41.9528	3.49477	0.0236828	0.00196314	0.023764	4.73858	312423	3.76899e+06	3.78192e+06	-85.2614	0.0000000E+000	0.0000000E+000	0.0000000E+000	85.2614	0.0000000E+000	0.0000000E+000	0.0000000E+000	-85.2614	0.0000000E+000	0.0000000E+000	0.0000000E+000	-4.73858	0.0000000E+000	0.0000000E+000	0.0000000E+000	4.73858	12.0637	85.2614	-4.08331e-06	-1.26459e-06	8.2397e-10	-1.26541e-06	0.219647	38101.1	24.8257	38125.9
0.316193	43.5412	2.9108	43.6383	-3.82463	34.004	0.219494	-0.00515289	172924	769.386	1	12	0.00463373	0.000106185	0	-8.41851e-05	-0.000200297	1.93645e-06	-7.46709	0.0182366	0.0180819	0.00236996	-3.82615	43.6565	43.5592	2.91317	0.0228646	0.00152854	0.0229156	3.82463	769385	1.15088e+07	1.15345e+07	-86.1754	0.0000000E+000	0.0000000E+000	0.0000000E+000	86.1754	0.0000000E+000	0.0000000E+000	0.0000000E+000	-86.1754	0.0000000E+000	0.0000000E+000	0.0000000E+000	-3.82463	0.0000000E+000	0.0000000E+000	0.0000000E+000	3.82463	14.9585	86.1754	-1.60913e-05	-1.13103e-06	1.03211e-09	-1.13206e-06	0.219695	42596.4	38.8708	42635.2
0.0999041	45.1194	4.05912	45.3016	-5.14073	79.2119	0.219497	-0.00403569	392468	3150.96	1	12	0.00463447	0.000102303	0	-0.000101169	4.7889e-05	1.69254e-06	9.47924	0.0165445	0.0163185	-0.00272471	-5.13545	45.3176	45.1357	4.0564	0.0219855	0.00197791	0.0220743	5.14073	3.15096e+06	3.50246e+07	3.5166e+07	-84.8593	0.0000000E+000	0.0000000E+000	0.0000000E+000	84.8593	0.0000000E+000	0.0000000E+000	0.0000000E+000	-84.8593	0.0000000E+000	0.0000000E+000	0.0000000E+000	-5.14073	0.0000000E+000	0.0000000E+000	0.0000000E+000	5.14073	11.1155	84.8593	3.14855e-06	-8.85824e-07	-1.93265e-10	-8.85631e-07	0.21945	54389	11.8664	54377.2
0.0315922	47.9082	7.42736	48.4805	-8.81259	222.096	0.219498	-0.000895772	678275	15919.9	1	12	0.0046318	9.55395e-05	0	-0.000118367	0.000200619	2.30722e-06	28.1987	0.0241493	0.0212832	-0.0114113	-8.79541	48.4998	47.9295	7.41595	0.0203833	0.00316009	0.0206268	8.81259	1.59199e+07	1.02687e+08	1.03914e+08	-81.1874	0.0000000E+000	0.0000000E+000	0.0000000E+000	81.1874	0.0000000E+000	0.0000000E+000	0.0000000E+000	-81.1874	0.0000000E+000	0.0000000E+000	0.0000000E+000	-8.81259	0.0000000E+000	0.0000000E+000	0.0000000E+000	8.81259	6.45023	81.1874	-3.12527e-05	-1.9662e-07	-1.79709e-10	-1.96441e-07	0.219298	245038	223.962	244814
0.0100092	53.0782	15.2601	55.2283	-16.0401	673.319	0.219499	-0.000184301	1.04199e+06	79552.8	1	12	0.00463087	8.38495e-05	0	-0.000607767	0.000181527	1.5364e-06	56.5652	0.0183233	0.0100959	-0.015291	-16.0219	55.2338	53.0883	15.2448	0.0174017	0.00500303	0.0181066	16.0401	7.95528e+07	2.76703e+08	2.87912e+08	-73.9599	0.0000000E+000	0.0000000E+000	0.0000000E+000	73.9599	0.0000000E+000	0.0000000E+000	0.0000000E+000	-73.9599	0.0000000E+000	0.0000000E+000	0.0000000E+000	-16.0401	0.0000000E+000	0.0000000E+000	0.0000000E+000	16.0401	3.47824	73.9599	-0.000205191	-4.04541e-08	-3.34558e-11	-4.04206e-08	0.219318	1.19098e+06	984.949	1.19e+06