File: txt/19507_R316_UA717_SOC00_C01.mpt
EC-Lab ASCII FILE
Nb header lines : 65

Potentio Electrochemical Impedance Spectroscopy

Run on channel : 1 (SN 66354)
User :
CE vs. WE compliance from -10 V to 10 V
Electrode connection : standard
Potential control : Ewe
Ewe ctrl range : min = -10.00 V, max = 10.00 V
Safety Limits :
	Do not start on E overload
Acquisition started on : 12/04/2025 15:42:20.320
Technique started on : 12/04/2025 15:42:22.231
Loaded Setting File :  C:\Users\Celltest\OneDrive - store-dot.com\Documents\EC-Lab\Data\@Biologic Test Protocols\anode half cell EIS SOC00.mps
Saved on :
	File : 19507_R316_UA717_SOC00_C01.mpr
	Directory : C:\Users\Celltest\OneDrive - store-dot.com\Documents\EC-Lab\Data\Charmaine\
	Host : 169.254.61.224
Device : VMP-3e (SN .003165)
Address : USB
EC-LAB for windows v11.62 (software)
Internet server v27.00 (firmware)
Command interpretor v12.03 (firmware)
Electrode material :
Initial state :
Electrolyte :
Comments :
Electrode surface area : 0.001 cm²
Characteristic mass : 0.001 g
Equivalent Weight : 0.000 g/eq.
Density : 0.000 g/cm3
Volume (V) : 0.001 cm³
Record Ece
Cycle Definition : Charge/Discharge alternance
Mode                Single sine
E (V)               0.0000
vs.                 Eoc
tE (h:m:s)          0:00:0.0000
record              0
dI                  0.000
unit dI             mA
dt (s)              0.000
fi                  100.000
unit fi             kHz
ff                  10.000
unit ff             mHz
Nd                  6
Points              per decade
spacing             Logarithmic
Va (mV)             5.0
pw                  0.10
Na                  2
corr                0
E range min (V)     -10.000
E range max (V)     10.000
I Range             Auto
Bandwidth           5
nc cycles           0
goto Ns'            0
nr cycles           0
inc. cycle          0

freq/Hz	Re(Z)/Ohm	-Im(Z)/Ohm	|Z|/Ohm	Phase(Z)/deg	time/s	<Ewe>/V	<I>/mA	Cs/µF	Cp/µF	cycle number	I Range	|Ewe|/V	|I|/A	Ns	(Q-Qo)/mA.h	<Ece>/V	|Ece|/V	Phase(Zce)/deg	|Zce|/Ohm	Re(Zce)/Ohm	-Im(Zce)/Ohm	Phase(Zwe-ce)/deg	|Zwe-ce|/Ohm	Re(Zwe-ce)/Ohm	-Im(Zwe-ce)/Ohm	Re(Y)/Ohm-1	Im(Y)/Ohm-1	|Y|/Ohm-1	Phase(Y)/deg	Re(C)/nF	Im(C)/nF	|C|/nF	Phase(C)/deg	Re(M)	Im(M)	|M|	Phase(M)/deg	Re(Permittivity)	Im(Permittivity)	|Permittivity|	Phase(Permittivity)/deg	Re(Resistivity)/Ohm.cm	Im(Resistivity)/Ohm.cm	|Resistivity|/Ohm.cm	Phase(Resistivity)/deg	Re(Conductivity)/mS/cm	Im(Conductivity)/mS/cm	|Conductivity|/mS/cm	Phase(Conductivity)/deg	Tan(Delta)	Loss Angle(Delta)/deg	dq/mA.h	Pwe/W	Pce/W	Pwe-ce/W	<Ewe-Ece>/V	Rwe/Ohm	Rce/Ohm	Rwe-ce/Ohm		Ewe-Ece/V
100004	1.49255	0.53809	1.58658	-19.8251	1.91054	0.281677	0.0784531	2.95767	0.340198	1	9	0.00473385	0.00298367	0	1.09424e-05	0.000392232	3.80532e-05	93.9283	0.0127538	-0.000873738	-0.0127239	-19.4022	1.58149	1.49168	0.525366	0.592929	0.213761	0.630285	19.8251	340.198	943.641	1003.09	-70.1749	0.0000000E+000	0.0000000E+000	0.0000000E+000	70.1749	0.0000000E+000	0.0000000E+000	0.0000000E+000	-70.1749	0.0000000E+000	0.0000000E+000	0.0000000E+000	-19.8251	0.0000000E+000	0.0000000E+000	0.0000000E+000	19.8251	2.7738	70.1749	1.09424e-05	2.20984e-05	3.07718e-08	2.20677e-05	0.281285	3590.39	4.99957	3585.39
31621.1	1.96349	0.839698	2.13551	-23.1542	3.43156	0.281689	0.0791609	5.99404	0.926749	1	9	0.00534855	0.00250458	0	5.22323e-05	0.000296845	2.39547e-05	20.1487	0.00956436	0.00897904	-0.00329451	-22.9788	2.14248	1.97247	0.836403	0.430553	0.184128	0.468272	23.1542	926.749	2167.05	2356.9	-66.8458	0.0000000E+000	0.0000000E+000	0.0000000E+000	66.8458	0.0000000E+000	0.0000000E+000	0.0000000E+000	-66.8458	0.0000000E+000	0.0000000E+000	0.0000000E+000	-23.1542	0.0000000E+000	0.0000000E+000	0.0000000E+000	23.1542	2.33834	66.8458	9.05559e-06	2.22988e-05	2.34986e-08	2.22753e-05	0.281393	3558.44	3.7499	3554.69
10002.2	2.60078	1.08895	2.81955	-22.7191	4.45854	0.281695	0.078304	14.6122	2.17958	1	9	0.00498826	0.00176917	0	7.38353e-05	0.000106072	1.00675e-05	-135.001	0.00569055	-0.00402393	0.00402372	-22.8262	2.8174	2.59675	1.09297	0.327148	0.136977	0.354667	22.7191	2179.58	5205.56	5643.44	-67.2809	0.0000000E+000	0.0000000E+000	0.0000000E+000	67.2809	0.0000000E+000	0.0000000E+000	0.0000000E+000	-67.2809	0.0000000E+000	0.0000000E+000	0.0000000E+000	-22.7191	0.0000000E+000	0.0000000E+000	0.0000000E+000	22.7191	2.38834	67.2809	8.79221e-06	2.20579e-05	8.30589e-09	2.20496e-05	0.281589	3597.46	1.35462	3596.1
3163.08	3.40866	1.5398	3.74031	-24.3102	5.35462	0.281499	0.0663826	32.6773	5.53805	1	9	0.00462951	0.00123773	0	9.20663e-05	-8.3915e-06	3.8451e-06	-18.5567	0.00310657	0.00294506	0.000988644	-24.3054	3.74341	3.41161	1.54079	0.243651	0.110064	0.267357	24.3102	5538.05	12259.6	13452.5	-65.6899	0.0000000E+000	0.0000000E+000	0.0000000E+000	65.6899	0.0000000E+000	0.0000000E+000	0.0000000E+000	-65.6899	0.0000000E+000	0.0000000E+000	0.0000000E+000	-24.3102	0.0000000E+000	0.0000000E+000	0.0000000E+000	24.3102	2.21371	65.6899	7.89542e-06	1.86866e-05	-5.5705e-10	1.86872e-05	0.281507	4240.55	0.126411	4240.67
1000.32	4.43212	2.44667	5.0626	-28.9001	6.95381	0.281629	-0.00747295	65.0288	15.1883	1	10	0.00465125	0.000918748	0	9.76728e-05	2.97631e-05	4.08955e-06	-73.4872	0.00445122	0.00126517	0.00426764	-28.9354	5.06577	4.43338	2.45094	0.172928	0.0954616	0.197527	28.9001	15188.3	27513.5	31427.4	-61.0999	0.0000000E+000	0.0000000E+000	0.0000000E+000	61.0999	0.0000000E+000	0.0000000E+000	0.0000000E+000	-61.0999	0.0000000E+000	0.0000000E+000	0.0000000E+000	-28.9001	0.0000000E+000	0.0000000E+000	0.0000000E+000	28.9001	1.81149	61.0999	-1.70135e-06	-2.1046e-06	-2.22418e-10	-2.10437e-06	0.281599	37686.4	3.98278	37682.4
316.316	5.90025	4.77675	7.59146	-38.9931	8.30407	0.281604	-0.00959359	105.333	41.7043	1	10	0.00459063	0.000604709	0	9.48783e-05	0.000468541	8.6366e-06	25.8554	0.0142822	0.0128525	-0.00622851	-38.8956	7.59754	5.9131	4.77053	0.102381	0.0828862	0.131727	38.9931	41704.3	51513.2	66278.7	-51.0069	0.0000000E+000	0.0000000E+000	0.0000000E+000	51.0069	0.0000000E+000	0.0000000E+000	0.0000000E+000	-51.0069	0.0000000E+000	0.0000000E+000	0.0000000E+000	-38.9931	0.0000000E+000	0.0000000E+000	0.0000000E+000	38.9931	1.2352	51.0069	-9.83181e-07	-2.70159e-06	-4.49499e-09	-2.6971e-06	0.281135	29353.3	48.839	29304.5
100.032	9.91378	10.3841	14.3566	-46.3274	9.65184	0.281608	-0.0116061	153.219	80.1577	1	10	0.00456405	0.000317905	0	9.07766e-05	0.000296845	1.28584e-05	-103.119	0.0404472	-0.0091806	0.0393915	-46.4622	14.3788	9.9046	10.4235	0.0480988	0.0503807	0.0696542	46.3274	80157.7	76527.1	110823	-43.6726	0.0000000E+000	0.0000000E+000	0.0000000E+000	43.6726	0.0000000E+000	0.0000000E+000	0.0000000E+000	-43.6726	0.0000000E+000	0.0000000E+000	0.0000000E+000	-46.3274	0.0000000E+000	0.0000000E+000	0.0000000E+000	46.3274	0.954706	43.6726	-9.20425e-07	-3.26838e-06	-3.44523e-09	-3.26494e-06	0.281311	24263.7	25.5766	24238.1
31.6296	22.2686	16.9131	27.9633	-37.2167	11.2206	0.281664	-0.00228615	297.512	108.836	1	11	0.00456063	0.000163094	0	8.93652e-05	0.000277768	6.1204e-06	57.3618	0.037527	0.0202395	-0.0316012	-37.1401	27.9603	22.2889	16.8815	0.0284785	0.0216295	0.0357612	37.2167	108836	143300	179945	-52.7833	0.0000000E+000	0.0000000E+000	0.0000000E+000	52.7833	0.0000000E+000	0.0000000E+000	0.0000000E+000	-52.7833	0.0000000E+000	0.0000000E+000	0.0000000E+000	-37.2167	0.0000000E+000	0.0000000E+000	0.0000000E+000	37.2167	1.31665	52.7833	-6.12368e-07	-6.43927e-07	-6.3502e-10	-6.43292e-07	0.281386	123204	121.5	123083
10.0032	37.4207	14.4789	40.1241	-21.1526	12.5518	0.281678	-0.00193201	1098.87	143.089	1	11	0.00456594	0.000113795	0	8.93609e-05	4.88404e-05	8.01236e-06	-35.9555	0.0704102	0.0569952	0.0413418	-21.1782	40.1922	37.4777	14.5202	0.0232435	0.00899341	0.0249227	21.1526	143089	369813	396530	-68.8474	0.0000000E+000	0.0000000E+000	0.0000000E+000	68.8474	0.0000000E+000	0.0000000E+000	0.0000000E+000	-68.8474	0.0000000E+000	0.0000000E+000	0.0000000E+000	-21.1526	0.0000000E+000	0.0000000E+000	0.0000000E+000	21.1526	2.5845	68.8474	6.48509e-07	-5.44205e-07	-9.43601e-11	-5.4411e-07	0.281629	145795	25.2796	145770
3.1604	45.7643	9.12106	46.6643	-11.2717	14.0674	0.28168	-0.000529584	5521.2	210.937	1	11	0.00456419	9.7809e-05	0	8.87134e-05	0.000106072	4.4198e-06	-66.8604	0.045188	0.0177577	0.0415527	-11.3174	46.6899	45.782	9.16261	0.0210163	0.00418866	0.0214296	11.2717	210937	1.05836e+06	1.07918e+06	-78.7283	0.0000000E+000	0.0000000E+000	0.0000000E+000	78.7283	0.0000000E+000	0.0000000E+000	0.0000000E+000	-78.7283	0.0000000E+000	0.0000000E+000	0.0000000E+000	-11.2717	0.0000000E+000	0.0000000E+000	0.0000000E+000	11.2717	5.01743	78.7283	8.49164e-07	-1.49173e-07	-5.61742e-11	-1.49117e-07	0.281574	531890	200.294	531690
1.00006	50.312	6.06623	50.6763	-6.87509	19.3879	0.281681	-0.000366407	26234.6	375.924	1	12	0.00456532	9.00878e-05	0	8.78536e-05	0.000468541	4.96349e-06	27.9017	0.0550962	0.0486913	-0.0257826	-6.8396	50.7216	50.3606	6.04044	0.0195912	0.00236215	0.0197331	6.87509	375924	3.11783e+06	3.14042e+06	-83.1249	0.0000000E+000	0.0000000E+000	0.0000000E+000	83.1249	0.0000000E+000	0.0000000E+000	0.0000000E+000	-83.1249	0.0000000E+000	0.0000000E+000	0.0000000E+000	-6.87509	0.0000000E+000	0.0000000E+000	0.0000000E+000	6.87509	8.29378	83.1249	-2.74408e-06	-1.0321e-07	-1.71677e-10	-1.03038e-07	0.281212	768765	1278.75	767486
0.316193	53.4078	4.97688	53.6392	-5.32381	33.7301	0.281679	-0.000763629	101137	870.683	1	12	0.00456554	8.51157e-05	0	7.90209e-05	1.06858e-05	2.26942e-06	15.8954	0.0266628	0.0256433	-0.00730247	-5.31351	53.6641	53.4335	4.96958	0.0185627	0.00172979	0.0186431	5.32381	870684	9.34346e+06	9.38394e+06	-84.6762	0.0000000E+000	0.0000000E+000	0.0000000E+000	84.6762	0.0000000E+000	0.0000000E+000	0.0000000E+000	-84.6762	0.0000000E+000	0.0000000E+000	0.0000000E+000	-5.32381	0.0000000E+000	0.0000000E+000	0.0000000E+000	5.32381	10.7312	84.6762	-6.71235e-07	-2.15099e-07	-8.16e-12	-2.15091e-07	0.281669	368869	13.9934	368855
0.0999041	56.1105	5.94908	56.425	-6.05214	78.9391	0.281678	-0.000326778	267785	2976.76	1	12	0.00456611	8.09234e-05	0	0.000114888	0.000201459	3.28269e-06	-5.14319	0.0405653	0.040402	0.00363648	-6.05148	56.4656	56.1509	5.95272	0.0176239	0.00186856	0.0177226	6.05214	2.97676e+06	2.80762e+07	2.82335e+07	-83.9479	0.0000000E+000	0.0000000E+000	0.0000000E+000	83.9479	0.0000000E+000	0.0000000E+000	0.0000000E+000	-83.9479	0.0000000E+000	0.0000000E+000	0.0000000E+000	-6.05214	0.0000000E+000	0.0000000E+000	0.0000000E+000	6.05214	9.4318	83.9479	1.7109e-05	-9.20462e-08	-6.58323e-11	-9.19803e-08	0.281477	861988	616.501	861371
0.0315922	59.967	10.3417	60.8522	-9.78475	221.822	0.281676	0.000566844	487136	14069.5	1	12	0.00456484	7.50151e-05	0	7.68746e-05	0.000468541	2.77348e-06	8.54187	0.0369723	0.0365622	-0.00549157	-9.77381	60.8873	60.0036	10.3362	0.0161942	0.00279278	0.0164333	9.78475	1.40695e+07	8.1583e+07	8.27873e+07	-80.2153	0.0000000E+000	0.0000000E+000	0.0000000E+000	80.2153	0.0000000E+000	0.0000000E+000	0.0000000E+000	-80.2153	0.0000000E+000	0.0000000E+000	0.0000000E+000	-9.78475	0.0000000E+000	0.0000000E+000	0.0000000E+000	9.78475	5.79859	80.2153	-4.4144e-05	1.59666e-07	2.6559e-10	1.59401e-07	0.281207	496920	826.579	496093
0.0100092	66.7479	20.408	69.7981	-17.0008	673.044	0.281668	-0.000411373	779152	66609.3	1	12	0.00456456	6.53967e-05	0	-0.00016443	0.000449464	2.00501e-06	-19.0231	0.0306593	0.0289849	0.00999338	-17.0017	69.8287	66.7769	20.418	0.013701	0.00418902	0.014327	17.0008	6.66093e+07	2.17858e+08	2.27813e+08	-72.9992	0.0000000E+000	0.0000000E+000	0.0000000E+000	72.9992	0.0000000E+000	0.0000000E+000	0.0000000E+000	-72.9992	0.0000000E+000	0.0000000E+000	0.0000000E+000	-17.0008	0.0000000E+000	0.0000000E+000	0.0000000E+000	17.0008	3.27068	72.9992	-5.01264e-05	-1.15871e-07	-1.84897e-10	-1.15686e-07	0.281219	684704	1092.6	683611