File: txt/19508_R316_UA717_SOC00_C02.mpt
EC-Lab ASCII FILE
Nb header lines : 65

Potentio Electrochemical Impedance Spectroscopy

Run on channel : 2 (SN 66139)
User :
CE vs. WE compliance from -10 V to 10 V
Electrode connection : standard
Potential control : Ewe
Ewe ctrl range : min = -10.00 V, max = 10.00 V
Safety Limits :
	Do not start on E overload
Acquisition started on : 12/04/2025 15:42:28.371
Technique started on : 12/04/2025 15:42:30.098
Loaded Setting File :  C:\Users\Celltest\OneDrive - store-dot.com\Documents\EC-Lab\Data\@Biologic Test Protocols\anode half cell EIS SOC00.mps
Saved on :
	File : 19508_R316_UA717_SOC00_C02.mpr
	Directory : C:\Users\Celltest\OneDrive - store-dot.com\Documents\EC-Lab\Data\Charmaine\
	Host : 169.254.61.224
Device : VMP-3e (SN .003165)
Address : USB
EC-LAB for windows v11.62 (software)
Internet server v27.00 (firmware)
Command interpretor v12.03 (firmware)
Electrode material :
Initial state :
Electrolyte :
Comments :
Electrode surface area : 0.001 cm²
Characteristic mass : 0.001 g
Equivalent Weight : 0.000 g/eq.
Density : 0.000 g/cm3
Volume (V) : 0.001 cm³
Record Ece
Cycle Definition : Charge/Discharge alternance
Mode                Single sine
E (V)               0.0000
vs.                 Eoc
tE (h:m:s)          0:00:0.0000
record              0
dI                  0.000
unit dI             mA
dt (s)              0.000
fi                  100.000
unit fi             kHz
ff                  10.000
unit ff             mHz
Nd                  6
Points              per decade
spacing             Logarithmic
Va (mV)             5.0
pw                  0.10
Na                  2
corr                0
E range min (V)     -10.000
E range max (V)     10.000
I Range             Auto
Bandwidth           5
nc cycles           0
goto Ns'            0
nr cycles           0
inc. cycle          0

freq/Hz	Re(Z)/Ohm	-Im(Z)/Ohm	|Z|/Ohm	Phase(Z)/deg	time/s	<Ewe>/V	<I>/mA	Cs/µF	Cp/µF	cycle number	I Range	|Ewe|/V	|I|/A	Ns	(Q-Qo)/mA.h	<Ece>/V	|Ece|/V	Phase(Zce)/deg	|Zce|/Ohm	Re(Zce)/Ohm	-Im(Zce)/Ohm	Phase(Zwe-ce)/deg	|Zwe-ce|/Ohm	Re(Zwe-ce)/Ohm	-Im(Zwe-ce)/Ohm	Re(Y)/Ohm-1	Im(Y)/Ohm-1	|Y|/Ohm-1	Phase(Y)/deg	Re(C)/nF	Im(C)/nF	|C|/nF	Phase(C)/deg	Re(M)	Im(M)	|M|	Phase(M)/deg	Re(Permittivity)	Im(Permittivity)	|Permittivity|	Phase(Permittivity)/deg	Re(Resistivity)/Ohm.cm	Im(Resistivity)/Ohm.cm	|Resistivity|/Ohm.cm	Phase(Resistivity)/deg	Re(Conductivity)/mS/cm	Im(Conductivity)/mS/cm	|Conductivity|/mS/cm	Phase(Conductivity)/deg	Tan(Delta)	Loss Angle(Delta)/deg	dq/mA.h	Pwe/W	Pce/W	Pwe-ce/W	<Ewe-Ece>/V	Rwe/Ohm	Rce/Ohm	Rwe-ce/Ohm		Ewe-Ece/V
100004	1.27568	0.519462	1.37739	-22.1563	1.72652	0.272648	-0.0138532	3.06373	0.435757	1	9	0.00469657	0.00340976	0	5.41964e-07	0.000402778	2.05342e-05	95.7524	0.00602218	-0.000603599	-0.00599186	-21.9345	1.37458	1.27508	0.51347	0.672401	0.273804	0.726011	22.1563	435.757	1070.12	1155.44	-67.8437	0.0000000E+000	0.0000000E+000	0.0000000E+000	67.8437	0.0000000E+000	0.0000000E+000	0.0000000E+000	-67.8437	0.0000000E+000	0.0000000E+000	0.0000000E+000	-22.1563	0.0000000E+000	0.0000000E+000	0.0000000E+000	22.1563	2.45577	67.8437	5.41964e-07	-3.77705e-06	-5.57975e-09	-3.77147e-06	0.272246	19681.3	29.0748	19652.2
31621.1	1.73038	0.722302	1.87508	-22.6568	3.24956	0.27264	-0.00595705	6.96825	1.034	1	9	0.00521229	0.00277976	0	-2.86521e-05	0.00023096	1.89552e-05	1.92326	0.00681902	0.00681517	-0.000228853	-22.5704	1.88129	1.7372	0.722073	0.492153	0.205436	0.533309	22.6568	1034	2477.1	2684.24	-67.3432	0.0000000E+000	0.0000000E+000	0.0000000E+000	67.3432	0.0000000E+000	0.0000000E+000	0.0000000E+000	-67.3432	0.0000000E+000	0.0000000E+000	0.0000000E+000	-22.6568	0.0000000E+000	0.0000000E+000	0.0000000E+000	22.6568	2.39565	67.3432	-6.77539e-06	-1.62413e-06	-1.37584e-09	-1.62276e-06	0.272409	45767.7	38.7709	45728.9
10002.2	2.29776	0.968749	2.49362	-22.8606	4.27455	0.272645	-0.000705409	16.4253	2.47898	1	9	0.00490843	0.00196839	0	-2.72739e-05	-5.54027e-05	5.22379e-06	-63.3625	0.00265384	0.00118983	0.00237216	-22.9002	2.49564	2.29895	0.971121	0.369523	0.155793	0.401023	22.8606	2478.98	5879.84	6381.05	-67.1394	0.0000000E+000	0.0000000E+000	0.0000000E+000	67.1394	0.0000000E+000	0.0000000E+000	0.0000000E+000	-67.1394	0.0000000E+000	0.0000000E+000	0.0000000E+000	-22.8606	0.0000000E+000	0.0000000E+000	0.0000000E+000	22.8606	2.37188	67.1394	1.63741e-06	-1.92326e-07	3.90816e-11	-1.92365e-07	0.2727	386506	78.5399	386584
3163.08	3.02085	1.40537	3.33176	-24.9489	5.35064	0.272437	-0.0426071	35.8031	6.37019	1	9	0.00498449	0.00149605	0	-3.73531e-05	0.000192778	6.03234e-06	-23.7463	0.00403217	0.0036908	0.00162371	-24.9474	3.33579	3.02455	1.40699	0.272134	0.126603	0.300142	24.9489	6370.19	13692.8	15102.1	-65.0511	0.0000000E+000	0.0000000E+000	0.0000000E+000	65.0511	0.0000000E+000	0.0000000E+000	0.0000000E+000	-65.0511	0.0000000E+000	0.0000000E+000	0.0000000E+000	-24.9489	0.0000000E+000	0.0000000E+000	0.0000000E+000	24.9489	2.14951	65.0511	-7.76212e-06	-1.16078e-05	-8.21371e-09	-1.15995e-05	0.272245	6394.19	4.52456	6389.66
1000.32	3.92007	2.22349	4.50676	-29.5623	6.94885	0.272574	-0.0197211	71.5558	17.4176	1	10	0.00501701	0.00111322	0	-3.92238e-05	0.000307323	4.14085e-06	-94.3587	0.00371971	-0.000282699	0.00370895	-29.605	4.50834	3.91978	2.2272	0.193004	0.109473	0.221889	29.5623	17417.6	30707.6	35303.4	-60.4377	0.0000000E+000	0.0000000E+000	0.0000000E+000	60.4377	0.0000000E+000	0.0000000E+000	0.0000000E+000	-60.4377	0.0000000E+000	0.0000000E+000	0.0000000E+000	-29.5623	0.0000000E+000	0.0000000E+000	0.0000000E+000	29.5623	1.76302	60.4377	-3.13074e-06	-5.37544e-06	-6.06074e-09	-5.36938e-06	0.272266	13821.5	15.5835	13805.9
316.316	5.3126	4.45955	6.93623	-40.011	8.29802	0.272574	-0.0197993	112.826	46.6383	1	10	0.00493848	0.000711983	0	-4.62528e-05	1.86979e-06	7.66463e-06	-10.646	0.0107652	0.0105799	0.00198877	-39.9675	6.94562	5.32318	4.46154	0.110423	0.0926923	0.14417	40.011	46638.3	55559.6	72539.7	-49.989	0.0000000E+000	0.0000000E+000	0.0000000E+000	49.989	0.0000000E+000	0.0000000E+000	0.0000000E+000	-49.989	0.0000000E+000	0.0000000E+000	0.0000000E+000	-40.011	0.0000000E+000	0.0000000E+000	0.0000000E+000	40.011	1.19129	49.989	-2.87776e-06	-5.39678e-06	-3.70205e-11	-5.39674e-06	0.272572	13766.9	0.0944372	13766.8
100.032	9.45606	9.37599	13.3164	-44.7564	9.64584	0.272572	-0.0200861	169.693	84.125	1	10	0.00491091	0.000368787	0	-5.29848e-05	7.82332e-05	6.27996e-06	11.0457	0.0170287	0.0167132	-0.00326257	-44.6958	13.326	9.47277	9.37273	0.0533258	0.0528742	0.0750954	44.7564	84125	84843.4	119480	-45.2436	0.0000000E+000	0.0000000E+000	0.0000000E+000	45.2436	0.0000000E+000	0.0000000E+000	0.0000000E+000	-45.2436	0.0000000E+000	0.0000000E+000	0.0000000E+000	-44.7564	0.0000000E+000	0.0000000E+000	0.0000000E+000	44.7564	1.00854	45.2436	-2.79982e-06	-5.47492e-06	-1.5714e-09	-5.47335e-06	0.272494	13570.1	3.89488	13566.3
31.6296	20.4512	13.2269	24.3558	-32.893	11.2146	0.272611	-0.00767028	380.425	112.197	1	11	0.00491007	0.000201598	0	-5.82675e-05	0.000326414	4.06945e-06	-29.3436	0.0201859	0.017596	0.00989203	-32.89	24.3759	20.4688	13.2368	0.0344759	0.0222975	0.0410581	32.893	112197	173477	206598	-57.107	0.0000000E+000	0.0000000E+000	0.0000000E+000	57.107	0.0000000E+000	0.0000000E+000	0.0000000E+000	-57.107	0.0000000E+000	0.0000000E+000	0.0000000E+000	-32.893	0.0000000E+000	0.0000000E+000	0.0000000E+000	32.893	1.54618	57.107	-6.88995e-07	-2.091e-06	-2.50369e-09	-2.0885e-06	0.272285	35541.2	42.5557	35498.7
10.0032	31.0016	10.0714	32.5965	-17.9973	12.5468	0.27262	-0.00705172	1579.76	150.81	1	11	0.00489914	0.000150297	0	-6.18426e-05	-9.35844e-05	7.2229e-06	143.74	0.0480576	-0.0387509	-0.0284236	-17.9707	32.5508	30.9628	10.043	0.0291771	0.00947868	0.0306782	17.9973	150810	464220	488102	-72.0027	0.0000000E+000	0.0000000E+000	0.0000000E+000	72.0027	0.0000000E+000	0.0000000E+000	0.0000000E+000	-72.0027	0.0000000E+000	0.0000000E+000	0.0000000E+000	-17.9973	0.0000000E+000	0.0000000E+000	0.0000000E+000	17.9973	3.07819	72.0027	-1.31678e-06	-1.92244e-06	6.59931e-10	-1.9231e-06	0.272713	38660	13.2712	38673.3
3.1604	36.4871	6.2253	37.0143	-9.68237	14.0635	0.272627	-0.00594994	8089.44	228.822	1	11	0.00490781	0.000132592	0	-6.30626e-05	-3.63119e-05	3.48745e-06	-10.5836	0.0263021	0.0258546	0.00483089	-9.68301	37.0406	36.5129	6.23013	0.0266317	0.00454381	0.0270166	9.68237	228822	1.34115e+06	1.36053e+06	-80.3176	0.0000000E+000	0.0000000E+000	0.0000000E+000	80.3176	0.0000000E+000	0.0000000E+000	0.0000000E+000	-80.3176	0.0000000E+000	0.0000000E+000	0.0000000E+000	-9.68237	0.0000000E+000	0.0000000E+000	0.0000000E+000	9.68237	5.8611	80.3176	-1.09315e-06	-1.62212e-06	2.16054e-10	-1.62233e-06	0.272664	45820.1	6.1029	45826.2
1.00006	39.5073	4.23089	39.7332	-6.11259	19.3828	0.272629	-0.00521008	37615	426.498	1	12	0.00490925	0.000123555	0	-7.44829e-05	0.000192778	3.00252e-06	-60.7825	0.0243011	0.011862	0.0212093	-6.14117	39.7473	39.5192	4.2521	0.0250248	0.00267994	0.0251679	6.11259	426498	3.98256e+06	4.00533e+06	-83.8874	0.0000000E+000	0.0000000E+000	0.0000000E+000	83.8874	0.0000000E+000	0.0000000E+000	0.0000000E+000	-83.8874	0.0000000E+000	0.0000000E+000	0.0000000E+000	-6.11259	0.0000000E+000	0.0000000E+000	0.0000000E+000	6.11259	9.33782	83.8874	-2.16124e-06	-1.42042e-06	-1.00439e-09	-1.41942e-06	0.272437	52327.3	37.001	52290.3
0.316193	41.6312	3.68714	41.7942	-5.06129	33.726	0.272634	-0.0038886	136514	1062.49	1	12	0.00490935	0.000117465	0	-7.36444e-05	-7.44936e-05	1.50882e-06	-19.745	0.0128449	0.0120897	0.00433944	-5.06576	41.8066	41.6433	3.69148	0.0238335	0.00211085	0.0239268	5.06129	1.06249e+06	1.19965e+07	1.20435e+07	-84.9387	0.0000000E+000	0.0000000E+000	0.0000000E+000	84.9387	0.0000000E+000	0.0000000E+000	0.0000000E+000	-84.9387	0.0000000E+000	0.0000000E+000	0.0000000E+000	-5.06129	0.0000000E+000	0.0000000E+000	0.0000000E+000	5.06129	11.2909	84.9387	-5.31306e-07	-1.06016e-06	2.89675e-10	-1.06045e-06	0.272708	70111	19.1569	70130.2
0.0999041	43.7359	4.97692	44.0182	-6.49205	78.934	0.272629	-0.001833	320093	4091.99	1	12	0.00490863	0.000111514	0	-0.000147764	-1.72211e-05	1.95596e-06	-2.96825	0.0175401	0.0175165	0.00090827	-6.49064	44.0357	43.7534	4.97783	0.0225722	0.00256861	0.0227179	6.49205	4.09199e+06	3.59593e+07	3.61914e+07	-83.5079	0.0000000E+000	0.0000000E+000	0.0000000E+000	83.5079	0.0000000E+000	0.0000000E+000	0.0000000E+000	-83.5079	0.0000000E+000	0.0000000E+000	0.0000000E+000	-6.49205	0.0000000E+000	0.0000000E+000	0.0000000E+000	6.49205	8.78773	83.5079	-4.18943e-05	-4.9973e-07	3.15662e-11	-4.99762e-07	0.272646	148734	9.395	148743
0.0315922	47.2215	9.21709	48.1126	-11.0446	221.819	0.272621	-0.00180039	546570	20059.3	1	12	0.00490867	0.000102025	0	-0.000274983	0.000440959	2.29586e-06	50.9116	0.022503	0.0141886	-0.0174663	-11.021	48.1232	47.2357	9.19963	0.0203996	0.00398177	0.0207846	11.0446	2.00593e+07	1.02769e+08	1.04708e+08	-78.9554	0.0000000E+000	0.0000000E+000	0.0000000E+000	78.9554	0.0000000E+000	0.0000000E+000	0.0000000E+000	-78.9554	0.0000000E+000	0.0000000E+000	0.0000000E+000	-11.0446	0.0000000E+000	0.0000000E+000	0.0000000E+000	11.0446	5.12325	78.9554	-1.76508e-05	-4.90825e-07	-7.939e-10	-4.90032e-07	0.27218	151423	244.924	151178
0.0100092	52.9171	18.7096	56.1272	-19.4718	673.042	0.272607	8.82114e-05	849880	94436.5	1	12	0.004908	8.74443e-05	0	0.000131936	-5.54027e-05	1.56851e-06	-16.7299	0.0179373	0.017178	0.00516342	-19.4709	56.1451	52.9342	18.7148	0.0167977	0.00593906	0.0178167	19.4718	9.44364e+07	2.67098e+08	2.83301e+08	-70.5282	0.0000000E+000	0.0000000E+000	0.0000000E+000	70.5282	0.0000000E+000	0.0000000E+000	0.0000000E+000	-70.5282	0.0000000E+000	0.0000000E+000	0.0000000E+000	-19.4718	0.0000000E+000	0.0000000E+000	0.0000000E+000	19.4718	2.82834	70.5282	0.000195444	2.4047e-08	-4.88715e-12	2.40519e-08	0.272662	3.09038e+06	628.068	3.09101e+06