File: txt/19509_R316_UA717_SOC00_C03.mpt
EC-Lab ASCII FILE
Nb header lines : 65

Potentio Electrochemical Impedance Spectroscopy

Run on channel : 3 (SN 65921)
User :
CE vs. WE compliance from -10 V to 10 V
Electrode connection : standard
Potential control : Ewe
Ewe ctrl range : min = -10.00 V, max = 10.00 V
Safety Limits :
	Do not start on E overload
Acquisition started on : 12/04/2025 15:42:34.892
Technique started on : 12/04/2025 15:42:36.946
Loaded Setting File :  C:\Users\Celltest\OneDrive - store-dot.com\Documents\EC-Lab\Data\@Biologic Test Protocols\anode half cell EIS SOC00.mps
Saved on :
	File : 19509_R316_UA717_SOC00_C03.mpr
	Directory : C:\Users\Celltest\OneDrive - store-dot.com\Documents\EC-Lab\Data\Charmaine\
	Host : 169.254.61.224
Device : VMP-3e (SN .003165)
Address : USB
EC-LAB for windows v11.62 (software)
Internet server v27.00 (firmware)
Command interpretor v12.03 (firmware)
Electrode material :
Initial state :
Electrolyte :
Comments :
Electrode surface area : 0.001 cm²
Characteristic mass : 0.001 g
Equivalent Weight : 0.000 g/eq.
Density : 0.000 g/cm3
Volume (V) : 0.001 cm³
Record Ece
Cycle Definition : Charge/Discharge alternance
Mode                Single sine
E (V)               0.0000
vs.                 Eoc
tE (h:m:s)          0:00:0.0000
record              0
dI                  0.000
unit dI             mA
dt (s)              0.000
fi                  100.000
unit fi             kHz
ff                  10.000
unit ff             mHz
Nd                  6
Points              per decade
spacing             Logarithmic
Va (mV)             5.0
pw                  0.10
Na                  2
corr                0
E range min (V)     -10.000
E range max (V)     10.000
I Range             Auto
Bandwidth           5
nc cycles           0
goto Ns'            0
nr cycles           0
inc. cycle          0

freq/Hz	Re(Z)/Ohm	-Im(Z)/Ohm	|Z|/Ohm	Phase(Z)/deg	time/s	<Ewe>/V	<I>/mA	Cs/µF	Cp/µF	cycle number	I Range	|Ewe|/V	|I|/A	Ns	(Q-Qo)/mA.h	<Ece>/V	|Ece|/V	Phase(Zce)/deg	|Zce|/Ohm	Re(Zce)/Ohm	-Im(Zce)/Ohm	Phase(Zwe-ce)/deg	|Zwe-ce|/Ohm	Re(Zwe-ce)/Ohm	-Im(Zwe-ce)/Ohm	Re(Y)/Ohm-1	Im(Y)/Ohm-1	|Y|/Ohm-1	Phase(Y)/deg	Re(C)/nF	Im(C)/nF	|C|/nF	Phase(C)/deg	Re(M)	Im(M)	|M|	Phase(M)/deg	Re(Permittivity)	Im(Permittivity)	|Permittivity|	Phase(Permittivity)/deg	Re(Resistivity)/Ohm.cm	Im(Resistivity)/Ohm.cm	|Resistivity|/Ohm.cm	Phase(Resistivity)/deg	Re(Conductivity)/mS/cm	Im(Conductivity)/mS/cm	|Conductivity|/mS/cm	Phase(Conductivity)/deg	Tan(Delta)	Loss Angle(Delta)/deg	dq/mA.h	Pwe/W	Pce/W	Pwe-ce/W	<Ewe-Ece>/V	Rwe/Ohm	Rce/Ohm	Rwe-ce/Ohm		Ewe-Ece/V
100004	1.28378	0.460789	1.36397	-19.7447	2.05355	0.278031	0.0318796	3.45384	0.394183	1	9	0.00495556	0.0036332	0	-4.35347e-06	-0.000169541	3.5242e-05	87.8813	0.0097	0.0003586	-0.00969337	-19.3555	1.36106	1.28413	0.451095	0.690051	0.247682	0.733156	19.7447	394.183	1098.21	1166.81	-70.2553	0.0000000E+000	0.0000000E+000	0.0000000E+000	70.2553	0.0000000E+000	0.0000000E+000	0.0000000E+000	-70.2553	0.0000000E+000	0.0000000E+000	0.0000000E+000	-19.7447	0.0000000E+000	0.0000000E+000	0.0000000E+000	19.7447	2.78604	70.2553	-4.35347e-06	8.86351e-06	-5.4049e-09	8.86892e-06	0.2782	8721.27	5.31817	8726.59
31621.1	1.68012	0.682066	1.81329	-22.0953	3.57655	0.278033	0.0238615	7.37932	1.04408	1	9	0.00517982	0.00285659	0	1.54732e-05	-3.58827e-05	1.27451e-05	31.2343	0.00446166	0.00381496	-0.00231354	-21.9824	1.81596	1.68394	0.679752	0.510983	0.20744	0.551484	22.0953	1044.08	2571.87	2775.72	-67.9047	0.0000000E+000	0.0000000E+000	0.0000000E+000	67.9047	0.0000000E+000	0.0000000E+000	0.0000000E+000	-67.9047	0.0000000E+000	0.0000000E+000	0.0000000E+000	-22.0953	0.0000000E+000	0.0000000E+000	0.0000000E+000	22.0953	2.46328	67.9047	9.14973e-07	6.63428e-06	-8.56214e-10	6.63514e-06	0.278069	11652	1.50379	11653.5
10002.2	2.21846	0.95373	2.41478	-23.2632	4.60155	0.278021	0.0209899	16.6839	2.60251	1	9	0.00503377	0.00208456	0	1.43339e-05	-0.000188635	7.00844e-06	13.3758	0.00336206	0.00327087	-0.000777767	-23.2156	2.41748	2.22173	0.952952	0.380448	0.163557	0.414116	23.2632	2602.51	6053.68	6589.39	-66.7368	0.0000000E+000	0.0000000E+000	0.0000000E+000	66.7368	0.0000000E+000	0.0000000E+000	0.0000000E+000	-66.7368	0.0000000E+000	0.0000000E+000	0.0000000E+000	-23.2632	0.0000000E+000	0.0000000E+000	0.0000000E+000	23.2632	2.32609	66.7368	3.21564e-06	5.83562e-06	-3.95943e-09	5.83958e-06	0.27821	13245.5	8.98697	13254.5
3163.08	2.95808	1.4013	3.2732	-25.3478	5.49861	0.277828	-0.0135813	35.9071	6.58104	1	9	0.00463575	0.00141627	0	1.66466e-05	2.13995e-05	1.1345e-05	148.321	0.00801047	-0.00681696	-0.00420673	-25.3323	3.26524	2.95126	1.39709	0.276098	0.130793	0.305511	25.3478	6581.04	13892.3	15372.2	-64.6522	0.0000000E+000	0.0000000E+000	0.0000000E+000	64.6522	0.0000000E+000	0.0000000E+000	0.0000000E+000	-64.6522	0.0000000E+000	0.0000000E+000	0.0000000E+000	-25.3478	0.0000000E+000	0.0000000E+000	0.0000000E+000	25.3478	2.11096	64.6522	-4.11747e-07	-3.77326e-06	-2.90634e-10	-3.77297e-06	0.277806	20456.6	1.57566	20455.1
1000.32	3.83518	2.27425	4.45879	-30.6679	7.09781	0.277964	-0.0134507	69.9588	18.2006	1	10	0.00460837	0.00103355	0	1.56464e-05	-0.0003032	7.93145e-06	-5.59175	0.007674	0.00763749	0.000747751	-30.6261	4.46574	3.84281	2.275	0.192909	0.114394	0.224276	30.6679	18200.6	30692.5	35683.2	-59.3321	0.0000000E+000	0.0000000E+000	0.0000000E+000	59.3321	0.0000000E+000	0.0000000E+000	0.0000000E+000	-59.3321	0.0000000E+000	0.0000000E+000	0.0000000E+000	-30.6679	0.0000000E+000	0.0000000E+000	0.0000000E+000	30.6679	1.68635	59.3321	-2.41546e-06	-3.73881e-06	4.07825e-09	-3.74289e-06	0.278267	20665.4	22.5416	20687.9
316.316	5.24676	4.60321	6.97983	-41.2619	8.44701	0.277951	-0.0136372	109.305	47.5412	1	10	0.00452444	0.000648216	0	1.0902e-05	-0.000188635	1.55829e-05	-67.4161	0.0240396	0.00923209	0.0221962	-41.3486	7.00142	5.25599	4.62541	0.107696	0.0944869	0.14327	41.2619	47541.2	54187.7	72086.6	-48.7381	0.0000000E+000	0.0000000E+000	0.0000000E+000	48.7381	0.0000000E+000	0.0000000E+000	0.0000000E+000	-48.7381	0.0000000E+000	0.0000000E+000	0.0000000E+000	-41.2619	0.0000000E+000	0.0000000E+000	0.0000000E+000	41.2619	1.1398	48.7381	-2.01663e-06	-3.79046e-06	2.57245e-09	-3.79303e-06	0.27814	20381.9	13.8324	20395.7
100.032	9.38959	9.9491	13.6802	-46.6572	10.0078	0.277945	-0.0145358	159.918	84.5819	1	10	0.00486159	0.000355373	0	5.29985e-06	-7.40708e-05	8.00949e-06	119.689	0.0225382	-0.0111631	-0.0195795	-46.6349	13.6583	9.37843	9.92952	0.0501718	0.0531614	0.0730981	46.6572	84581.9	79825.3	116302	-43.3428	0.0000000E+000	0.0000000E+000	0.0000000E+000	43.3428	0.0000000E+000	0.0000000E+000	0.0000000E+000	-43.3428	0.0000000E+000	0.0000000E+000	0.0000000E+000	-46.6572	0.0000000E+000	0.0000000E+000	0.0000000E+000	46.6572	0.943763	43.3428	-2.58559e-06	-4.04016e-06	1.07668e-09	-4.04124e-06	0.278019	19121.4	5.09574	19126.5
31.6296	21.175	14.9398	25.9148	-35.2046	11.5775	0.277984	-0.00722839	336.807	111.938	1	11	0.00486369	0.00018768	0	7.75651e-07	-1.67886e-05	7.21155e-06	-141.782	0.0384248	-0.0301889	0.0237716	-35.286	25.9039	21.1448	14.9636	0.0315301	0.0222459	0.0385879	35.2046	111938	158655	194168	-54.7954	0.0000000E+000	0.0000000E+000	0.0000000E+000	54.7954	0.0000000E+000	0.0000000E+000	0.0000000E+000	-54.7954	0.0000000E+000	0.0000000E+000	0.0000000E+000	-35.2046	0.0000000E+000	0.0000000E+000	0.0000000E+000	35.2046	1.41735	54.7954	-4.65972e-07	-2.00938e-06	1.21355e-10	-2.0095e-06	0.278001	38457.3	2.32259	38459.6
10.0032	33.684	11.7078	35.6607	-19.1664	12.9088	0.277983	-0.00666643	1358.95	146.48	1	11	0.00485327	0.000136096	0	-2.0819e-06	0.00011687	9.26331e-06	-16.9818	0.0680646	0.0650968	0.0198795	-19.1622	35.7287	33.7491	11.7277	0.0264877	0.00920655	0.0280421	19.1664	146480	421430	446160	-70.8336	0.0000000E+000	0.0000000E+000	0.0000000E+000	70.8336	0.0000000E+000	0.0000000E+000	0.0000000E+000	-70.8336	0.0000000E+000	0.0000000E+000	0.0000000E+000	-19.1664	0.0000000E+000	0.0000000E+000	0.0000000E+000	19.1664	2.87705	70.8336	-1.89771e-06	-1.85315e-06	-7.79105e-10	-1.85237e-06	0.277866	41698.9	17.5311	41681.4
3.1604	40.103	7.25216	40.7534	-10.2505	14.4255	0.277978	-0.00620105	6944.02	219.896	1	11	0.00485333	0.00011909	0	-5.23056e-06	0.000155058	3.82274e-06	96.8597	0.0320996	-0.00383394	-0.0318698	-10.2074	40.744	40.0991	7.22029	0.0241462	0.00436656	0.0245378	10.2505	219896	1.21598e+06	1.2357e+06	-79.7495	0.0000000E+000	0.0000000E+000	0.0000000E+000	79.7495	0.0000000E+000	0.0000000E+000	0.0000000E+000	-79.7495	0.0000000E+000	0.0000000E+000	0.0000000E+000	-10.2505	0.0000000E+000	0.0000000E+000	0.0000000E+000	10.2505	5.5298	79.7495	-2.81625e-06	-1.72376e-06	-9.61522e-10	-1.7228e-06	0.277823	44827.6	25.0051	44802.6
1.00006	43.5799	4.74495	43.8375	-6.21384	19.7466	0.277988	-0.00535063	33539.8	392.946	1	12	0.0048599	0.000110862	0	-9.34979e-06	0.000193246	2.33958e-06	34.394	0.0211036	0.0174141	-0.011921	-6.1959	43.8535	43.5973	4.73303	0.0226775	0.00246911	0.0228115	6.21384	392946	3.60901e+06	3.63034e+06	-83.7862	0.0000000E+000	0.0000000E+000	0.0000000E+000	83.7862	0.0000000E+000	0.0000000E+000	0.0000000E+000	-83.7862	0.0000000E+000	0.0000000E+000	0.0000000E+000	-6.21384	0.0000000E+000	0.0000000E+000	0.0000000E+000	6.21384	9.18449	83.7862	4.40563e-07	-1.48741e-06	-1.03399e-09	-1.48638e-06	0.277795	51954.3	36.1165	51918.2
0.316193	45.9005	4.07608	46.0812	-5.07469	34.0889	0.277984	-0.00381166	123488	966.192	1	12	0.00485791	0.000105421	0	-2.9877e-05	2.30547e-06	2.18077e-06	49.2398	0.0206864	0.013506	-0.0156689	-5.05381	46.0932	45.914	4.06041	0.0216158	0.00191953	0.0217008	5.07469	966192	1.08802e+07	1.09231e+07	-84.9253	0.0000000E+000	0.0000000E+000	0.0000000E+000	84.9253	0.0000000E+000	0.0000000E+000	0.0000000E+000	-84.9253	0.0000000E+000	0.0000000E+000	0.0000000E+000	-5.07469	0.0000000E+000	0.0000000E+000	0.0000000E+000	5.07469	11.261	84.9253	-1.37951e-05	-1.05958e-06	-8.78767e-12	-1.05957e-06	0.277982	72929.9	0.604847	72929.3
0.0999041	48.3488	5.36577	48.6456	-6.3328	79.2977	0.277989	-0.00308657	296896	3612.29	1	12	0.00485833	9.9872e-05	0	-0.000109382	-0.000112259	2.0681e-06	22.202	0.0207075	0.0191722	-0.00782481	-6.32116	48.6638	48.3679	5.35795	0.0204314	0.00226749	0.0205568	6.3328	3.61228e+06	3.25488e+07	3.27486e+07	-83.6672	0.0000000E+000	0.0000000E+000	0.0000000E+000	83.6672	0.0000000E+000	0.0000000E+000	0.0000000E+000	-83.6672	0.0000000E+000	0.0000000E+000	0.0000000E+000	-6.3328	0.0000000E+000	0.0000000E+000	0.0000000E+000	6.3328	9.01058	83.6672	-2.72277e-05	-8.58034e-07	3.46495e-10	-8.5838e-07	0.278102	90064.2	36.3701	90100.6
0.0315922	51.7813	9.49897	52.6454	-10.395	222.181	0.277995	-0.00133863	530351	17266.2	1	12	0.00485942	9.23049e-05	0	-5.20288e-05	-3.58827e-05	3.31389e-06	-8.43105	0.0359015	0.0355136	0.00526385	-10.3937	52.6813	51.8168	9.50424	0.0186833	0.00342733	0.018995	10.395	1.72662e+07	9.41224e+07	9.5693e+07	-79.605	0.0000000E+000	0.0000000E+000	0.0000000E+000	79.605	0.0000000E+000	0.0000000E+000	0.0000000E+000	-79.605	0.0000000E+000	0.0000000E+000	0.0000000E+000	-10.395	0.0000000E+000	0.0000000E+000	0.0000000E+000	10.395	5.45125	79.605	5.45789e-05	-3.72133e-07	4.80336e-11	-3.72181e-07	0.278031	207671	26.8055	207698
0.0100092	57.8644	19.4537	61.047	-18.5823	673.4	0.277987	0.00046779	817374	83003.2	1	12	0.00485949	7.96025e-05	0	-3.95433e-05	0.000231434	1.90078e-06	26.4198	0.0238784	0.0213845	-0.0106246	-18.5665	61.0639	57.8858	19.443	0.0155268	0.00522003	0.0163808	18.5823	8.30032e+07	2.46891e+08	2.6047e+08	-71.4177	0.0000000E+000	0.0000000E+000	0.0000000E+000	71.4177	0.0000000E+000	0.0000000E+000	0.0000000E+000	-71.4177	0.0000000E+000	0.0000000E+000	0.0000000E+000	-18.5823	0.0000000E+000	0.0000000E+000	0.0000000E+000	18.5823	2.97447	71.4177	-9.19196e-05	1.30039e-07	1.08263e-10	1.29931e-07	0.277755	594256	494.74	593761