File: txt/19504_R316_UA716_SOC00_C06.mpt
EC-Lab ASCII FILE
Nb header lines : 65

Potentio Electrochemical Impedance Spectroscopy

Run on channel : 6 (SN 65795)
User :
CE vs. WE compliance from -10 V to 10 V
Electrode connection : standard
Potential control : Ewe
Ewe ctrl range : min = -10.00 V, max = 10.00 V
Safety Limits :
	Do not start on E overload
Acquisition started on : 12/04/2025 15:15:05.388
Technique started on : 12/04/2025 15:15:07.167
Loaded Setting File :  C:\Users\Celltest\OneDrive - store-dot.com\Documents\EC-Lab\Data\Charmaine\19495_R316_UA628_SOC00_C05.mpr
Saved on :
	File : 19504_R316_UA716_SOC00_C06.mpr
	Directory : C:\Users\Celltest\OneDrive - store-dot.com\Documents\EC-Lab\Data\Charmaine\
	Host : 169.254.61.224
Device : VMP-3e (SN .003165)
Address : USB
EC-LAB for windows v11.62 (software)
Internet server v27.00 (firmware)
Command interpretor v12.03 (firmware)
Electrode material :
Initial state :
Electrolyte :
Comments :
Electrode surface area : 0.001 cm²
Characteristic mass : 0.001 g
Equivalent Weight : 0.000 g/eq.
Density : 0.000 g/cm3
Volume (V) : 0.001 cm³
Record Ece
Cycle Definition : Charge/Discharge alternance
Mode                Single sine
E (V)               0.0000
vs.                 Eoc
tE (h:m:s)          0:00:0.0000
record              0
dI                  0.000
unit dI             mA
dt (s)              0.000
fi                  100.000
unit fi             kHz
ff                  10.000
unit ff             mHz
Nd                  6
Points              per decade
spacing             Logarithmic
Va (mV)             5.0
pw                  0.10
Na                  2
corr                0
E range min (V)     -10.000
E range max (V)     10.000
I Range             Auto
Bandwidth           5
nc cycles           0
goto Ns'            0
nr cycles           0
inc. cycle          0

freq/Hz	Re(Z)/Ohm	-Im(Z)/Ohm	|Z|/Ohm	Phase(Z)/deg	time/s	<Ewe>/V	<I>/mA	Cs/µF	Cp/µF	cycle number	I Range	|Ewe|/V	|I|/A	Ns	(Q-Qo)/mA.h	<Ece>/V	|Ece|/V	Phase(Zce)/deg	|Zce|/Ohm	Re(Zce)/Ohm	-Im(Zce)/Ohm	Phase(Zwe-ce)/deg	|Zwe-ce|/Ohm	Re(Zwe-ce)/Ohm	-Im(Zwe-ce)/Ohm	Re(Y)/Ohm-1	Im(Y)/Ohm-1	|Y|/Ohm-1	Phase(Y)/deg	Re(C)/nF	Im(C)/nF	|C|/nF	Phase(C)/deg	Re(M)	Im(M)	|M|	Phase(M)/deg	Re(Permittivity)	Im(Permittivity)	|Permittivity|	Phase(Permittivity)/deg	Re(Resistivity)/Ohm.cm	Im(Resistivity)/Ohm.cm	|Resistivity|/Ohm.cm	Phase(Resistivity)/deg	Re(Conductivity)/mS/cm	Im(Conductivity)/mS/cm	|Conductivity|/mS/cm	Phase(Conductivity)/deg	Tan(Delta)	Loss Angle(Delta)/deg	dq/mA.h	Pwe/W	Pce/W	Pwe-ce/W	<Ewe-Ece>/V	Rwe/Ohm	Rce/Ohm	Rwe-ce/Ohm		Ewe-Ece/V
100004	1.41948	0.320272	1.45516	-12.7145	1.77855	0.217004	0.0556818	4.96918	0.240713	1	9	0.00249897	0.00171731	0	6.19343e-06	0.000106829	2.88831e-05	54.528	0.0168188	0.00976003	-0.0136972	-12.1066	1.46175	1.42924	0.306575	0.670357	0.15125	0.687209	12.7145	240.713	1066.87	1093.69	-77.2855	0.0000000E+000	0.0000000E+000	0.0000000E+000	77.2855	0.0000000E+000	0.0000000E+000	0.0000000E+000	-77.2855	0.0000000E+000	0.0000000E+000	0.0000000E+000	-12.7145	0.0000000E+000	0.0000000E+000	0.0000000E+000	12.7145	4.43211	77.2855	6.19343e-06	1.20832e-05	5.94843e-09	1.20772e-05	0.216897	3897.21	1.91856	3895.29
31621.1	1.73979	0.724725	1.8847	-22.6147	3.30752	0.21695	0.0230881	6.94495	1.02691	1	9	0.0050604	0.00268499	0	0.000116012	0.000183221	8.44347e-06	74.8865	0.00314469	0.000819923	-0.00303592	-22.5198	1.88429	1.74061	0.721689	0.489793	0.204028	0.530589	22.6147	1026.91	2465.22	2670.55	-67.3853	0.0000000E+000	0.0000000E+000	0.0000000E+000	67.3853	0.0000000E+000	0.0000000E+000	0.0000000E+000	-67.3853	0.0000000E+000	0.0000000E+000	0.0000000E+000	-22.6147	0.0000000E+000	0.0000000E+000	0.0000000E+000	22.6147	2.40062	67.3853	-5.53213e-07	5.00898e-06	4.23024e-09	5.00475e-06	0.216767	9396.62	7.93572	9388.68
10002.2	2.31029	1.00162	2.51807	-23.439	4.33251	0.216956	0.0173516	15.8863	2.51357	1	9	0.00482137	0.00191471	0	0.000127676	0.000297809	7.64233e-06	-135.249	0.00399137	-0.00283458	0.00281001	-23.5234	2.51659	2.30745	1.00443	0.364361	0.157967	0.39713	23.439	2513.57	5797.69	6319.12	-66.561	0.0000000E+000	0.0000000E+000	0.0000000E+000	66.561	0.0000000E+000	0.0000000E+000	0.0000000E+000	-66.561	0.0000000E+000	0.0000000E+000	0.0000000E+000	-23.439	0.0000000E+000	0.0000000E+000	0.0000000E+000	23.439	2.30656	66.561	2.89041e-06	3.76455e-06	5.16748e-09	3.75938e-06	0.216659	12503.5	17.1632	12486.4
3163.08	3.05386	1.48897	3.39751	-25.9925	5.40861	0.216753	-0.0300303	33.7928	6.49044	1	9	0.0049761	0.00146463	0	0.000127291	0.000240515	4.29512e-06	104.536	0.00293256	-0.000736036	-0.00283869	-25.9548	3.39561	3.05312	1.48613	0.264562	0.128992	0.294333	25.9925	6490.44	13311.8	14809.8	-64.0075	0.0000000E+000	0.0000000E+000	0.0000000E+000	64.0075	0.0000000E+000	0.0000000E+000	0.0000000E+000	-64.0075	0.0000000E+000	0.0000000E+000	0.0000000E+000	-25.9925	0.0000000E+000	0.0000000E+000	0.0000000E+000	25.9925	2.05099	64.0075	-2.48124e-06	-6.50918e-06	-7.22275e-09	-6.50195e-06	0.216513	7217.82	8.00908	7209.81
1000.32	4.08723	2.38252	4.73094	-30.2387	7.0068	0.216873	-0.0164534	66.7798	16.9364	1	10	0.00492416	0.00104084	0	0.000125063	0.000355103	1.4851e-05	-15.7924	0.0142682	0.0137297	0.00388315	-30.1957	4.74476	4.10096	2.3864	0.182614	0.106449	0.211374	30.2387	16936.4	29054.6	33630.5	-59.7613	0.0000000E+000	0.0000000E+000	0.0000000E+000	59.7613	0.0000000E+000	0.0000000E+000	0.0000000E+000	-59.7613	0.0000000E+000	0.0000000E+000	0.0000000E+000	-30.2387	0.0000000E+000	0.0000000E+000	0.0000000E+000	30.2387	1.71551	59.7613	-2.84489e-06	-3.5683e-06	-5.84266e-09	-3.56246e-06	0.216518	13181	21.5824	13159.5
316.316	5.6904	4.45505	7.2269	-38.0576	8.35708	0.216876	-0.0167441	112.94	42.9187	1	10	0.00485833	0.000672256	0	0.000119955	0.000145025	1.29404e-05	-46.913	0.0192492	0.0131493	0.014058	-38.081	7.24592	5.70355	4.4691	0.108953	0.0852997	0.138372	38.0576	42918.7	54819.8	69622.1	-51.9424	0.0000000E+000	0.0000000E+000	0.0000000E+000	51.9424	0.0000000E+000	0.0000000E+000	0.0000000E+000	-51.9424	0.0000000E+000	0.0000000E+000	0.0000000E+000	-38.0576	0.0000000E+000	0.0000000E+000	0.0000000E+000	38.0576	1.27729	51.9424	-1.47807e-06	-3.63139e-06	-2.42831e-09	-3.62897e-06	0.216731	12952.4	8.66126	12943.7
100.032	9.59029	9.11595	13.2316	-43.5474	9.70381	0.216876	-0.016718	174.534	82.844	1	10	0.00481417	0.00036384	0	0.000114125	0.000240515	6.8061e-06	-75.888	0.0187063	0.00456093	0.0181418	-43.5907	13.2474	9.59485	9.13409	0.0547784	0.0520691	0.0755769	43.5474	82844	87154.7	120246	-46.4526	0.0000000E+000	0.0000000E+000	0.0000000E+000	46.4526	0.0000000E+000	0.0000000E+000	0.0000000E+000	-46.4526	0.0000000E+000	0.0000000E+000	0.0000000E+000	-43.5474	0.0000000E+000	0.0000000E+000	0.0000000E+000	43.5474	1.05203	46.4526	-2.16025e-06	-3.62574e-06	-4.02094e-09	-3.62172e-06	0.216636	12972.6	14.3866	12958.2
31.6296	20.5187	13.4405	24.5288	-33.2262	11.2715	0.216933	-0.00818987	374.38	112.406	1	11	0.00482183	0.000196578	0	0.000109128	0.000183221	8.52385e-06	-122.233	0.0433611	-0.0231275	0.0366784	-33.3275	24.5296	20.4956	13.4771	0.0341033	0.0223389	0.0407684	33.2262	112406	171602	205140	-56.7738	0.0000000E+000	0.0000000E+000	0.0000000E+000	56.7738	0.0000000E+000	0.0000000E+000	0.0000000E+000	-56.7738	0.0000000E+000	0.0000000E+000	0.0000000E+000	-33.2262	0.0000000E+000	0.0000000E+000	0.0000000E+000	33.2262	1.52664	56.7738	-5.55607e-07	-1.77666e-06	-1.50056e-09	-1.77516e-06	0.21675	26488	22.3717	26465.7
10.0032	31.6323	9.58432	33.0524	-16.8564	12.6038	0.216922	-0.00757693	1660.05	139.584	1	11	0.00481674	0.000145731	0	0.000105922	0.000183221	3.5564e-06	-47.3841	0.0244039	0.0165234	0.0179591	-16.8779	33.0734	31.6488	9.60228	0.0289551	0.00877316	0.030255	16.8564	139584	460687	481369	-73.1436	0.0000000E+000	0.0000000E+000	0.0000000E+000	73.1436	0.0000000E+000	0.0000000E+000	0.0000000E+000	-73.1436	0.0000000E+000	0.0000000E+000	0.0000000E+000	-16.8564	0.0000000E+000	0.0000000E+000	0.0000000E+000	16.8564	3.30042	73.1436	-2.05889e-06	-1.6436e-06	-1.38825e-09	-1.64221e-06	0.216739	28629.3	24.1814	28605.1
3.1604	35.9805	4.98079	36.3236	-7.88139	14.1205	0.216903	-0.00750008	10110.7	190.108	1	11	0.00480981	0.000132416	0	0.000102032	0.000106829	6.61477e-06	-2.46308	0.0499546	0.0499085	0.00214683	-7.87396	36.3733	36.0304	4.98294	0.0272703	0.00377503	0.0275303	7.88139	190107	1.37331e+06	1.3864e+06	-82.1186	0.0000000E+000	0.0000000E+000	0.0000000E+000	82.1186	0.0000000E+000	0.0000000E+000	0.0000000E+000	-82.1186	0.0000000E+000	0.0000000E+000	0.0000000E+000	-7.88139	0.0000000E+000	0.0000000E+000	0.0000000E+000	7.88139	7.22385	82.1186	-3.26363e-06	-1.62679e-06	-8.01226e-10	-1.62599e-06	0.216796	28920.1	14.2437	28905.8
1.00006	37.8572	2.97423	37.9738	-4.49218	19.4416	0.216904	-0.0066808	53507.9	328.245	1	12	0.00481384	0.000126767	0	9.70708e-05	0.000355103	2.90196e-06	25.36	0.022892	0.020686	-0.00980474	-4.475	37.9937	37.8778	2.96442	0.026253	0.00206256	0.0263339	4.49218	328245	4.17803e+06	4.19091e+06	-85.5078	0.0000000E+000	0.0000000E+000	0.0000000E+000	85.5078	0.0000000E+000	0.0000000E+000	0.0000000E+000	-85.5078	0.0000000E+000	0.0000000E+000	0.0000000E+000	-4.49218	0.0000000E+000	0.0000000E+000	0.0000000E+000	4.49218	12.7284	85.5078	9.81263e-08	-1.44909e-06	-2.37237e-09	-1.44672e-06	0.216549	32466.8	53.1529	32413.6
0.316193	39.2068	2.63206	39.295	-3.84066	33.782	0.216911	-0.0047439	191237	858	1	12	0.00481732	0.000122594	0	6.91237e-05	-0.000160544	3.07382e-06	-86.5537	0.0250732	0.00150722	0.0250279	-3.87692	39.2982	39.2083	2.65709	0.0253913	0.00170459	0.0254485	3.84066	858001	1.27807e+07	1.28094e+07	-86.1593	0.0000000E+000	0.0000000E+000	0.0000000E+000	86.1593	0.0000000E+000	0.0000000E+000	0.0000000E+000	-86.1593	0.0000000E+000	0.0000000E+000	0.0000000E+000	-3.84066	0.0000000E+000	0.0000000E+000	0.0000000E+000	3.84066	14.8959	86.1593	-1.77424e-05	-1.029e-06	7.61603e-10	-1.02976e-06	0.217071	45724.1	33.8421	45758
0.0999041	40.7563	3.69182	40.9232	-5.17589	78.9901	0.21691	-0.00422476	431515	3511.87	1	12	0.00481271	0.000117603	0	-2.63858e-05	0.000221417	1.72385e-06	22.9608	0.0146581	0.0134968	-0.00571815	-5.16621	40.9361	40.7698	3.6861	0.0243364	0.00220446	0.024436	5.17589	3.51187e+06	3.87697e+07	3.89285e+07	-84.8241	0.0000000E+000	0.0000000E+000	0.0000000E+000	84.8241	0.0000000E+000	0.0000000E+000	0.0000000E+000	-84.8241	0.0000000E+000	0.0000000E+000	0.0000000E+000	-5.17589	0.0000000E+000	0.0000000E+000	0.0000000E+000	5.17589	11.0396	84.8241	-3.22541e-05	-9.16391e-07	-9.35434e-10	-9.15455e-07	0.216688	51342.5	52.4095	51290.1
0.0315922	43.0398	6.87546	43.5855	-9.07612	221.873	0.216903	-0.00212045	732721	18233	1	12	0.00481156	0.000110394	0	2.88875e-05	0.000183221	2.00138e-06	-28.2742	0.0181295	0.0159665	0.00858778	-9.08395	43.6026	43.0558	6.88405	0.0226561	0.00361924	0.0229434	9.07612	1.8233e+07	1.14137e+08	1.15584e+08	-80.9239	0.0000000E+000	0.0000000E+000	0.0000000E+000	80.9239	0.0000000E+000	0.0000000E+000	0.0000000E+000	-80.9239	0.0000000E+000	0.0000000E+000	0.0000000E+000	-9.07612	0.0000000E+000	0.0000000E+000	0.0000000E+000	9.07612	6.25992	80.9239	5.52367e-05	-4.59931e-07	-3.88511e-10	-4.59543e-07	0.21672	102291	86.4069	102205
0.0100092	47.9823	14.6493	50.1688	-16.9778	673.095	0.216902	0.000582166	1.08544e+06	92549.3	1	12	0.00481367	9.59495e-05	0	-5.74542e-05	8.77309e-05	2.24001e-06	2.39065	0.0233457	0.0233254	-0.000973808	-16.969	50.1908	48.0056	14.6484	0.019064	0.00582038	0.0199327	16.9778	9.25493e+07	3.03135e+08	3.16949e+08	-73.0222	0.0000000E+000	0.0000000E+000	0.0000000E+000	73.0222	0.0000000E+000	0.0000000E+000	0.0000000E+000	-73.0222	0.0000000E+000	0.0000000E+000	0.0000000E+000	-16.9778	0.0000000E+000	0.0000000E+000	0.0000000E+000	16.9778	3.27539	73.0222	-0.000148138	1.26273e-07	5.1074e-11	1.26222e-07	0.216814	372578	150.697	372427