File: txt/19502_R316_UA716_SOC00_C04.mpt
EC-Lab ASCII FILE
Nb header lines : 65

Potentio Electrochemical Impedance Spectroscopy

Run on channel : 4 (SN 66756)
User :
CE vs. WE compliance from -10 V to 10 V
Electrode connection : standard
Potential control : Ewe
Ewe ctrl range : min = -10.00 V, max = 10.00 V
Safety Limits :
	Do not start on E overload
Acquisition started on : 12/04/2025 15:14:54.157
Technique started on : 12/04/2025 15:14:55.883
Loaded Setting File :  C:\Users\Celltest\OneDrive - store-dot.com\Documents\EC-Lab\Data\@Biologic Test Protocols\anode half cell EIS SOC00.mps
Saved on :
	File : 19502_R316_UA716_SOC00_C04.mpr
	Directory : C:\Users\Celltest\OneDrive - store-dot.com\Documents\EC-Lab\Data\Charmaine\
	Host : 169.254.61.224
Device : VMP-3e (SN .003165)
Address : USB
EC-LAB for windows v11.62 (software)
Internet server v27.00 (firmware)
Command interpretor v12.03 (firmware)
Electrode material :
Initial state :
Electrolyte :
Comments :
Electrode surface area : 0.001 cm²
Characteristic mass : 0.001 g
Equivalent Weight : 0.000 g/eq.
Density : 0.000 g/cm3
Volume (V) : 0.001 cm³
Record Ece
Cycle Definition : Charge/Discharge alternance
Mode                Single sine
E (V)               0.0000
vs.                 Eoc
tE (h:m:s)          0:00:0.0000
record              0
dI                  0.000
unit dI             mA
dt (s)              0.000
fi                  100.000
unit fi             kHz
ff                  10.000
unit ff             mHz
Nd                  6
Points              per decade
spacing             Logarithmic
Va (mV)             5.0
pw                  0.10
Na                  2
corr                0
E range min (V)     -10.000
E range max (V)     10.000
I Range             Auto
Bandwidth           5
nc cycles           0
goto Ns'            0
nr cycles           0
inc. cycle          0

freq/Hz	Re(Z)/Ohm	-Im(Z)/Ohm	|Z|/Ohm	Phase(Z)/deg	time/s	<Ewe>/V	<I>/mA	Cs/µF	Cp/µF	cycle number	I Range	|Ewe|/V	|I|/A	Ns	(Q-Qo)/mA.h	<Ece>/V	|Ece|/V	Phase(Zce)/deg	|Zce|/Ohm	Re(Zce)/Ohm	-Im(Zce)/Ohm	Phase(Zwe-ce)/deg	|Zwe-ce|/Ohm	Re(Zwe-ce)/Ohm	-Im(Zwe-ce)/Ohm	Re(Y)/Ohm-1	Im(Y)/Ohm-1	|Y|/Ohm-1	Phase(Y)/deg	Re(C)/nF	Im(C)/nF	|C|/nF	Phase(C)/deg	Re(M)	Im(M)	|M|	Phase(M)/deg	Re(Permittivity)	Im(Permittivity)	|Permittivity|	Phase(Permittivity)/deg	Re(Resistivity)/Ohm.cm	Im(Resistivity)/Ohm.cm	|Resistivity|/Ohm.cm	Phase(Resistivity)/deg	Re(Conductivity)/mS/cm	Im(Conductivity)/mS/cm	|Conductivity|/mS/cm	Phase(Conductivity)/deg	Tan(Delta)	Loss Angle(Delta)/deg	dq/mA.h	Pwe/W	Pce/W	Pwe-ce/W	<Ewe-Ece>/V	Rwe/Ohm	Rce/Ohm	Rwe-ce/Ohm		Ewe-Ece/V
100004	1.1283	0.482	1.22694	-23.1318	1.72555	0.218817	-0.0122188	3.30185	0.509571	1	9	0.00465402	0.00379319	0	7.05824e-06	-0.000196903	2.77945e-05	83.6721	0.00732747	0.000807624	-0.00728283	-22.8037	1.22484	1.12911	0.474717	0.74951	0.320185	0.815036	23.1318	509.571	1192.84	1297.12	-66.8682	0.0000000E+000	0.0000000E+000	0.0000000E+000	66.8682	0.0000000E+000	0.0000000E+000	0.0000000E+000	-66.8682	0.0000000E+000	0.0000000E+000	0.0000000E+000	-23.1318	0.0000000E+000	0.0000000E+000	0.0000000E+000	23.1318	2.34087	66.8682	7.05824e-06	-2.67368e-06	2.40591e-09	-2.67609e-06	0.219014	17908.3	16.1148	17924.4
31621.1	1.55526	0.700157	1.70559	-24.2367	3.24853	0.218819	-0.00927232	7.18865	1.2114	1	9	0.00508644	0.00298221	0	-4.7312e-06	-0.000311563	1.31014e-05	10.7838	0.00439317	0.00431559	-0.00082198	-24.1521	1.70919	1.55957	0.699335	0.534628	0.240683	0.586307	24.2367	1211.4	2690.88	2950.99	-65.7634	0.0000000E+000	0.0000000E+000	0.0000000E+000	65.7634	0.0000000E+000	0.0000000E+000	0.0000000E+000	-65.7634	0.0000000E+000	0.0000000E+000	0.0000000E+000	-24.2367	0.0000000E+000	0.0000000E+000	0.0000000E+000	24.2367	2.2213	65.7634	-1.19195e-06	-2.02896e-06	2.88891e-09	-2.03185e-06	0.21913	23599.1	33.6014	23632.7
10002.2	2.10289	0.971616	2.3165	-24.7987	4.27351	0.218817	-0.00889938	16.3768	2.88106	1	9	0.0045128	0.00194811	0	2.10935e-06	-0.000521772	1.02125e-05	-27.5062	0.00524224	0.00464966	0.0024211	-24.8049	2.32174	2.10754	0.974037	0.391878	0.181063	0.431685	24.7987	2881.06	6235.54	6868.95	-65.2012	0.0000000E+000	0.0000000E+000	0.0000000E+000	65.2012	0.0000000E+000	0.0000000E+000	0.0000000E+000	-65.2012	0.0000000E+000	0.0000000E+000	0.0000000E+000	-24.7987	0.0000000E+000	0.0000000E+000	0.0000000E+000	24.7987	2.16432	65.2012	-1.89485e-06	-1.94734e-06	4.64345e-09	-1.95198e-06	0.219339	24587.9	58.6302	24646.5
3163.08	2.83592	1.45159	3.18583	-27.106	5.29467	0.218591	-0.0590643	34.6631	7.19627	1	9	0.00460678	0.00144602	0	-6.55053e-06	-0.000388002	3.24821e-06	13.7871	0.00224631	0.00218159	-0.000535327	-27.0796	3.18753	2.8381	1.45105	0.279414	0.14302	0.31389	27.106	7196.27	14059.1	15793.8	-62.894	0.0000000E+000	0.0000000E+000	0.0000000E+000	62.894	0.0000000E+000	0.0000000E+000	0.0000000E+000	-62.894	0.0000000E+000	0.0000000E+000	0.0000000E+000	-27.106	0.0000000E+000	0.0000000E+000	0.0000000E+000	27.106	1.95367	62.894	-5.08937e-06	-1.29109e-05	2.29171e-08	-1.29338e-05	0.218979	3700.9	6.56916	3707.47
1000.32	3.85015	2.35596	4.51378	-31.463	6.89382	0.218737	-0.00208367	67.5325	18.3979	1	10	0.00460556	0.00102033	0	-3.19693e-06	-2.49133e-05	3.99838e-06	67.5525	0.0039187	0.0014963	-0.00362178	-31.4139	4.51317	3.85165	2.35234	0.188972	0.115634	0.221544	31.463	18397.9	30066.1	35248.5	-58.537	0.0000000E+000	0.0000000E+000	0.0000000E+000	58.537	0.0000000E+000	0.0000000E+000	0.0000000E+000	-58.537	0.0000000E+000	0.0000000E+000	0.0000000E+000	-31.463	0.0000000E+000	0.0000000E+000	0.0000000E+000	31.463	1.63422	58.537	-1.03927e-06	-4.55776e-07	5.19111e-11	-4.55828e-07	0.218762	104977	11.9565	104989
316.316	5.36158	4.45966	6.97389	-39.753	8.24408	0.218726	-0.00387044	112.823	46.1372	1	10	0.00452155	0.000648354	0	-3.75858e-06	0.000127966	5.30587e-06	48.4679	0.00818361	0.00542606	-0.00612612	-39.6858	6.97414	5.367	4.45353	0.110241	0.0916963	0.143392	39.753	46137.2	55468	72148	-50.247	0.0000000E+000	0.0000000E+000	0.0000000E+000	50.247	0.0000000E+000	0.0000000E+000	0.0000000E+000	-50.247	0.0000000E+000	0.0000000E+000	0.0000000E+000	-39.753	0.0000000E+000	0.0000000E+000	0.0000000E+000	39.753	1.20224	50.247	-2.03762e-07	-8.46564e-07	-4.95286e-10	-8.46069e-07	0.218598	56511.8	33.0625	56478.7
100.032	9.19136	9.3123	13.0843	-45.3745	9.80581	0.218734	-0.00372497	170.854	86.5434	1	10	0.0049892	0.000381311	0	-5.27091e-06	1.33066e-05	1.00366e-05	94.3119	0.0263213	-0.00197899	-0.0262468	-45.2998	13.0643	9.18939	9.28605	0.0536879	0.0543942	0.0764272	45.3745	86543.4	85419.5	121599	-44.6255	0.0000000E+000	0.0000000E+000	0.0000000E+000	44.6255	0.0000000E+000	0.0000000E+000	0.0000000E+000	-44.6255	0.0000000E+000	0.0000000E+000	0.0000000E+000	-45.3745	0.0000000E+000	0.0000000E+000	0.0000000E+000	45.3745	0.987014	44.6255	-6.25417e-08	-8.14777e-07	-4.95667e-11	-8.14728e-07	0.21872	58720.9	3.57227	58717.3
31.6296	20.3466	14.3144	24.8775	-35.1275	11.3755	0.21876	0.0110962	351.523	116.383	1	11	0.0049829	0.000200298	0	-2.70663e-06	-0.000273343	6.81278e-06	85.751	0.0340132	0.00252008	-0.0339198	-35.0602	24.86	20.3491	14.2805	0.0328761	0.0231293	0.040197	35.1275	116383	165427	202265	-54.8725	0.0000000E+000	0.0000000E+000	0.0000000E+000	54.8725	0.0000000E+000	0.0000000E+000	0.0000000E+000	-54.8725	0.0000000E+000	0.0000000E+000	0.0000000E+000	-35.1275	0.0000000E+000	0.0000000E+000	0.0000000E+000	35.1275	1.42141	54.8725	8.97352e-07	2.42742e-06	-3.03308e-09	2.43045e-06	0.219033	19714.8	24.6338	19739.4
10.0032	32.7566	10.757	34.4776	-18.1797	12.7078	0.218768	0.011038	1479.08	143.978	1	11	0.00498414	0.000144562	0	1.78992e-06	-0.000177793	7.01567e-06	-6.95488	0.0485307	0.0481736	0.00587647	-18.164	34.5252	32.8047	10.7628	0.0275565	0.00904931	0.0290043	18.1797	143978	438435	461471	-71.8203	0.0000000E+000	0.0000000E+000	0.0000000E+000	71.8203	0.0000000E+000	0.0000000E+000	0.0000000E+000	-71.8203	0.0000000E+000	0.0000000E+000	0.0000000E+000	-18.1797	0.0000000E+000	0.0000000E+000	0.0000000E+000	18.1797	3.04515	71.8203	2.5099e-06	2.41477e-06	-1.96249e-09	2.41674e-06	0.218946	19819.5	16.1073	19835.6
3.1604	37.8753	5.58031	38.2842	-8.3813	14.2255	0.218781	0.0117889	9024.44	191.733	1	11	0.00498486	0.000130207	0	7.28865e-06	-5.80336e-06	2.29813e-06	-106.579	0.0176499	-0.00503624	0.0169161	-8.40744	38.2817	37.8703	5.59723	0.0258415	0.00380732	0.0261204	8.3813	191733	1.30136e+06	1.3154e+06	-81.6187	0.0000000E+000	0.0000000E+000	0.0000000E+000	81.6187	0.0000000E+000	0.0000000E+000	0.0000000E+000	-81.6187	0.0000000E+000	0.0000000E+000	0.0000000E+000	-8.3813	0.0000000E+000	0.0000000E+000	0.0000000E+000	8.3813	6.78732	81.6187	4.05175e-06	2.57918e-06	-6.8415e-11	2.57925e-06	0.218787	18558.3	0.492275	18558.8
1.00006	39.9432	3.28384	40.0779	-4.69988	19.5447	0.218774	0.0118843	48463	325.36	1	12	0.00498757	0.000124447	0	2.06076e-05	7.06365e-05	2.00493e-06	-60.6284	0.0161107	0.00790183	0.0140398	-4.71895	40.087	39.9511	3.29788	0.0248675	0.00204443	0.0249514	4.69988	325360	3.95753e+06	3.97088e+06	-85.3001	0.0000000E+000	0.0000000E+000	0.0000000E+000	85.3001	0.0000000E+000	0.0000000E+000	0.0000000E+000	-85.3001	0.0000000E+000	0.0000000E+000	0.0000000E+000	-4.69988	0.0000000E+000	0.0000000E+000	0.0000000E+000	4.69988	12.1636	85.3001	3.05905e-06	2.59997e-06	8.39462e-10	2.59913e-06	0.218703	18408.7	5.9437	18402.8
0.316193	41.4219	2.84277	41.5193	-3.92603	33.8877	0.218778	0.00970197	177062	830.06	1	12	0.00498554	0.000120078	0	6.73576e-05	-0.000235123	2.18841e-06	63.2106	0.018225	0.00821422	-0.0162689	-3.90286	41.5264	41.4301	2.8265	0.0240287	0.00164908	0.0240852	3.92603	830059	1.20948e+07	1.21232e+07	-86.074	0.0000000E+000	0.0000000E+000	0.0000000E+000	86.074	0.0000000E+000	0.0000000E+000	0.0000000E+000	-86.074	0.0000000E+000	0.0000000E+000	0.0000000E+000	-3.92603	0.0000000E+000	0.0000000E+000	0.0000000E+000	3.92603	14.571	86.074	2.61514e-05	2.12258e-06	-2.28116e-09	2.12486e-06	0.219013	22549.8	24.2345	22574.1
0.0999041	43.1999	3.8273	43.3691	-5.06292	79.0949	0.218777	0.00844045	416240	3241.68	1	12	0.00498679	0.000114985	0	0.000222491	-5.80336e-06	5.07003e-07	-82.5705	0.00440929	0.000570146	0.00437228	-5.0686	43.37	43.2004	3.83167	0.0229679	0.00203485	0.0230579	5.06292	3.24167e+06	3.65897e+07	3.6733e+07	-84.9371	0.0000000E+000	0.0000000E+000	0.0000000E+000	84.9371	0.0000000E+000	0.0000000E+000	0.0000000E+000	-84.9371	0.0000000E+000	0.0000000E+000	0.0000000E+000	-5.06292	0.0000000E+000	0.0000000E+000	0.0000000E+000	5.06292	11.2873	84.9371	5.97531e-05	1.84657e-06	-4.8983e-11	1.84662e-06	0.218782	25920	0.687565	25920.7
0.0315922	45.6784	6.94444	46.2032	-8.64443	221.978	0.218776	0.00638132	725443	16388.2	1	12	0.00498751	0.000107947	0	0.000347173	-0.000216013	2.71473e-06	17.8335	0.0251487	0.0239403	-0.00770182	-8.63053	46.2258	45.7023	6.93674	0.0213976	0.00325306	0.0216435	8.64443	1.63882e+07	1.07797e+08	1.09035e+08	-81.3556	0.0000000E+000	0.0000000E+000	0.0000000E+000	81.3556	0.0000000E+000	0.0000000E+000	0.0000000E+000	-81.3556	0.0000000E+000	0.0000000E+000	0.0000000E+000	-8.64443	0.0000000E+000	0.0000000E+000	0.0000000E+000	8.64443	6.57769	81.3556	2.62845e-05	1.39608e-06	-1.37845e-09	1.39746e-06	0.218992	34283.8	33.8508	34317.7
0.0100092	51.0038	14.5024	53.0255	-15.8725	673.2	0.218789	0.00495592	1.09644e+06	82014.6	1	12	0.00499406	9.41821e-05	0	0.00105058	0.000147076	2.43689e-06	21.2892	0.0258742	0.0241085	-0.00939428	-15.8556	53.0462	51.0279	14.493	0.0181398	0.00515785	0.0188588	15.8725	8.20146e+07	2.88439e+08	2.99873e+08	-74.1275	0.0000000E+000	0.0000000E+000	0.0000000E+000	74.1275	0.0000000E+000	0.0000000E+000	0.0000000E+000	-74.1275	0.0000000E+000	0.0000000E+000	0.0000000E+000	-15.8725	0.0000000E+000	0.0000000E+000	0.0000000E+000	15.8725	3.51693	74.1275	0.000452509	1.0843e-06	7.28898e-10	1.08357e-06	0.218642	44147	29.6769	44117.4