File: txt/19505_R316_UA716_SOC00_C07.mpt
EC-Lab ASCII FILE
Nb header lines : 65

Potentio Electrochemical Impedance Spectroscopy

Run on channel : 7 (SN 66126)
User :
CE vs. WE compliance from -10 V to 10 V
Electrode connection : standard
Potential control : Ewe
Ewe ctrl range : min = -10.00 V, max = 10.00 V
Safety Limits :
	Do not start on E overload
Acquisition started on : 12/04/2025 15:15:11.338
Technique started on : 12/04/2025 15:15:13.393
Loaded Setting File :  NONE
Saved on :
	File : 19505_R316_UA716_SOC00_C07.mpr
	Directory : C:\Users\Celltest\OneDrive - store-dot.com\Documents\EC-Lab\Data\Charmaine\
	Host : 169.254.61.224
Device : VMP-3e (SN .003165)
Address : USB
EC-LAB for windows v11.62 (software)
Internet server v27.00 (firmware)
Command interpretor v12.03 (firmware)
Electrode material :
Initial state :
Electrolyte :
Comments :
Electrode surface area : 0.001 cm²
Characteristic mass : 0.001 g
Equivalent Weight : 0.000 g/eq.
Density : 0.000 g/cm3
Volume (V) : 0.001 cm³
Record Ece
Cycle Definition : Charge/Discharge alternance
Mode                Single sine
E (V)               0.0000
vs.                 Eoc
tE (h:m:s)          0:00:0.0000
record              0
dI                  0.000
unit dI             mA
dt (s)              0.000
fi                  100.000
unit fi             kHz
ff                  10.000
unit ff             mHz
Nd                  6
Points              per decade
spacing             Logarithmic
Va (mV)             5.0
pw                  0.10
Na                  2
corr                0
E range min (V)     -10.000
E range max (V)     10.000
I Range             Auto
Bandwidth           5
nc cycles           0
goto Ns'            0
nr cycles           0
inc. cycle          0

freq/Hz	Re(Z)/Ohm	-Im(Z)/Ohm	|Z|/Ohm	Phase(Z)/deg	time/s	<Ewe>/V	<I>/mA	Cs/µF	Cp/µF	cycle number	I Range	|Ewe|/V	|I|/A	Ns	(Q-Qo)/mA.h	<Ece>/V	|Ece|/V	Phase(Zce)/deg	|Zce|/Ohm	Re(Zce)/Ohm	-Im(Zce)/Ohm	Phase(Zwe-ce)/deg	|Zwe-ce|/Ohm	Re(Zwe-ce)/Ohm	-Im(Zwe-ce)/Ohm	Re(Y)/Ohm-1	Im(Y)/Ohm-1	|Y|/Ohm-1	Phase(Y)/deg	Re(C)/nF	Im(C)/nF	|C|/nF	Phase(C)/deg	Re(M)	Im(M)	|M|	Phase(M)/deg	Re(Permittivity)	Im(Permittivity)	|Permittivity|	Phase(Permittivity)/deg	Re(Resistivity)/Ohm.cm	Im(Resistivity)/Ohm.cm	|Resistivity|/Ohm.cm	Phase(Resistivity)/deg	Re(Conductivity)/mS/cm	Im(Conductivity)/mS/cm	|Conductivity|/mS/cm	Phase(Conductivity)/deg	Tan(Delta)	Loss Angle(Delta)/deg	dq/mA.h	Pwe/W	Pce/W	Pwe-ce/W	<Ewe-Ece>/V	Rwe/Ohm	Rce/Ohm	Rwe-ce/Ohm		Ewe-Ece/V
100004	1.47678	0.447902	1.54321	-16.8723	2.05456	0.217961	0.0771977	3.55321	0.29932	1	9	0.00492242	0.00318972	0	1.20748e-05	-0.000285059	4.11085e-05	68.9785	0.0128878	0.00462309	-0.0120301	-16.3954	1.5442	1.48141	0.435872	0.620104	0.188075	0.647998	16.8723	299.32	986.89	1031.28	-73.1277	0.0000000E+000	0.0000000E+000	0.0000000E+000	73.1277	0.0000000E+000	0.0000000E+000	0.0000000E+000	-73.1277	0.0000000E+000	0.0000000E+000	0.0000000E+000	-16.8723	0.0000000E+000	0.0000000E+000	0.0000000E+000	16.8723	3.29711	73.1277	1.20748e-05	1.68261e-05	-2.20059e-08	1.68481e-05	0.218246	2823.41	3.69259	2827.1
31621.1	1.85979	0.657724	1.97267	-19.4764	3.20355	0.217988	0.0732134	7.65242	0.850707	1	9	0.00537179	0.00272311	0	4.09821e-05	0.0001346	1.23831e-05	9.96505	0.00454742	0.00447881	-0.000786919	-19.4116	1.97663	1.86427	0.656937	0.477921	0.16902	0.506928	19.4764	850.707	2405.46	2551.46	-70.5236	0.0000000E+000	0.0000000E+000	0.0000000E+000	70.5236	0.0000000E+000	0.0000000E+000	0.0000000E+000	-70.5236	0.0000000E+000	0.0000000E+000	0.0000000E+000	-19.4764	0.0000000E+000	0.0000000E+000	0.0000000E+000	19.4764	2.82761	70.5236	4.54245e-06	1.59596e-05	9.85452e-09	1.59498e-05	0.217853	2977.43	1.83846	2975.59
10002.2	2.37487	0.930474	2.55065	-21.3952	4.35856	0.217969	0.0821873	17.1009	2.27576	1	9	0.00519295	0.00203593	0	5.90164e-05	1.07189e-06	7.36087e-06	117.694	0.00361548	-0.00168028	-0.00320131	-21.342	2.54792	2.37319	0.927273	0.365039	0.143022	0.392057	21.3952	2275.76	5808.48	6238.4	-68.6048	0.0000000E+000	0.0000000E+000	0.0000000E+000	68.6048	0.0000000E+000	0.0000000E+000	0.0000000E+000	-68.6048	0.0000000E+000	0.0000000E+000	0.0000000E+000	-21.3952	0.0000000E+000	0.0000000E+000	0.0000000E+000	21.3952	2.55233	68.6048	5.09409e-06	1.79143e-05	8.8096e-11	1.79142e-05	0.217968	2652.1	0.0130421	2652.09
3163.08	3.04221	1.37284	3.33763	-24.2879	5.50668	0.217925	0.0580956	36.6514	6.20089	1	9	0.00505985	0.001516	0	8.35388e-05	3.92227e-05	3.51693e-06	39.7912	0.00231987	0.00178254	-0.0014847	-24.2521	3.33864	3.044	1.37135	0.273095	0.123238	0.299614	24.2879	6200.89	13741.2	15075.5	-65.7121	0.0000000E+000	0.0000000E+000	0.0000000E+000	65.7121	0.0000000E+000	0.0000000E+000	0.0000000E+000	-65.7121	0.0000000E+000	0.0000000E+000	0.0000000E+000	-24.2879	0.0000000E+000	0.0000000E+000	0.0000000E+000	24.2879	2.216	65.7121	6.948e-06	1.26605e-05	2.27867e-09	1.26582e-05	0.217886	3751.14	0.675142	3750.47
1000.32	4.04134	2.21734	4.60967	-28.752	7.10482	0.217944	-0.000498097	71.7545	16.6025	1	10	0.00492113	0.00106757	0	8.66458e-05	0.0001346	5.02361e-06	104.383	0.00470566	-0.00116893	-0.00455816	-28.7093	4.60645	4.04017	2.21278	0.190189	0.10435	0.216935	28.752	16602.5	30259.9	34515.3	-61.248	0.0000000E+000	0.0000000E+000	0.0000000E+000	61.248	0.0000000E+000	0.0000000E+000	0.0000000E+000	-61.248	0.0000000E+000	0.0000000E+000	0.0000000E+000	-28.752	0.0000000E+000	0.0000000E+000	0.0000000E+000	28.752	1.82261	61.248	-7.94584e-07	-1.08557e-07	-6.70438e-11	-1.0849e-07	0.21781	437554	270.228	437283
316.316	5.49933	4.1626	6.89709	-37.1231	8.45403	0.217934	-0.00185319	120.875	44.0283	1	10	0.00479262	0.000694876	0	8.65306e-05	5.82982e-05	1.04572e-05	-119.418	0.015049	-0.00739167	0.0131086	-37.2469	6.89912	5.49194	4.1757	0.115605	0.0875049	0.144989	37.1231	44028.3	58167.1	72951.3	-52.8769	0.0000000E+000	0.0000000E+000	0.0000000E+000	52.8769	0.0000000E+000	0.0000000E+000	0.0000000E+000	-52.8769	0.0000000E+000	0.0000000E+000	0.0000000E+000	-37.1231	0.0000000E+000	0.0000000E+000	0.0000000E+000	37.1231	1.32113	52.8769	-7.59495e-07	-4.03874e-07	-1.08038e-10	-4.03766e-07	0.217876	117600	31.4582	117568
100.032	9.06734	8.61635	12.5083	-43.5391	9.80182	0.217934	-0.00177502	184.654	87.6206	1	10	0.00473573	0.000378606	0	8.57827e-05	-0.00032321	1.44671e-05	-34.5509	0.0382115	0.0314719	0.0216712	-43.5118	12.5461	9.09881	8.63802	0.0579538	0.0550713	0.0799468	43.5391	87620.6	92206.8	127199	-46.4609	0.0000000E+000	0.0000000E+000	0.0000000E+000	46.4609	0.0000000E+000	0.0000000E+000	0.0000000E+000	-46.4609	0.0000000E+000	0.0000000E+000	0.0000000E+000	-43.5391	0.0000000E+000	0.0000000E+000	0.0000000E+000	43.5391	1.05234	46.4609	-3.58392e-07	-3.86838e-07	5.73705e-10	-3.87411e-07	0.218257	122778	182.088	122960
31.6296	19.3824	13.2016	23.4512	-34.2594	11.3715	0.217944	-0.000992147	381.153	120.788	1	11	0.00474518	0.000202343	0	8.55038e-05	-9.43052e-05	6.04452e-06	91.9529	0.0298727	-0.00101802	-0.0298553	-34.2004	23.4336	19.3814	13.1718	0.0352433	0.0240047	0.0426417	34.2594	120788	177339	214566	-55.7406	0.0000000E+000	0.0000000E+000	0.0000000E+000	55.7406	0.0000000E+000	0.0000000E+000	0.0000000E+000	-55.7406	0.0000000E+000	0.0000000E+000	0.0000000E+000	-34.2594	0.0000000E+000	0.0000000E+000	0.0000000E+000	34.2594	1.46818	55.7406	-9.24702e-08	-2.16233e-07	9.35647e-11	-2.16326e-07	0.218039	219669	95.0516	219764
10.0032	30.7081	9.87779	32.2577	-17.8313	12.7038	0.21795	-0.000780062	1610.72	151.034	1	11	0.00472388	0.000146442	0	8.45273e-05	-0.000113381	4.35835e-06	-70.7863	0.0297616	0.00979431	0.0281039	-17.8734	32.2756	30.7179	9.90589	0.0295112	0.00949277	0.0310004	17.8313	151034	469535	493228	-72.1687	0.0000000E+000	0.0000000E+000	0.0000000E+000	72.1687	0.0000000E+000	0.0000000E+000	0.0000000E+000	-72.1687	0.0000000E+000	0.0000000E+000	0.0000000E+000	-17.8313	0.0000000E+000	0.0000000E+000	0.0000000E+000	17.8313	3.1088	72.1687	-2.90966e-08	-1.70014e-07	8.8444e-11	-1.70103e-07	0.218063	279400	145.348	279546
3.1604	35.4911	5.19045	35.8686	-8.32032	14.2214	0.217959	0.000366476	9702.28	203.167	1	11	0.00473016	0.000131875	0	8.61689e-05	-0.000361361	8.40135e-06	-32.7875	0.0637071	0.0535576	0.0344989	-8.3624	35.9266	35.5447	5.22495	0.0275861	0.00403437	0.0278795	8.32032	203167	1.38921e+06	1.40399e+06	-81.6797	0.0000000E+000	0.0000000E+000	0.0000000E+000	81.6797	0.0000000E+000	0.0000000E+000	0.0000000E+000	-81.6797	0.0000000E+000	0.0000000E+000	0.0000000E+000	-8.32032	0.0000000E+000	0.0000000E+000	0.0000000E+000	8.32032	6.83777	81.6797	8.91233e-07	7.98769e-08	-1.3243e-10	8.00094e-08	0.218321	594744	986.043	595730
1.00006	37.5393	3.10599	37.6675	-4.72987	19.5408	0.217956	-0.000638961	51238	348.384	1	12	0.00473309	0.000125654	0	8.0991e-05	-0.000208758	1.27373e-06	161.994	0.0101368	-0.00964034	-0.0031334	-4.72632	37.6577	37.5296	3.10286	0.0264576	0.0021891	0.0265481	4.72987	348384	4.2106e+06	4.22498e+06	-85.2701	0.0000000E+000	0.0000000E+000	0.0000000E+000	85.2701	0.0000000E+000	0.0000000E+000	0.0000000E+000	-85.2701	0.0000000E+000	0.0000000E+000	0.0000000E+000	-4.72987	0.0000000E+000	0.0000000E+000	0.0000000E+000	4.72987	12.0861	85.2701	-9.71464e-07	-1.39266e-07	1.33388e-10	-1.39399e-07	0.218165	341111	326.715	341438
0.316193	38.8636	2.6519	38.9539	-3.9036	33.883	0.217959	0.000228494	189806	879.677	1	12	0.00473243	0.000121488	0	0.000101407	-0.000265984	1.54927e-06	-60.7073	0.0127524	0.0062394	0.0111218	-3.91929	38.9609	38.8698	2.66303	0.0256118	0.00174765	0.0256714	3.9036	879677	1.28916e+07	1.29216e+07	-86.0964	0.0000000E+000	0.0000000E+000	0.0000000E+000	86.0964	0.0000000E+000	0.0000000E+000	0.0000000E+000	-86.0964	0.0000000E+000	0.0000000E+000	0.0000000E+000	-3.9036	0.0000000E+000	0.0000000E+000	0.0000000E+000	3.9036	14.655	86.0964	1.02772e-05	4.98023e-08	-6.07758e-11	4.98631e-08	0.218225	953894	1164.07	955058
0.0999041	40.6571	3.64237	40.8199	-5.11932	79.0909	0.217964	0.00121032	437374	3482.38	1	12	0.00472903	0.000115851	0	8.10775e-05	-0.000227833	2.35846e-06	12.6426	0.0203577	0.0198641	-0.00445567	-5.11061	40.8393	40.677	3.63791	0.0244001	0.00218595	0.0244978	5.11932	3.48238e+06	3.88713e+07	3.9027e+07	-84.8807	0.0000000E+000	0.0000000E+000	0.0000000E+000	84.8807	0.0000000E+000	0.0000000E+000	0.0000000E+000	-84.8807	0.0000000E+000	0.0000000E+000	0.0000000E+000	-5.11932	0.0000000E+000	0.0000000E+000	0.0000000E+000	5.11932	11.1623	84.8807	-2.5345e-05	2.63805e-07	-2.7575e-10	2.64081e-07	0.218192	180088	188.243	180277
0.0315922	42.9815	6.76892	43.5112	-8.94969	221.974	0.21797	0.00037417	744253	18011.8	1	12	0.00473327	0.000108783	0	-1.46168e-05	-5.61544e-05	2.93371e-06	-2.53253	0.0269685	0.0269421	0.00119165	-8.94573	43.538	43.0084	6.77011	0.0227028	0.00357533	0.0229826	8.94969	1.80118e+07	1.14372e+08	1.15781e+08	-81.0503	0.0000000E+000	0.0000000E+000	0.0000000E+000	81.0503	0.0000000E+000	0.0000000E+000	0.0000000E+000	-81.0503	0.0000000E+000	0.0000000E+000	0.0000000E+000	-8.94969	0.0000000E+000	0.0000000E+000	0.0000000E+000	8.94969	6.34983	81.0503	-1.60928e-05	8.15579e-08	-2.10113e-11	8.15789e-08	0.218026	582542	150.077	582692
0.0100092	47.5686	14.1254	49.6215	-16.5387	673.198	0.217973	0.00158908	1.12569e+06	91218.6	1	12	0.00473448	9.54119e-05	0	0.00063891	-0.000113381	3.8856e-06	-13.1907	0.0407244	0.03965	0.00929302	-16.536	49.6622	47.6082	14.1347	0.0193188	0.00573669	0.0201525	16.5387	9.12187e+07	3.07186e+08	3.20444e+08	-73.4613	0.0000000E+000	0.0000000E+000	0.0000000E+000	73.4613	0.0000000E+000	0.0000000E+000	0.0000000E+000	-73.4613	0.0000000E+000	0.0000000E+000	0.0000000E+000	-16.5387	0.0000000E+000	0.0000000E+000	0.0000000E+000	16.5387	3.36758	73.4613	0.000362917	3.46378e-07	-1.80171e-10	3.46558e-07	0.218087	137169	71.3497	137241