File: txt/19511_R316_UA718_SOC00_C05.mpt
EC-Lab ASCII FILE
Nb header lines : 65

Potentio Electrochemical Impedance Spectroscopy

Run on channel : 5 (SN 65912)
User :
CE vs. WE compliance from -10 V to 10 V
Electrode connection : standard
Potential control : Ewe
Ewe ctrl range : min = -10.00 V, max = 10.00 V
Safety Limits :
	Do not start on E overload
Acquisition started on : 12/04/2025 15:42:57.992
Technique started on : 12/04/2025 15:43:00.046
Loaded Setting File :  C:\Users\Celltest\OneDrive - store-dot.com\Documents\EC-Lab\Data\@Biologic Test Protocols\anode half cell EIS SOC00.mps
Saved on :
	File : 19511_R316_UA718_SOC00_C05.mpr
	Directory : C:\Users\Celltest\OneDrive - store-dot.com\Documents\EC-Lab\Data\Charmaine\
	Host : 169.254.61.224
Device : VMP-3e (SN .003165)
Address : USB
EC-LAB for windows v11.62 (software)
Internet server v27.00 (firmware)
Command interpretor v12.03 (firmware)
Electrode material :
Initial state :
Electrolyte :
Comments :
Electrode surface area : 0.001 cm²
Characteristic mass : 0.001 g
Equivalent Weight : 0.000 g/eq.
Density : 0.000 g/cm3
Volume (V) : 0.001 cm³
Record Ece
Cycle Definition : Charge/Discharge alternance
Mode                Single sine
E (V)               0.0000
vs.                 Eoc
tE (h:m:s)          0:00:0.0000
record              0
dI                  0.000
unit dI             mA
dt (s)              0.000
fi                  100.000
unit fi             kHz
ff                  10.000
unit ff             mHz
Nd                  6
Points              per decade
spacing             Logarithmic
Va (mV)             5.0
pw                  0.10
Na                  2
corr                0
E range min (V)     -10.000
E range max (V)     10.000
I Range             Auto
Bandwidth           5
nc cycles           0
goto Ns'            0
nr cycles           0
inc. cycle          0

freq/Hz	Re(Z)/Ohm	-Im(Z)/Ohm	|Z|/Ohm	Phase(Z)/deg	time/s	<Ewe>/V	<I>/mA	Cs/µF	Cp/µF	cycle number	I Range	|Ewe|/V	|I|/A	Ns	(Q-Qo)/mA.h	<Ece>/V	|Ece|/V	Phase(Zce)/deg	|Zce|/Ohm	Re(Zce)/Ohm	-Im(Zce)/Ohm	Phase(Zwe-ce)/deg	|Zwe-ce|/Ohm	Re(Zwe-ce)/Ohm	-Im(Zwe-ce)/Ohm	Re(Y)/Ohm-1	Im(Y)/Ohm-1	|Y|/Ohm-1	Phase(Y)/deg	Re(C)/nF	Im(C)/nF	|C|/nF	Phase(C)/deg	Re(M)	Im(M)	|M|	Phase(M)/deg	Re(Permittivity)	Im(Permittivity)	|Permittivity|	Phase(Permittivity)/deg	Re(Resistivity)/Ohm.cm	Im(Resistivity)/Ohm.cm	|Resistivity|/Ohm.cm	Phase(Resistivity)/deg	Re(Conductivity)/mS/cm	Im(Conductivity)/mS/cm	|Conductivity|/mS/cm	Phase(Conductivity)/deg	Tan(Delta)	Loss Angle(Delta)/deg	dq/mA.h	Pwe/W	Pce/W	Pwe-ce/W	<Ewe-Ece>/V	Rwe/Ohm	Rce/Ohm	Rwe-ce/Ohm		Ewe-Ece/V
100004	1.63473	0.585503	1.73642	-19.7058	2.05352	0.293227	0.0177046	2.71816	0.309046	1	9	0.00430651	0.00248011	0	4.13468e-06	0.000200619	2.43307e-05	41.8962	0.00981036	0.0073024	-0.00655119	-19.4218	1.74111	1.64203	0.578952	0.542171	0.194187	0.575897	19.7058	309.047	862.86	916.535	-70.2942	0.0000000E+000	0.0000000E+000	0.0000000E+000	70.2942	0.0000000E+000	0.0000000E+000	0.0000000E+000	-70.2942	0.0000000E+000	0.0000000E+000	0.0000000E+000	-19.7058	0.0000000E+000	0.0000000E+000	0.0000000E+000	19.7058	2.79201	70.2942	4.13468e-06	5.19148e-06	3.55188e-09	5.18793e-06	0.293027	16562.2	11.3314	16550.9
31621.1	2.14471	0.938876	2.34121	-23.6421	3.82254	0.2932	-0.0201683	5.36086	0.862125	1	9	0.00492057	0.00210172	0	-0.000190419	-2.84759e-05	5.2593e-06	52.0837	0.00250238	0.00153774	-0.00197415	-23.5827	2.34183	2.14625	0.936902	0.39128	0.171288	0.42713	23.6421	862.125	1969.38	2149.82	-66.3579	0.0000000E+000	0.0000000E+000	0.0000000E+000	66.3579	0.0000000E+000	0.0000000E+000	0.0000000E+000	-66.3579	0.0000000E+000	0.0000000E+000	0.0000000E+000	-23.6421	0.0000000E+000	0.0000000E+000	0.0000000E+000	23.6421	2.28434	66.3579	-0.000162585	-5.91335e-06	5.74309e-10	-5.91392e-06	0.293229	14537.7	1.41191	14539.1
10002.2	2.8844	1.23915	3.13931	-23.2485	4.72556	0.2932	-0.0143216	12.841	2.00069	1	9	0.00463655	0.00147693	0	-0.000198839	-8.57495e-05	6.12007e-06	19.1845	0.00414377	0.00391364	-0.00136169	-23.1976	3.14237	2.88832	1.23779	0.292676	0.125735	0.318541	23.2485	2000.69	4657.05	5068.62	-66.7515	0.0000000E+000	0.0000000E+000	0.0000000E+000	66.7515	0.0000000E+000	0.0000000E+000	0.0000000E+000	-66.7515	0.0000000E+000	0.0000000E+000	0.0000000E+000	-23.2485	0.0000000E+000	0.0000000E+000	0.0000000E+000	23.2485	2.32773	66.7515	-2.15557e-06	-4.1991e-06	1.22807e-09	-4.20032e-06	0.293285	20472.5	5.98741	20478.5
3163.08	3.81362	1.76926	4.20405	-24.888	5.95961	0.293123	-0.026807	28.4393	5.03693	1	10	0.00502945	0.00119633	0	-0.000207672	-2.84759e-05	6.97282e-06	-79.8042	0.00582849	0.00103171	0.00573645	-24.953	4.2074	3.81466	1.77499	0.215776	0.100105	0.237866	24.888	5036.93	10857.1	11968.6	-65.112	0.0000000E+000	0.0000000E+000	0.0000000E+000	65.112	0.0000000E+000	0.0000000E+000	0.0000000E+000	-65.112	0.0000000E+000	0.0000000E+000	0.0000000E+000	-24.888	0.0000000E+000	0.0000000E+000	0.0000000E+000	24.888	2.1555	65.112	-4.19126e-06	-7.85773e-06	7.63351e-10	-7.85849e-06	0.293151	10934.6	1.06226	10935.6
1000.32	4.98235	2.78021	5.70556	-29.162	7.31485	0.293153	-0.0115447	57.2274	13.5882	1	10	0.00484277	0.000848781	0	-0.000210963	0.000124254	5.70675e-06	-81.8067	0.00672347	0.000958178	0.00665484	-29.2156	5.70964	4.98331	2.78686	0.153052	0.0854046	0.175268	29.162	13588.2	24351.1	27885.8	-60.838	0.0000000E+000	0.0000000E+000	0.0000000E+000	60.838	0.0000000E+000	0.0000000E+000	0.0000000E+000	-60.838	0.0000000E+000	0.0000000E+000	0.0000000E+000	-29.162	0.0000000E+000	0.0000000E+000	0.0000000E+000	29.162	1.79208	60.838	-1.48055e-06	-3.38436e-06	-1.43447e-09	-3.38293e-06	0.293029	25392.8	10.7628	25382.1
316.316	6.638	5.4296	8.57576	-39.2817	8.66506	0.293127	-0.0117644	92.6683	37.1469	1	10	0.00477264	0.000556527	0	-0.000214368	6.69802e-05	1.22433e-05	-72.1291	0.0219995	0.00675105	0.0209381	-39.3613	8.59425	6.64475	5.45054	0.0902593	0.0738283	0.116608	39.2817	37146.9	45414.2	58671.4	-50.7183	0.0000000E+000	0.0000000E+000	0.0000000E+000	50.7183	0.0000000E+000	0.0000000E+000	0.0000000E+000	-50.7183	0.0000000E+000	0.0000000E+000	0.0000000E+000	-39.2817	0.0000000E+000	0.0000000E+000	0.0000000E+000	39.2817	1.22256	50.7183	-9.25566e-07	-3.44847e-06	-7.87982e-10	-3.44768e-06	0.29306	24916.4	5.69347	24910.8
100.032	11.0988	11.8698	16.2504	-46.9226	10.0118	0.293129	-0.011608	134.041	71.5151	1	10	0.00475273	0.000292469	0	-0.000218007	0.000200619	8.39665e-06	-42.5505	0.0287095	0.0211498	0.0194145	-46.9149	16.279	11.1199	11.8892	0.042029	0.0449486	0.0615371	46.9226	71515.1	66869.8	97908	-43.0774	0.0000000E+000	0.0000000E+000	0.0000000E+000	43.0774	0.0000000E+000	0.0000000E+000	0.0000000E+000	-43.0774	0.0000000E+000	0.0000000E+000	0.0000000E+000	-46.9226	0.0000000E+000	0.0000000E+000	0.0000000E+000	46.9226	0.935045	43.0774	-1.69677e-06	-3.40265e-06	-2.32879e-09	-3.40032e-06	0.292929	25252.3	17.2828	25235
31.6296	24.9832	19.9859	31.9937	-38.6589	11.5915	0.293174	-0.00584266	251.77	98.2476	1	11	0.00474166	0.000148206	0	-0.00022049	0.000124254	2.40005e-05	-17.4899	0.16194	0.154454	0.0486691	-38.5546	32.1448	25.1377	20.0346	0.0244073	0.0195252	0.0312562	38.6589	98247.6	122814	157276	-51.3411	0.0000000E+000	0.0000000E+000	0.0000000E+000	51.3411	0.0000000E+000	0.0000000E+000	0.0000000E+000	-51.3411	0.0000000E+000	0.0000000E+000	0.0000000E+000	-38.6589	0.0000000E+000	0.0000000E+000	0.0000000E+000	38.6589	1.25004	51.3411	-3.74489e-07	-1.71292e-06	-7.25973e-10	-1.71219e-06	0.29305	50178.1	21.2667	50156.9
10.0032	43.5279	18.1756	47.1702	-22.6636	12.9228	0.293183	-0.00529014	875.369	129.968	1	11	0.00474487	0.00010059	0	-0.000223109	-8.57495e-05	1.11466e-05	44.5466	0.110812	0.0789737	-0.0777335	-22.5396	47.2133	43.6069	18.0979	0.0195628	0.00816871	0.0211998	22.6636	129967	311252	337297	-67.3364	0.0000000E+000	0.0000000E+000	0.0000000E+000	67.3364	0.0000000E+000	0.0000000E+000	0.0000000E+000	-67.3364	0.0000000E+000	0.0000000E+000	0.0000000E+000	-22.6636	0.0000000E+000	0.0000000E+000	0.0000000E+000	22.6636	2.39485	67.3364	-1.33866e-06	-1.55098e-06	4.53627e-10	-1.55143e-06	0.293269	55420.7	16.2093	55436.9
3.1604	54.8015	12.3568	56.1774	-12.7067	14.4395	0.293173	-0.00488747	4075.43	197.179	1	11	0.00474746	8.45084e-05	0	-0.000224749	-0.000143023	4.39908e-06	-117.752	0.052055	-0.0242389	0.0460673	-12.758	56.1639	54.7773	12.4028	0.0173648	0.00391545	0.0178008	12.7067	197179	874477	896431	-77.2933	0.0000000E+000	0.0000000E+000	0.0000000E+000	77.2933	0.0000000E+000	0.0000000E+000	0.0000000E+000	-77.2933	0.0000000E+000	0.0000000E+000	0.0000000E+000	-12.7067	0.0000000E+000	0.0000000E+000	0.0000000E+000	12.7067	4.43494	77.2933	-1.5544e-06	-1.43287e-06	6.99022e-10	-1.43357e-06	0.293316	59984.5	29.2632	60013.8
1.00006	61.3566	8.19157	61.901	-7.60445	19.542	0.293179	-0.00388892	19427.9	340.223	1	12	0.00475195	7.67669e-05	0	-0.00022949	0.000181527	2.40704e-06	-58.6282	0.0313552	0.0163232	0.0267713	-7.627	61.9207	61.3729	8.21834	0.0160128	0.00213782	0.0161548	7.60445	340223	2.54835e+06	2.57096e+06	-82.3956	0.0000000E+000	0.0000000E+000	0.0000000E+000	82.3956	0.0000000E+000	0.0000000E+000	0.0000000E+000	-82.3956	0.0000000E+000	0.0000000E+000	0.0000000E+000	-7.60445	0.0000000E+000	0.0000000E+000	0.0000000E+000	7.60445	7.49022	82.3956	-2.18628e-07	-1.14015e-06	-7.05946e-10	-1.13944e-06	0.292997	75388.2	46.6781	75341.5
0.316193	65.2493	6.13664	65.5373	-5.37281	33.8868	0.293178	-0.00297479	82023.3	719.154	1	12	0.00474964	7.24724e-05	0	-0.00023662	-0.00025757	2.95669e-06	74.7995	0.0407975	0.010697	-0.0393702	-5.33767	65.5442	65.26	6.09727	0.0151915	0.00142874	0.0152585	5.37281	719154	7.64658e+06	7.68032e+06	-84.6272	0.0000000E+000	0.0000000E+000	0.0000000E+000	84.6272	0.0000000E+000	0.0000000E+000	0.0000000E+000	-84.6272	0.0000000E+000	0.0000000E+000	0.0000000E+000	-5.37281	0.0000000E+000	0.0000000E+000	0.0000000E+000	5.37281	10.6327	84.6272	-6.00673e-06	-8.72143e-07	7.66218e-10	-8.72909e-07	0.293436	98554.3	86.5845	98640.8
0.0999041	68.4924	7.26224	68.8764	-6.05245	79.0947	0.293177	-0.00223085	219364	2438.75	1	12	0.00475209	6.89946e-05	0	-0.000303918	-0.000123932	1.78405e-06	-6.16616	0.0258579	0.0257083	0.00277745	-6.05249	68.9022	68.5181	7.26502	0.0144378	0.00153084	0.0145188	6.05245	2.43875e+06	2.30006e+07	2.31295e+07	-83.9475	0.0000000E+000	0.0000000E+000	0.0000000E+000	83.9475	0.0000000E+000	0.0000000E+000	0.0000000E+000	-83.9475	0.0000000E+000	0.0000000E+000	0.0000000E+000	-6.05245	0.0000000E+000	0.0000000E+000	0.0000000E+000	6.05245	9.43131	83.9475	-3.02927e-05	-6.54034e-07	2.76474e-10	-6.5431e-07	0.293301	131419	55.5537	131475
0.0315922	73.738	12.6491	74.815	-9.73384	221.978	0.293173	-0.0015977	398273	11384.7	1	12	0.00474875	6.34732e-05	0	-0.000335343	-4.75671e-05	2.03152e-06	20.4444	0.032006	0.02999	-0.0111796	-9.72152	74.8427	73.768	12.6379	0.0131739	0.00225986	0.0133663	9.73384	1.13847e+07	6.63672e+07	6.73366e+07	-80.2662	0.0000000E+000	0.0000000E+000	0.0000000E+000	80.2662	0.0000000E+000	0.0000000E+000	0.0000000E+000	-80.2662	0.0000000E+000	0.0000000E+000	0.0000000E+000	-9.73384	0.0000000E+000	0.0000000E+000	0.0000000E+000	9.73384	5.82951	80.2662	1.46941e-05	-4.68402e-07	7.59978e-11	-4.68478e-07	0.29322	183497	29.7723	183527
0.0100092	82.9245	22.7002	85.9754	-15.3094	673.201	0.293173	0.000173928	700475	48831.8	1	12	0.00474834	5.5229e-05	0	-0.000186422	-4.75671e-05	2.66546e-06	-10.005	0.048262	0.0475281	0.00838476	-15.3064	86.0235	82.9721	22.7086	0.0112185	0.003071	0.0116312	15.3094	4.88318e+07	1.78384e+08	1.84947e+08	-74.6906	0.0000000E+000	0.0000000E+000	0.0000000E+000	74.6906	0.0000000E+000	0.0000000E+000	0.0000000E+000	-74.6906	0.0000000E+000	0.0000000E+000	0.0000000E+000	-15.3094	0.0000000E+000	0.0000000E+000	0.0000000E+000	15.3094	3.65303	74.6906	3.2041e-05	5.09911e-08	-8.27327e-12	5.09994e-08	0.29322	1.6856e+06	273.487	1.68587e+06