File: txt/19512_R316_UA718_SOC00_C06.mpt
EC-Lab ASCII FILE
Nb header lines : 65

Potentio Electrochemical Impedance Spectroscopy

Run on channel : 6 (SN 65795)
User :
CE vs. WE compliance from -10 V to 10 V
Electrode connection : standard
Potential control : Ewe
Ewe ctrl range : min = -10.00 V, max = 10.00 V
Safety Limits :
	Do not start on E overload
Acquisition started on : 12/04/2025 15:43:04.751
Technique started on : 12/04/2025 15:43:06.662
Loaded Setting File :  C:\Users\Celltest\OneDrive - store-dot.com\Documents\EC-Lab\Data\Charmaine\19495_R316_UA628_SOC00_C05.mpr
Saved on :
	File : 19512_R316_UA718_SOC00_C06.mpr
	Directory : C:\Users\Celltest\OneDrive - store-dot.com\Documents\EC-Lab\Data\Charmaine\
	Host : 169.254.61.224
Device : VMP-3e (SN .003165)
Address : USB
EC-LAB for windows v11.62 (software)
Internet server v27.00 (firmware)
Command interpretor v12.03 (firmware)
Electrode material :
Initial state :
Electrolyte :
Comments :
Electrode surface area : 0.001 cm²
Characteristic mass : 0.001 g
Equivalent Weight : 0.000 g/eq.
Density : 0.000 g/cm3
Volume (V) : 0.001 cm³
Record Ece
Cycle Definition : Charge/Discharge alternance
Mode                Single sine
E (V)               0.0000
vs.                 Eoc
tE (h:m:s)          0:00:0.0000
record              0
dI                  0.000
unit dI             mA
dt (s)              0.000
fi                  100.000
unit fi             kHz
ff                  10.000
unit ff             mHz
Nd                  6
Points              per decade
spacing             Logarithmic
Va (mV)             5.0
pw                  0.10
Na                  2
corr                0
E range min (V)     -10.000
E range max (V)     10.000
I Range             Auto
Bandwidth           5
nc cycles           0
goto Ns'            0
nr cycles           0
inc. cycle          0

freq/Hz	Re(Z)/Ohm	-Im(Z)/Ohm	|Z|/Ohm	Phase(Z)/deg	time/s	<Ewe>/V	<I>/mA	Cs/µF	Cp/µF	cycle number	I Range	|Ewe|/V	|I|/A	Ns	(Q-Qo)/mA.h	<Ece>/V	|Ece|/V	Phase(Zce)/deg	|Zce|/Ohm	Re(Zce)/Ohm	-Im(Zce)/Ohm	Phase(Zwe-ce)/deg	|Zwe-ce|/Ohm	Re(Zwe-ce)/Ohm	-Im(Zwe-ce)/Ohm	Re(Y)/Ohm-1	Im(Y)/Ohm-1	|Y|/Ohm-1	Phase(Y)/deg	Re(C)/nF	Im(C)/nF	|C|/nF	Phase(C)/deg	Re(M)	Im(M)	|M|	Phase(M)/deg	Re(Permittivity)	Im(Permittivity)	|Permittivity|	Phase(Permittivity)/deg	Re(Resistivity)/Ohm.cm	Im(Resistivity)/Ohm.cm	|Resistivity|/Ohm.cm	Phase(Resistivity)/deg	Re(Conductivity)/mS/cm	Im(Conductivity)/mS/cm	|Conductivity|/mS/cm	Phase(Conductivity)/deg	Tan(Delta)	Loss Angle(Delta)/deg	dq/mA.h	Pwe/W	Pce/W	Pwe-ce/W	<Ewe-Ece>/V	Rwe/Ohm	Rce/Ohm	Rwe-ce/Ohm		Ewe-Ece/V
100004	1.3714	0.606242	1.49942	-23.8483	1.91054	0.288125	0.0334436	2.62517	0.429142	1	9	0.00463866	0.00309363	0	1.10388e-06	0.000106829	4.86579e-05	93.4172	0.0157284	-0.000937509	-0.0157005	-23.3115	1.49228	1.37046	0.590541	0.609981	0.269648	0.666923	23.8483	429.143	970.778	1061.4	-66.1517	0.0000000E+000	0.0000000E+000	0.0000000E+000	66.1517	0.0000000E+000	0.0000000E+000	0.0000000E+000	-66.1517	0.0000000E+000	0.0000000E+000	0.0000000E+000	-23.8483	0.0000000E+000	0.0000000E+000	0.0000000E+000	23.8483	2.26213	66.1517	1.10388e-06	9.63594e-06	3.57275e-09	9.63237e-06	0.288018	8615.23	3.1943	8612.04
31621.1	1.95341	0.92666	2.16206	-25.3788	3.43353	0.288108	0.0242056	5.43153	0.997766	1	9	0.00499655	0.00231102	0	-3.76048e-06	0.000297809	2.13159e-05	50.7532	0.0092236	0.00583542	-0.00714301	-25.1417	2.16429	1.95924	0.919517	0.417886	0.198238	0.462522	25.3788	997.766	2103.3	2327.96	-64.6212	0.0000000E+000	0.0000000E+000	0.0000000E+000	64.6212	0.0000000E+000	0.0000000E+000	0.0000000E+000	-64.6212	0.0000000E+000	0.0000000E+000	0.0000000E+000	-25.3788	0.0000000E+000	0.0000000E+000	0.0000000E+000	25.3788	2.10801	64.6212	4.62509e-07	6.97383e-06	7.20866e-09	6.96662e-06	0.28781	11902.5	12.3033	11890.2
10002.2	2.68199	1.2168	2.94511	-24.4034	4.33455	0.288116	0.0234234	13.0769	2.23223	1	9	0.0053221	0.0018071	0	6.41328e-06	0.000183221	2.23426e-06	-91.0016	0.00123638	-2.16119e-05	0.00123619	-24.4255	2.9456	2.68197	1.21803	0.309211	0.140287	0.339546	24.4034	2232.23	4920.15	5402.85	-65.5966	0.0000000E+000	0.0000000E+000	0.0000000E+000	65.5966	0.0000000E+000	0.0000000E+000	0.0000000E+000	-65.5966	0.0000000E+000	0.0000000E+000	0.0000000E+000	-24.4034	0.0000000E+000	0.0000000E+000	0.0000000E+000	24.4034	2.20414	65.5966	2.23113e-06	6.74864e-06	4.29166e-09	6.74435e-06	0.287932	12300.3	7.82215	12292.5
3163.08	3.59137	1.71405	3.97943	-25.5137	5.44367	0.288019	-0.0239699	29.3553	5.44617	1	10	0.00513729	0.00129096	0	1.95892e-06	-7.75924e-06	7.85195e-06	-146.495	0.00608226	-0.00507163	0.00335744	-25.5889	3.97631	3.5863	1.71741	0.226787	0.108238	0.251292	25.5137	5446.17	11411.1	12644.1	-64.4863	0.0000000E+000	0.0000000E+000	0.0000000E+000	64.4863	0.0000000E+000	0.0000000E+000	0.0000000E+000	-64.4863	0.0000000E+000	0.0000000E+000	0.0000000E+000	-25.5137	0.0000000E+000	0.0000000E+000	0.0000000E+000	25.5137	2.09525	64.4863	-4.82027e-06	-6.90377e-06	1.85988e-10	-6.90396e-06	0.288026	12015.9	0.323708	12016.2
1000.32	4.69226	2.69458	5.41092	-29.867	6.79682	0.288034	-0.00962263	59.046	14.643	1	10	0.00492561	0.00091031	0	-1.30116e-06	0.000125927	1.01291e-05	-141.509	0.0111271	-0.00870922	0.00692538	-29.9766	5.40682	4.68355	2.7015	0.160266	0.0920341	0.184812	29.867	14643	25498.9	29404.3	-60.133	0.0000000E+000	0.0000000E+000	0.0000000E+000	60.133	0.0000000E+000	0.0000000E+000	0.0000000E+000	-60.133	0.0000000E+000	0.0000000E+000	0.0000000E+000	-29.867	0.0000000E+000	0.0000000E+000	0.0000000E+000	29.867	1.74137	60.133	-3.68541e-07	-2.77164e-06	-1.21175e-09	-2.77043e-06	0.287908	29933	13.0865	29919.9
316.316	6.25591	5.39471	8.26071	-40.7725	8.147	0.288044	-0.0095034	93.2676	39.7771	1	10	0.00484078	0.000586	0	-4.69618e-06	8.77309e-05	8.46316e-06	-6.25983	0.0144423	0.0143561	0.00157475	-40.7158	8.27262	6.27027	5.39629	0.091676	0.0790558	0.121055	40.7725	39777.1	46126.9	60909	-49.2275	0.0000000E+000	0.0000000E+000	0.0000000E+000	49.2275	0.0000000E+000	0.0000000E+000	0.0000000E+000	-49.2275	0.0000000E+000	0.0000000E+000	0.0000000E+000	-40.7725	0.0000000E+000	0.0000000E+000	0.0000000E+000	40.7725	1.15964	49.2275	-1.01382e-06	-2.73739e-06	-8.33742e-10	-2.73656e-06	0.287956	30309.5	9.23153	30300.3
100.032	10.6621	11.9596	16.0222	-48.2829	9.49377	0.288027	-0.0102673	133.034	74.1229	1	10	0.00481379	0.000300444	0	-7.49848e-06	0.000164123	8.21326e-06	-119.421	0.0273371	-0.0134288	0.0238114	-48.3754	16.0311	10.6486	11.9834	0.0415331	0.0465877	0.0624132	48.2829	74122.9	66080.8	99302	-41.7171	0.0000000E+000	0.0000000E+000	0.0000000E+000	41.7171	0.0000000E+000	0.0000000E+000	0.0000000E+000	-41.7171	0.0000000E+000	0.0000000E+000	0.0000000E+000	-48.2829	0.0000000E+000	0.0000000E+000	0.0000000E+000	48.2829	0.891503	41.7171	-1.45069e-06	-2.95727e-06	-1.68511e-09	-2.95559e-06	0.287863	28052.7	15.985	28036.7
31.6296	24.8513	20.1268	31.9793	-39.0036	11.0736	0.28807	-0.00483754	250.007	99.0291	1	11	0.00481419	0.000150541	0	-9.87137e-06	0.000125927	6.99235e-06	111.015	0.0464482	-0.0166571	-0.0433587	-38.9619	31.9391	24.8347	20.0834	0.0243003	0.0196805	0.0312702	39.0036	99029.1	122275	157347	-50.9964	0.0000000E+000	0.0000000E+000	0.0000000E+000	50.9964	0.0000000E+000	0.0000000E+000	0.0000000E+000	-50.9964	0.0000000E+000	0.0000000E+000	0.0000000E+000	-39.0036	0.0000000E+000	0.0000000E+000	0.0000000E+000	39.0036	1.23474	50.9964	-6.12237e-07	-1.39355e-06	-6.09177e-10	-1.39294e-06	0.287945	59548.9	26.0312	59522.9
10.0032	43.4735	18.0872	47.086	-22.5897	12.4058	0.288066	-0.00424811	879.652	129.798	1	11	0.00481195	0.000102195	0	-1.18956e-05	0.000374201	7.27599e-06	95.942	0.0711971	-0.00737048	-0.0708146	-22.5136	47.052	43.4661	18.0163	0.0196084	0.00815805	0.0212377	22.5897	129798	311977	337901	-67.4102	0.0000000E+000	0.0000000E+000	0.0000000E+000	67.4102	0.0000000E+000	0.0000000E+000	0.0000000E+000	-67.4102	0.0000000E+000	0.0000000E+000	0.0000000E+000	-22.5897	0.0000000E+000	0.0000000E+000	0.0000000E+000	22.5897	2.40356	67.4102	-3.4125e-07	-1.22374e-06	-1.58965e-09	-1.22215e-06	0.287692	67810.5	88.0866	67722.4
3.1604	54.3928	11.8881	55.6768	-12.3287	13.9234	0.288067	-0.00384576	4236.09	193.127	1	11	0.0048117	8.64221e-05	0	-1.25157e-05	0.000125927	3.77334e-06	-6.95141	0.0436618	0.0433408	0.00528428	-12.3245	55.7203	54.4362	11.8934	0.0175466	0.00383499	0.0179608	12.3287	193127	883632	904491	-77.6713	0.0000000E+000	0.0000000E+000	0.0000000E+000	77.6713	0.0000000E+000	0.0000000E+000	0.0000000E+000	-77.6713	0.0000000E+000	0.0000000E+000	0.0000000E+000	-12.3287	0.0000000E+000	0.0000000E+000	0.0000000E+000	12.3287	4.57539	77.6713	1.76675e-08	-1.10784e-06	-4.84285e-10	-1.10735e-06	0.287941	74905	32.7443	74872.3
1.00006	60.627	7.80776	61.1277	-7.33836	19.026	0.288091	-0.00280902	20382.9	332.539	1	12	0.00481272	7.87322e-05	0	-1.98492e-05	0.000164123	3.18722e-06	38.5138	0.0404819	0.0316753	-0.0252082	-7.31114	61.1559	60.6587	7.78255	0.0162252	0.00208954	0.0163592	7.33836	332539	2.58215e+06	2.60348e+06	-82.6616	0.0000000E+000	0.0000000E+000	0.0000000E+000	82.6616	0.0000000E+000	0.0000000E+000	0.0000000E+000	-82.6616	0.0000000E+000	0.0000000E+000	0.0000000E+000	-7.33836	0.0000000E+000	0.0000000E+000	0.0000000E+000	7.33836	7.76497	82.6616	-2.19247e-06	-8.09255e-07	-4.61026e-10	-8.08794e-07	0.287927	102559	58.4271	102501
0.316193	64.3348	5.92546	64.6071	-5.2623	33.3682	0.28808	-0.00257842	84946.5	714.545	1	12	0.00481674	7.45543e-05	0	-1.84119e-05	4.95349e-05	2.94912e-06	4.18051	0.0395566	0.0394514	-0.00288364	-5.25655	64.6461	64.3742	5.92258	0.0154129	0.00141959	0.0154782	5.2623	714545	7.75806e+06	7.7909e+06	-84.7377	0.0000000E+000	0.0000000E+000	0.0000000E+000	84.7377	0.0000000E+000	0.0000000E+000	0.0000000E+000	-84.7377	0.0000000E+000	0.0000000E+000	0.0000000E+000	-5.2623	0.0000000E+000	0.0000000E+000	0.0000000E+000	5.2623	10.8573	84.7377	1.37206e-06	-7.42791e-07	-1.27722e-10	-7.42663e-07	0.288031	111728	19.2114	111708
0.0999041	67.415	7.06741	67.7844	-5.98471	78.5762	0.288078	-0.00137016	225412	2450.4	1	12	0.00481399	7.10192e-05	0	-5.51081e-05	-7.75924e-06	1.36846e-06	-33.67	0.0192688	0.0160364	0.0106828	-5.99227	67.8015	67.431	7.07809	0.0146722	0.00153816	0.0147527	5.98471	2.4504e+06	2.3374e+07	2.35021e+07	-84.0153	0.0000000E+000	0.0000000E+000	0.0000000E+000	84.0153	0.0000000E+000	0.0000000E+000	0.0000000E+000	-84.0153	0.0000000E+000	0.0000000E+000	0.0000000E+000	-5.98471	0.0000000E+000	0.0000000E+000	0.0000000E+000	5.98471	9.53886	84.0153	-2.42444e-05	-3.94712e-07	1.06314e-11	-3.94723e-07	0.288086	210252	5.66304	210258
0.0315922	72.613	11.8443	73.5727	-9.26421	221.459	0.288076	-0.00120912	425336	11023.4	1	12	0.00481416	6.54341e-05	0	-0.000179609	0.000412398	1.54021e-06	6.11089	0.0235383	0.0234046	-0.00250573	-9.25935	73.5954	72.6364	11.8418	0.0134147	0.00218814	0.013592	9.26421	1.10234e+07	6.75805e+07	6.84737e+07	-80.7358	0.0000000E+000	0.0000000E+000	0.0000000E+000	80.7358	0.0000000E+000	0.0000000E+000	0.0000000E+000	-80.7358	0.0000000E+000	0.0000000E+000	0.0000000E+000	-9.26421	0.0000000E+000	0.0000000E+000	0.0000000E+000	9.26421	6.13065	80.7358	-3.79357e-05	-3.48318e-07	-4.98638e-10	-3.47819e-07	0.287663	238252	341.073	237911
0.0100092	80.4352	21.4002	83.2333	-14.8987	672.681	0.288072	-0.000484059	743025	49118.6	1	12	0.00481422	5.78401e-05	0	2.43368e-05	0.000183221	1.87065e-06	4.25727	0.0323417	0.0322525	-0.00240089	-14.8914	83.2639	80.4674	21.3978	0.0116105	0.00308904	0.0120144	14.8987	4.91186e+07	1.84618e+08	1.9104e+08	-75.1013	0.0000000E+000	0.0000000E+000	0.0000000E+000	75.1013	0.0000000E+000	0.0000000E+000	0.0000000E+000	-75.1013	0.0000000E+000	0.0000000E+000	0.0000000E+000	-14.8987	0.0000000E+000	0.0000000E+000	0.0000000E+000	14.8987	3.75861	75.1013	0.000132113	-1.39444e-07	-8.86898e-11	-1.39355e-07	0.287888	595117	378.51	594739