File: txt/19514_R316_UA718_SOC00_C08.mpt
EC-Lab ASCII FILE
Nb header lines : 65

Potentio Electrochemical Impedance Spectroscopy

Run on channel : 8 (SN 65398)
User :
CE vs. WE compliance from -10 V to 10 V
Electrode connection : standard
Potential control : Ewe
Ewe ctrl range : min = -10.00 V, max = 10.00 V
Safety Limits :
	Do not start on E overload
Acquisition started on : 12/04/2025 15:43:17.019
Technique started on : 12/04/2025 15:43:18.931
Loaded Setting File :  NONE
Saved on :
	File : 19514_R316_UA718_SOC00_C08.mpr
	Directory : C:\Users\Celltest\OneDrive - store-dot.com\Documents\EC-Lab\Data\Charmaine\
	Host : 169.254.61.224
Device : VMP-3e (SN .003165)
Address : USB
EC-LAB for windows v11.62 (software)
Internet server v27.00 (firmware)
Command interpretor v12.03 (firmware)
Electrode material :
Initial state :
Electrolyte :
Comments :
Electrode surface area : 0.001 cm²
Characteristic mass : 0.001 g
Equivalent Weight : 0.000 g/eq.
Density : 0.000 g/cm3
Volume (V) : 0.001 cm³
Record Ece
Cycle Definition : Charge/Discharge alternance
Mode                Single sine
E (V)               0.0000
vs.                 Eoc
tE (h:m:s)          0:00:0.0000
record              0
dI                  0.000
unit dI             mA
dt (s)              0.000
fi                  100.000
unit fi             kHz
ff                  10.000
unit ff             mHz
Nd                  6
Points              per decade
spacing             Logarithmic
Va (mV)             5.0
pw                  0.10
Na                  2
corr                0
E range min (V)     -10.000
E range max (V)     10.000
I Range             Auto
Bandwidth           5
nc cycles           0
goto Ns'            0
nr cycles           0
inc. cycle          0

freq/Hz	Re(Z)/Ohm	-Im(Z)/Ohm	|Z|/Ohm	Phase(Z)/deg	time/s	<Ewe>/V	<I>/mA	Cs/µF	Cp/µF	cycle number	I Range	|Ewe|/V	|I|/A	Ns	(Q-Qo)/mA.h	<Ece>/V	|Ece|/V	Phase(Zce)/deg	|Zce|/Ohm	Re(Zce)/Ohm	-Im(Zce)/Ohm	Phase(Zwe-ce)/deg	|Zwe-ce|/Ohm	Re(Zwe-ce)/Ohm	-Im(Zwe-ce)/Ohm	Re(Y)/Ohm-1	Im(Y)/Ohm-1	|Y|/Ohm-1	Phase(Y)/deg	Re(C)/nF	Im(C)/nF	|C|/nF	Phase(C)/deg	Re(M)	Im(M)	|M|	Phase(M)/deg	Re(Permittivity)	Im(Permittivity)	|Permittivity|	Phase(Permittivity)/deg	Re(Resistivity)/Ohm.cm	Im(Resistivity)/Ohm.cm	|Resistivity|/Ohm.cm	Phase(Resistivity)/deg	Re(Conductivity)/mS/cm	Im(Conductivity)/mS/cm	|Conductivity|/mS/cm	Phase(Conductivity)/deg	Tan(Delta)	Loss Angle(Delta)/deg	dq/mA.h	Pwe/W	Pce/W	Pwe-ce/W	<Ewe-Ece>/V	Rwe/Ohm	Rce/Ohm	Rwe-ce/Ohm		Ewe-Ece/V
100004	1.39368	0.612289	1.52225	-23.7175	1.91156	0.286919	-0.0053547	2.59925	0.420523	1	9	0.0045876	0.0030137	0	-2.01121e-06	-0.000196454	4.46091e-05	85.6211	0.0148021	0.00113017	-0.0147589	-23.1901	1.51741	1.39481	0.59753	0.60144	0.264232	0.656924	23.7175	420.523	957.186	1045.49	-66.2825	0.0000000E+000	0.0000000E+000	0.0000000E+000	66.2825	0.0000000E+000	0.0000000E+000	0.0000000E+000	-66.2825	0.0000000E+000	0.0000000E+000	0.0000000E+000	-23.7175	0.0000000E+000	0.0000000E+000	0.0000000E+000	23.7175	2.27618	66.2825	-2.01121e-06	-1.53637e-06	1.05195e-09	-1.53742e-06	0.287115	53582.6	36.6881	53619.3
31621.1	1.94273	0.866789	2.12732	-24.0451	3.43452	0.286922	-0.00222974	5.8067	0.964026	1	9	0.00499793	0.0023494	0	1.25215e-05	1.35149e-05	1.07272e-05	14.1074	0.00456595	0.00442825	-0.0011129	-23.9692	2.13092	1.94715	0.865676	0.429284	0.191534	0.470074	24.0451	964.026	2160.66	2365.97	-65.9549	0.0000000E+000	0.0000000E+000	0.0000000E+000	65.9549	0.0000000E+000	0.0000000E+000	0.0000000E+000	-65.9549	0.0000000E+000	0.0000000E+000	0.0000000E+000	-24.0451	0.0000000E+000	0.0000000E+000	0.0000000E+000	24.0451	2.24129	65.9549	1.64211e-06	-6.39759e-07	-3.01348e-11	-6.39729e-07	0.286908	128680	6.06124	128674
10002.2	2.64148	1.15033	2.88109	-23.5324	4.33753	0.28693	0.00465266	13.8326	2.20512	1	9	0.00453368	0.0015736	0	1.36138e-05	-5.57311e-06	5.63872e-06	1.56628	0.00358332	0.00358198	-9.79438e-05	-23.5022	2.88433	2.64506	1.15023	0.318225	0.138583	0.347091	23.5324	2205.12	5063.59	5522.9	-66.4676	0.0000000E+000	0.0000000E+000	0.0000000E+000	66.4676	0.0000000E+000	0.0000000E+000	0.0000000E+000	-66.4676	0.0000000E+000	0.0000000E+000	0.0000000E+000	-23.5324	0.0000000E+000	0.0000000E+000	0.0000000E+000	23.5324	2.29629	66.4676	6.63335e-07	1.33499e-06	-2.59298e-11	1.33502e-06	0.286936	61670.2	1.19783	61671.4
3163.08	3.48341	1.62863	3.84533	-25.0579	5.57062	0.286821	-0.0278958	30.895	5.54197	1	10	0.00503972	0.00131061	0	1.13129e-05	-0.000215542	7.18188e-06	-30.8778	0.00547981	0.00470312	0.00281229	-25.0662	3.85078	3.48811	1.63144	0.235579	0.110142	0.260056	25.0579	5541.97	11853.5	13085.1	-64.9421	0.0000000E+000	0.0000000E+000	0.0000000E+000	64.9421	0.0000000E+000	0.0000000E+000	0.0000000E+000	-64.9421	0.0000000E+000	0.0000000E+000	0.0000000E+000	-25.0579	0.0000000E+000	0.0000000E+000	0.0000000E+000	25.0579	2.13886	64.9421	-3.8896e-06	-8.00108e-06	6.0127e-09	-8.0071e-06	0.287036	10281.9	7.72669	10289.6
1000.32	4.52838	2.59528	5.21936	-29.8177	6.92379	0.286848	-0.0112378	61.3051	15.1576	1	10	0.00484611	0.000928488	0	6.82486e-06	-0.000101013	6.52603e-06	-61.8578	0.00702866	0.00331515	0.00619773	-29.8586	5.22532	4.53169	2.60148	0.16623	0.0952688	0.191595	29.8177	15157.6	26447.8	30483.5	-60.1823	0.0000000E+000	0.0000000E+000	0.0000000E+000	60.1823	0.0000000E+000	0.0000000E+000	0.0000000E+000	-60.1823	0.0000000E+000	0.0000000E+000	0.0000000E+000	-29.8177	0.0000000E+000	0.0000000E+000	0.0000000E+000	29.8177	1.74485	60.1823	-6.61597e-07	-3.22353e-06	1.13516e-09	-3.22466e-06	0.286949	25525.4	8.98875	25534.4
316.316	6.03597	5.19779	7.96555	-40.7329	8.27407	0.286844	-0.0128783	96.8012	41.218	1	10	0.00476909	0.000598715	0	1.82165e-06	-4.37492e-05	7.29406e-06	-7.20131	0.0121829	0.0120868	0.00152719	-40.6846	7.9757	6.04806	5.19932	0.0951296	0.0819195	0.125541	40.7329	41218	47864.7	63166	-49.2671	0.0000000E+000	0.0000000E+000	0.0000000E+000	49.2671	0.0000000E+000	0.0000000E+000	0.0000000E+000	-49.2671	0.0000000E+000	0.0000000E+000	0.0000000E+000	-40.7329	0.0000000E+000	0.0000000E+000	0.0000000E+000	40.7329	1.16126	49.2671	-1.95758e-06	-3.69406e-06	5.63414e-10	-3.69462e-06	0.286888	22273.5	3.39714	22276.9
100.032	10.37	11.4326	15.435	-47.7903	9.62086	0.286842	-0.012205	139.167	76.3503	1	10	0.00474333	0.000307309	0	-2.62272e-06	-0.00023463	8.29878e-06	23.4559	0.0270046	0.0247732	-0.010749	-47.6955	15.4437	10.3947	11.4218	0.0435273	0.0479877	0.0647877	47.7903	76350.3	69253.7	103080	-42.2097	0.0000000E+000	0.0000000E+000	0.0000000E+000	42.2097	0.0000000E+000	0.0000000E+000	0.0000000E+000	-42.2097	0.0000000E+000	0.0000000E+000	0.0000000E+000	-47.7903	0.0000000E+000	0.0000000E+000	0.0000000E+000	47.7903	0.907052	42.2097	-1.33954e-06	-3.5009e-06	2.86365e-09	-3.50377e-06	0.287077	23502.1	19.2241	23521.3
31.6296	23.9341	19.072	30.6036	-38.5498	11.1896	0.286886	-0.00377929	263.834	102.466	1	11	0.00473238	0.000154635	0	-5.27592e-06	-0.000215542	4.33057e-05	-87.2526	0.280052	0.0134238	0.27973	-38.9413	30.7892	23.9475	19.3517	0.0255547	0.0203634	0.0326759	38.5498	102466	128587	164420	-51.4502	0.0000000E+000	0.0000000E+000	0.0000000E+000	51.4502	0.0000000E+000	0.0000000E+000	0.0000000E+000	-51.4502	0.0000000E+000	0.0000000E+000	0.0000000E+000	-38.5498	0.0000000E+000	0.0000000E+000	0.0000000E+000	38.5498	1.25493	51.4502	-7.13807e-07	-1.08423e-06	8.14595e-10	-1.08504e-06	0.287102	75910.1	57.0323	75967.1
10.0032	41.6182	16.9782	44.9482	-22.1931	12.5218	0.286895	-0.00345805	937.106	133.706	1	11	0.00474475	0.000105561	0	-6.38876e-06	-0.000120101	6.46596e-06	15.8774	0.0612536	0.0589167	-0.0167578	-22.145	44.9964	41.6771	16.9615	0.0205996	0.00840367	0.0222479	22.1931	133706	327749	353972	-67.8069	0.0000000E+000	0.0000000E+000	0.0000000E+000	67.8069	0.0000000E+000	0.0000000E+000	0.0000000E+000	-67.8069	0.0000000E+000	0.0000000E+000	0.0000000E+000	-22.1931	0.0000000E+000	0.0000000E+000	0.0000000E+000	22.1931	2.45127	67.8069	3.47582e-07	-9.92099e-07	4.15317e-10	-9.92514e-07	0.287015	82964.5	34.731	82999.2
3.1604	51.7347	11.0063	52.8925	-12.0103	14.0384	0.286896	-0.00277462	4575.5	198.12	1	11	0.0047441	8.96933e-05	0	-6.99295e-06	0.000108955	3.67888e-06	172.739	0.0410163	-0.0406873	-0.00518402	-12.014	52.8517	51.694	11.0011	0.0184924	0.00393415	0.0189063	12.0103	198120	931262	952103	-77.9897	0.0000000E+000	0.0000000E+000	0.0000000E+000	77.9897	0.0000000E+000	0.0000000E+000	0.0000000E+000	-77.9897	0.0000000E+000	0.0000000E+000	0.0000000E+000	-12.0103	0.0000000E+000	0.0000000E+000	0.0000000E+000	12.0103	4.70048	77.9897	7.34904e-07	-7.96028e-07	-3.0231e-10	-7.95726e-07	0.286787	103400	39.2685	103361
1.00006	57.4286	7.27831	57.8879	-7.22298	19.1419	0.286904	-0.00171165	21865.6	345.658	1	12	0.00474355	8.19436e-05	0	-1.3471e-05	-4.37492e-05	4.35297e-06	-27.3411	0.0531215	0.0471872	0.024398	-7.24104	57.9378	57.4757	7.30271	0.0171377	0.00217197	0.0172748	7.22298	345658	2.72737e+06	2.74919e+06	-82.777	0.0000000E+000	0.0000000E+000	0.0000000E+000	82.777	0.0000000E+000	0.0000000E+000	0.0000000E+000	-82.777	0.0000000E+000	0.0000000E+000	0.0000000E+000	-7.22298	0.0000000E+000	0.0000000E+000	0.0000000E+000	7.22298	7.89037	82.777	-3.29647e-06	-4.9108e-07	7.48834e-11	-4.91155e-07	0.286948	167618	25.5596	167644
0.316193	60.9997	5.75295	61.2704	-5.38769	33.4841	0.286898	-0.00187713	87493.8	771.36	1	12	0.00474738	7.74825e-05	0	-1.31891e-05	-0.000101013	2.09575e-06	-4.89387	0.0270481	0.0269495	0.00230748	-5.38747	61.2974	61.0266	5.75525	0.016249	0.00153246	0.0163211	5.38769	771360	8.17889e+06	8.21518e+06	-84.6123	0.0000000E+000	0.0000000E+000	0.0000000E+000	84.6123	0.0000000E+000	0.0000000E+000	0.0000000E+000	-84.6123	0.0000000E+000	0.0000000E+000	0.0000000E+000	-5.38769	0.0000000E+000	0.0000000E+000	0.0000000E+000	5.38769	10.6032	84.6123	3.05569e-06	-5.38545e-07	1.89615e-10	-5.38735e-07	0.286999	152839	53.8127	152892
0.0999041	64.093	6.83372	64.4562	-6.086	78.693	0.286899	-0.000692256	233120	2620.38	1	12	0.00474509	7.36172e-05	0	-1.12303e-05	0.000108955	4.14966e-06	-54.2469	0.056368	0.0329355	0.045745	-6.12331	64.4939	64.1259	6.87947	0.015427	0.00164485	0.0155144	6.086	2.62038e+06	2.45763e+07	2.47156e+07	-83.914	0.0000000E+000	0.0000000E+000	0.0000000E+000	83.914	0.0000000E+000	0.0000000E+000	0.0000000E+000	-83.914	0.0000000E+000	0.0000000E+000	0.0000000E+000	-6.086	0.0000000E+000	0.0000000E+000	0.0000000E+000	6.086	9.37893	83.914	-6.4778e-06	-1.98607e-07	-7.54249e-11	-1.98532e-07	0.28679	414440	157.392	414283
0.0315922	68.6853	11.2849	69.6061	-9.33025	221.576	0.286891	-0.000470971	446419	11733.9	1	12	0.00474554	6.81771e-05	0	-0.00014289	0.000242572	2.63109e-06	-11.6113	0.038592	0.0378023	0.00776748	-9.33152	69.6447	68.7231	11.2927	0.0141765	0.00232917	0.0143665	9.33025	1.17339e+07	7.14182e+07	7.23757e+07	-80.6697	0.0000000E+000	0.0000000E+000	0.0000000E+000	80.6697	0.0000000E+000	0.0000000E+000	0.0000000E+000	-80.6697	0.0000000E+000	0.0000000E+000	0.0000000E+000	-9.33025	0.0000000E+000	0.0000000E+000	0.0000000E+000	9.33025	6.08648	80.6697	-6.30347e-05	-1.35117e-07	-1.14244e-10	-1.35003e-07	0.286648	609147	515.045	608632
0.0100092	76.2272	21.5097	79.2038	-15.758	672.8	0.286896	-0.000601503	739243	54521.1	1	12	0.00474833	5.99508e-05	0	-9.19152e-05	-0.000215542	3.32636e-06	19.1058	0.0554848	0.0524285	-0.0181609	-15.735	79.2494	76.2796	21.4916	0.0121511	0.0034288	0.0126257	15.758	5.45211e+07	1.93214e+08	2.00759e+08	-74.242	0.0000000E+000	0.0000000E+000	0.0000000E+000	74.242	0.0000000E+000	0.0000000E+000	0.0000000E+000	-74.242	0.0000000E+000	0.0000000E+000	0.0000000E+000	-15.758	0.0000000E+000	0.0000000E+000	0.0000000E+000	15.758	3.54385	74.242	0.000101285	-1.72569e-07	1.29649e-10	-1.72698e-07	0.287111	476964	358.338	477323