File: txt/19746_R319_UC100_SOC50_C02.mpt
EC-Lab ASCII FILE
Nb header lines : 65

Potentio Electrochemical Impedance Spectroscopy

Run on channel : 2 (SN 66139)
User :
CE vs. WE compliance from -10 V to 10 V
Electrode connection : standard
Potential control : Ewe
Ewe ctrl range : min = -10.00 V, max = 10.00 V
Safety Limits :
	Do not start on E overload
Acquisition started on : 12/15/2025 16:10:27.500
Technique started on : 12/15/2025 16:10:30.195
Loaded Setting File :  C:\Users\Celltest\OneDrive - store-dot.com\Documents\EC-Lab\Data\@Biologic Test Protocols\cathode half cell EIS SOC50.mps
Saved on :
	File : 19746_R319_UC100_SOC50_C02.mpr
	Directory : C:\Users\Celltest\OneDrive - store-dot.com\Documents\EC-Lab\Data\Michael\
	Host : 169.254.61.224
Device : VMP-3e (SN .003165)
Address : USB
EC-LAB for windows v11.62 (software)
Internet server v27.00 (firmware)
Command interpretor v12.03 (firmware)
Electrode material :
Initial state :
Electrolyte :
Comments :
Electrode surface area : 0.001 cm²
Characteristic mass : 0.001 g
Equivalent Weight : 0.000 g/eq.
Density : 0.000 g/cm3
Volume (V) : 0.001 cm³
Record Ece
Cycle Definition : Charge/Discharge alternance
Mode                Multi sine
E (V)               0.0000
vs.                 Eoc
tE (h:m:s)          0:00:0.0000
record              0
dI                  0.000
unit dI             mA
dt (s)              0.000
fi                  1.000
unit fi             MHz
ff                  0.100
unit ff             mHz
Nd                  10
Points              per decade
spacing             Logarithmic
Va (mV)             5.0
pw                  0.10
Na                  2
corr                0
E range min (V)     -10.000
E range max (V)     10.000
I Range             Auto
Bandwidth           5
nc cycles           0
goto Ns'            0
nr cycles           0
inc. cycle          0

freq/Hz	Re(Z)/Ohm	-Im(Z)/Ohm	|Z|/Ohm	Phase(Z)/deg	time/s	<Ewe>/V	<I>/mA	Cs/µF	Cp/µF	cycle number	I Range	|Ewe|/V	|I|/A	Ns	(Q-Qo)/mA.h	<Ece>/V	|Ece|/V	Phase(Zce)/deg	|Zce|/Ohm	Re(Zce)/Ohm	-Im(Zce)/Ohm	Phase(Zwe-ce)/deg	|Zwe-ce|/Ohm	Re(Zwe-ce)/Ohm	-Im(Zwe-ce)/Ohm	Re(Y)/Ohm-1	Im(Y)/Ohm-1	|Y|/Ohm-1	Phase(Y)/deg	Re(C)/nF	Im(C)/nF	|C|/nF	Phase(C)/deg	Re(M)	Im(M)	|M|	Phase(M)/deg	Re(Permittivity)	Im(Permittivity)	|Permittivity|	Phase(Permittivity)/deg	Re(Resistivity)/Ohm.cm	Im(Resistivity)/Ohm.cm	|Resistivity|/Ohm.cm	Phase(Resistivity)/deg	Re(Conductivity)/mS/cm	Im(Conductivity)/mS/cm	|Conductivity|/mS/cm	Phase(Conductivity)/deg	Tan(Delta)	Loss Angle(Delta)/deg	dq/mA.h	Pwe/W	Pce/W	Pwe-ce/W	<Ewe-Ece>/V	Rwe/Ohm	Rce/Ohm	Rwe-ce/Ohm		Ewe-Ece/V
1.00002e+06	1.00824	-0.18734	1.0255	10.526	2.69452	3.88264	-0.0255485	-0.849536	-0.0283512	1	9	0.000203132	0.000198081	0	-1.48277e-05	9.04036e-05	0.000179581	-0.990611	0.906603	0.906467	0.0156739	5.12324	1.92239	1.91471	-0.171666	0.958725	-0.178139	0.975135	-10.526	-28.3512	152.583	155.195	-100.526	0.0000000E+000	0.0000000E+000	0.0000000E+000	100.526	0.0000000E+000	0.0000000E+000	0.0000000E+000	-100.526	0.0000000E+000	0.0000000E+000	0.0000000E+000	10.526	0.0000000E+000	0.0000000E+000	0.0000000E+000	-10.526	5.38189	79.474	-1.48277e-05	-9.91954e-05	-2.30967e-09	-9.91931e-05	3.88254	151971	3.53852	151968
251206	0.786559	0.29933	0.84159	-20.8346	4.99954	3.88264	-0.0134062	2.1166	0.267756	1	9	0.00216801	0.00257609	0	-2.66098e-05	0.000109494	2.38576e-05	122.259	0.00926118	-0.00494309	-0.00783169	-20.4527	0.834203	0.781616	0.291499	1.11053	0.422619	1.18823	20.8346	267.756	703.59	752.816	-69.1654	0.0000000E+000	0.0000000E+000	0.0000000E+000	69.1654	0.0000000E+000	0.0000000E+000	0.0000000E+000	-69.1654	0.0000000E+000	0.0000000E+000	0.0000000E+000	-20.8346	0.0000000E+000	0.0000000E+000	0.0000000E+000	20.8346	2.62773	69.1654	-6.12032e-07	-5.20516e-05	-1.46791e-09	-5.20501e-05	3.88253	289615	8.16743	289606
63093.8	1.29873	0.591854	1.42723	-24.4996	7.29752	3.88253	-0.0170191	4.26205	0.732927	1	9	0.00541908	0.00379693	0	-4.47142e-05	0.000109494	1.97829e-05	62.1604	0.00521023	0.00243316	-0.00460719	-24.2909	1.42754	1.30116	0.587246	0.637574	0.290555	0.700659	24.4996	732.927	1608.29	1767.42	-65.5004	0.0000000E+000	0.0000000E+000	0.0000000E+000	65.5004	0.0000000E+000	0.0000000E+000	0.0000000E+000	-65.5004	0.0000000E+000	0.0000000E+000	0.0000000E+000	-24.4996	0.0000000E+000	0.0000000E+000	0.0000000E+000	24.4996	2.19434	65.5004	-1.45464e-05	-6.6077e-05	-1.86349e-09	-6.60752e-05	3.88242	228128	6.43363	228122
15847.7	1.87495	0.54426	1.95234	-16.187	9.47152	3.88252	-0.0221963	18.4522	1.434	1	9	0.00496087	0.00254098	0	-4.53862e-05	-2.41414e-05	1.10531e-05	-32.5254	0.00434995	0.00366767	0.00233885	-16.2228	1.95652	1.87861	0.546599	0.4919	0.142789	0.512205	16.187	1434	4940.04	5143.97	-73.813	0.0000000E+000	0.0000000E+000	0.0000000E+000	73.813	0.0000000E+000	0.0000000E+000	0.0000000E+000	-73.813	0.0000000E+000	0.0000000E+000	0.0000000E+000	-16.187	0.0000000E+000	0.0000000E+000	0.0000000E+000	16.187	3.44495	73.813	-3.34982e-06	-8.61775e-05	5.3585e-10	-8.6178e-05	3.88254	174918	1.08763	174919
3983.6	2.2636	0.553399	2.33027	-13.738	11.196	3.88234	-0.0933732	72.1949	4.07165	1	9	0.00466639	0.00200251	0	-6.20024e-05	5.2222e-05	1.61465e-05	11.308	0.00806311	0.00790659	-0.00158103	-13.6544	2.33758	2.27151	0.551818	0.416858	0.101912	0.429135	13.738	4071.65	16654.5	17145	-76.262	0.0000000E+000	0.0000000E+000	0.0000000E+000	76.262	0.0000000E+000	0.0000000E+000	0.0000000E+000	-76.262	0.0000000E+000	0.0000000E+000	0.0000000E+000	-13.738	0.0000000E+000	0.0000000E+000	0.0000000E+000	13.738	4.09037	76.262	-8.01598e-06	-0.000362506	-4.87613e-09	-0.000362501	3.88228	41578.7	0.559282	41578.1
1000.32	2.74522	0.872784	2.88062	-17.637	13.8228	3.88248	0.00875505	182.295	16.7346	1	9	0.00454667	0.00157836	0	-6.47448e-05	-0.000195959	6.47097e-06	75.8187	0.0040998	0.00100441	-0.00397486	-17.5556	2.88038	2.74622	0.868809	0.33083	0.10518	0.347148	17.637	16734.6	52636.4	55232.6	-72.363	0.0000000E+000	0.0000000E+000	0.0000000E+000	72.363	0.0000000E+000	0.0000000E+000	0.0000000E+000	-72.363	0.0000000E+000	0.0000000E+000	0.0000000E+000	-17.637	0.0000000E+000	0.0000000E+000	0.0000000E+000	17.637	3.14536	72.363	2.36544e-06	3.39913e-05	-1.71563e-09	3.3993e-05	3.88268	443456	22.3824	443478
251.044	3.8548	1.33153	4.07829	-19.0559	16.7691	3.88244	-0.0414018	476.124	50.7531	1	10	0.00456253	0.00111873	0	-9.04286e-05	3.31311e-05	7.2508e-06	-107.458	0.00648125	-0.00194442	0.00618271	-19.147	4.07848	3.85286	1.33771	0.231764	0.0800558	0.245201	19.0559	50753.1	146932	155450	-70.9441	0.0000000E+000	0.0000000E+000	0.0000000E+000	70.9441	0.0000000E+000	0.0000000E+000	0.0000000E+000	-70.9441	0.0000000E+000	0.0000000E+000	0.0000000E+000	-19.0559	0.0000000E+000	0.0000000E+000	0.0000000E+000	19.0559	2.89503	70.9441	-5.82122e-06	-0.00016074	-1.37169e-09	-0.000160739	3.88241	93774.6	0.800233	93773.8
63.0823	5.19249	0.953197	5.27926	-10.4021	19.49	3.88245	-0.0365143	2646.85	86.2878	1	10	0.00454104	0.000860166	0	-0.000121692	0.000166767	6.49811e-06	-54.6452	0.00755449	0.00437131	0.00616132	-10.4592	5.28467	5.19687	0.959358	0.186307	0.0342008	0.18942	10.4021	86287.8	470048	477903	-79.5979	0.0000000E+000	0.0000000E+000	0.0000000E+000	79.5979	0.0000000E+000	0.0000000E+000	0.0000000E+000	-79.5979	0.0000000E+000	0.0000000E+000	0.0000000E+000	-10.4021	0.0000000E+000	0.0000000E+000	0.0000000E+000	10.4021	5.44745	79.5979	-4.09504e-06	-0.000141765	-6.08939e-09	-0.000141759	3.88228	106327	4.56716	106322
15.8576	5.68078	0.397865	5.69469	-4.00629	22.148	3.88245	-0.044192	25225.9	123.134	1	10	0.00454681	0.000798429	0	-0.000153782	-0.000119596	1.64436e-05	-49.8012	0.020595	0.0132929	0.0157307	-4.15445	5.70907	5.69407	0.413596	0.175173	0.0122686	0.175602	4.00629	123134	1.75813e+06	1.76243e+06	-85.9937	0.0000000E+000	0.0000000E+000	0.0000000E+000	85.9937	0.0000000E+000	0.0000000E+000	0.0000000E+000	-85.9937	0.0000000E+000	0.0000000E+000	0.0000000E+000	-4.00629	0.0000000E+000	0.0000000E+000	0.0000000E+000	4.00629	14.2781	85.9937	-6.89772e-06	-0.000171573	5.28517e-09	-0.000171578	3.88257	87854	2.70627	87856.7
3.97785	5.81181	0.215234	5.81579	-2.12092	25.0604	3.88247	-0.035231	185892	254.604	1	10	0.00454061	0.000780738	0	-0.000190554	0.000281312	5.46572e-06	-48.9884	0.00700071	0.00459394	0.00528257	-2.17121	5.82058	5.8164	0.220517	0.171828	0.00636346	0.171946	2.12092	254604	6.87488e+06	6.87959e+06	-87.8791	0.0000000E+000	0.0000000E+000	0.0000000E+000	87.8791	0.0000000E+000	0.0000000E+000	0.0000000E+000	-87.8791	0.0000000E+000	0.0000000E+000	0.0000000E+000	-2.12092	0.0000000E+000	0.0000000E+000	0.0000000E+000	2.12092	27.0023	87.8791	-1.46477e-05	-0.000136783	-9.91091e-09	-0.000136773	3.88219	110200	7.98479	110192
1.00469	5.96287	0.256549	5.96839	-2.4636	240.315	3.88246	-0.0272351	617470	1140.89	1	11	0.00497999	0.000834395	0	-0.00496009	0.000128585	2.76223e-07	-3.32592	0.000331046	0.000330489	1.92059e-05	-2.46365	5.96872	5.9632	0.256568	0.167394	0.00720205	0.167549	2.4636	1.14089e+06	2.65172e+07	2.65417e+07	-87.5364	0.0000000E+000	0.0000000E+000	0.0000000E+000	87.5364	0.0000000E+000	0.0000000E+000	0.0000000E+000	-87.5364	0.0000000E+000	0.0000000E+000	0.0000000E+000	-2.4636	0.0000000E+000	0.0000000E+000	0.0000000E+000	2.4636	23.2426	87.5364	-0.00471498	-0.000105739	-3.50204e-09	-0.000105736	3.88233	142553	4.7213	142548
0.251173	6.18201	0.504486	6.20256	-4.66532	240.316	3.88246	-0.0272351	1.25602e+06	8309.11	1	11	0.00500661	0.000807185	0	-0.00496009	0.000128585	2.858e-07	-30.3919	0.00035407	0.000305415	0.000179128	-4.66674	6.20288	6.18231	0.504665	0.16069	0.0131132	0.161224	4.66532	8.30911e+06	1.0182e+08	1.02159e+08	-85.3347	0.0000000E+000	0.0000000E+000	0.0000000E+000	85.3347	0.0000000E+000	0.0000000E+000	0.0000000E+000	-85.3347	0.0000000E+000	0.0000000E+000	0.0000000E+000	-4.66532	0.0000000E+000	0.0000000E+000	0.0000000E+000	4.66532	12.2541	85.3347	0.000000000000000E+000	-0.000105739	-3.50204e-09	-0.000105736	3.88233	142553	4.7213	142548
0.0602816	6.67991	1.01394	6.75643	-8.63104	240.316	3.88246	-0.0272351	2.60388e+06	58642.8	1	11	0.00500022	0.000740069	0	-0.00496009	0.000128585	7.0101e-07	7.40055	0.000947223	0.000939332	-0.000122007	-8.62883	6.75734	6.68085	1.01382	0.146331	0.0222116	0.148007	8.63104	5.86428e+07	3.86342e+08	3.90767e+08	-81.369	0.0000000E+000	0.0000000E+000	0.0000000E+000	81.369	0.0000000E+000	0.0000000E+000	0.0000000E+000	-81.369	0.0000000E+000	0.0000000E+000	0.0000000E+000	-8.63104	0.0000000E+000	0.0000000E+000	0.0000000E+000	8.63104	6.58805	81.369	0.000000000000000E+000	-0.000105739	-3.50204e-09	-0.000105736	3.88233	142553	4.7213	142548
0.00796479	8.64929	2.20705	8.92643	-14.3148	20329.3	3.88247	0.00100642	9.05386e+06	553480	1	11	0.00499525	0.000559602	0	-0.061134	0.000204949	1.84228e-07	-85.4132	0.000329213	2.63271e-05	0.000328159	-14.3168	8.92654	8.64931	2.20738	0.108549	0.0276985	0.112027	14.3148	5.5348e+08	2.16905e+09	2.23856e+09	-75.6852	0.0000000E+000	0.0000000E+000	0.0000000E+000	75.6852	0.0000000E+000	0.0000000E+000	0.0000000E+000	-75.6852	0.0000000E+000	0.0000000E+000	0.0000000E+000	-14.3148	0.0000000E+000	0.0000000E+000	0.0000000E+000	14.3148	3.91894	75.6852	-0.0561739	3.90739e-06	2.06264e-10	3.90718e-06	3.88227	3.85772e+06	203.642	3.85751e+06
0.0019912	10.1429	3.7948	10.8295	-20.5126	20329.3	3.88247	0.00100642	2.10629e+07	2.58629e+06	1	11	0.00500851	0.000462487	0	-0.061134	0.000204949	4.03121e-07	-67.8732	0.000871638	0.000328309	0.000807444	-20.5159	10.8301	10.1432	3.79561	0.0864854	0.0323572	0.0923402	20.5126	2.58629e+09	6.91272e+09	7.38069e+09	-69.4874	0.0000000E+000	0.0000000E+000	0.0000000E+000	69.4874	0.0000000E+000	0.0000000E+000	0.0000000E+000	-69.4874	0.0000000E+000	0.0000000E+000	0.0000000E+000	-20.5126	0.0000000E+000	0.0000000E+000	0.0000000E+000	20.5126	2.67284	69.4874	0.000000000000000E+000	3.90739e-06	2.06264e-10	3.90718e-06	3.88227	3.85772e+06	203.642	3.85751e+06
0.000497799	10.7194	10.4874	14.9964	-44.373	20329.3	3.88247	0.00100642	3.04859e+07	1.49094e+07	1	11	0.00500743	0.000333909	0	-0.061134	0.000204949	2.03168e-06	-57.3096	0.00608453	0.00328626	0.00512075	-44.3782	15.0023	10.7227	10.4925	0.047665	0.0466331	0.0666828	44.373	1.49094e+10	1.52393e+10	2.13196e+10	-45.627	0.0000000E+000	0.0000000E+000	0.0000000E+000	45.627	0.0000000E+000	0.0000000E+000	0.0000000E+000	-45.627	0.0000000E+000	0.0000000E+000	0.0000000E+000	-44.373	0.0000000E+000	0.0000000E+000	0.0000000E+000	44.373	1.02213	45.627	0.000000000000000E+000	3.90739e-06	2.06264e-10	3.90718e-06	3.88227	3.85772e+06	203.642	3.85751e+06
9.95598e-05	8.09958	71.029	71.4893	-83.4945	20329.3	3.88247	0.00100642	2.25061e+07	2.22172e+07	1	11	0.00500181	6.99659e-05	0	-0.061134	0.000204949	3.55159e-06	-88.0118	0.0507618	0.00176113	0.0507312	-83.4977	71.5399	8.10134	71.0797	0.00158482	0.013898	0.0139881	83.4945	2.22172e+10	2.53347e+09	2.23612e+10	-6.50546	0.0000000E+000	0.0000000E+000	0.0000000E+000	6.50546	0.0000000E+000	0.0000000E+000	0.0000000E+000	-6.50546	0.0000000E+000	0.0000000E+000	0.0000000E+000	-83.4945	0.0000000E+000	0.0000000E+000	0.0000000E+000	83.4945	0.114032	6.50546	0.000000000000000E+000	3.90739e-06	2.06264e-10	3.90718e-06	3.88227	3.85772e+06	203.642	3.85751e+06