File: txt/19748_R319_UC100_SOC50_C04.mpt
EC-Lab ASCII FILE
Nb header lines : 65

Potentio Electrochemical Impedance Spectroscopy

Run on channel : 4 (SN 66756)
User :
CE vs. WE compliance from -10 V to 10 V
Electrode connection : standard
Potential control : Ewe
Ewe ctrl range : min = -10.00 V, max = 10.00 V
Safety Limits :
	Do not start on E overload
Acquisition started on : 12/15/2025 16:10:45.892
Technique started on : 12/15/2025 16:10:48.127
Loaded Setting File :  C:\Users\Celltest\OneDrive - store-dot.com\Documents\EC-Lab\Data\@Biologic Test Protocols\cathode half cell EIS SOC50.mps
Saved on :
	File : 19748_R319_UC100_SOC50_C04.mpr
	Directory : C:\Users\Celltest\OneDrive - store-dot.com\Documents\EC-Lab\Data\Michael\
	Host : 169.254.61.224
Device : VMP-3e (SN .003165)
Address : USB
EC-LAB for windows v11.62 (software)
Internet server v27.00 (firmware)
Command interpretor v12.03 (firmware)
Electrode material :
Initial state :
Electrolyte :
Comments :
Electrode surface area : 0.001 cm²
Characteristic mass : 0.001 g
Equivalent Weight : 0.000 g/eq.
Density : 0.000 g/cm3
Volume (V) : 0.001 cm³
Record Ece
Cycle Definition : Charge/Discharge alternance
Mode                Multi sine
E (V)               0.0000
vs.                 Eoc
tE (h:m:s)          0:00:0.0000
record              0
dI                  0.000
unit dI             mA
dt (s)              0.000
fi                  1.000
unit fi             MHz
ff                  0.100
unit ff             mHz
Nd                  10
Points              per decade
spacing             Logarithmic
Va (mV)             5.0
pw                  0.10
Na                  2
corr                0
E range min (V)     -10.000
E range max (V)     10.000
I Range             Auto
Bandwidth           5
nc cycles           0
goto Ns'            0
nr cycles           0
inc. cycle          0

freq/Hz	Re(Z)/Ohm	-Im(Z)/Ohm	|Z|/Ohm	Phase(Z)/deg	time/s	<Ewe>/V	<I>/mA	Cs/µF	Cp/µF	cycle number	I Range	|Ewe|/V	|I|/A	Ns	(Q-Qo)/mA.h	<Ece>/V	|Ece|/V	Phase(Zce)/deg	|Zce|/Ohm	Re(Zce)/Ohm	-Im(Zce)/Ohm	Phase(Zwe-ce)/deg	|Zwe-ce|/Ohm	Re(Zwe-ce)/Ohm	-Im(Zwe-ce)/Ohm	Re(Y)/Ohm-1	Im(Y)/Ohm-1	|Y|/Ohm-1	Phase(Y)/deg	Re(C)/nF	Im(C)/nF	|C|/nF	Phase(C)/deg	Re(M)	Im(M)	|M|	Phase(M)/deg	Re(Permittivity)	Im(Permittivity)	|Permittivity|	Phase(Permittivity)/deg	Re(Resistivity)/Ohm.cm	Im(Resistivity)/Ohm.cm	|Resistivity|/Ohm.cm	Phase(Resistivity)/deg	Re(Conductivity)/mS/cm	Im(Conductivity)/mS/cm	|Conductivity|/mS/cm	Phase(Conductivity)/deg	Tan(Delta)	Loss Angle(Delta)/deg	dq/mA.h	Pwe/W	Pce/W	Pwe-ce/W	<Ewe-Ece>/V	Rwe/Ohm	Rce/Ohm	Rwe-ce/Ohm		Ewe-Ece/V
1.00002e+06	0.901849	-0.57024	1.06701	32.3052	2.23454	3.88126	0.321219	-0.279097	-0.079714	1	9	0.00022158	0.000207665	0	0.000116168	-7.01561e-05	0.000192151	-0.767443	0.925292	0.925209	0.0123934	16.9787	1.91032	1.82706	-0.557846	0.792134	-0.500867	0.937201	-32.3052	-79.714	126.07	149.157	-122.305	0.0000000E+000	0.0000000E+000	0.0000000E+000	122.305	0.0000000E+000	0.0000000E+000	0.0000000E+000	-122.305	0.0000000E+000	0.0000000E+000	0.0000000E+000	32.3052	0.0000000E+000	0.0000000E+000	0.0000000E+000	-32.3052	1.58153	57.6948	0.000116168	0.00124673	-2.25355e-08	0.00124676	3.88133	12082.9	0.218406	12083.1
251206	0.695738	0.256576	0.741541	-20.2431	4.53554	3.87987	0.0484266	2.4693	0.295621	1	9	0.00193861	0.0026143	0	0.000188603	-0.000184816	3.88681e-05	78.4479	0.0148675	0.00297734	-0.0145663	-19.1043	0.739441	0.698716	0.24201	1.26525	0.466601	1.34854	20.2431	295.621	801.614	854.387	-69.7569	0.0000000E+000	0.0000000E+000	0.0000000E+000	69.7569	0.0000000E+000	0.0000000E+000	0.0000000E+000	-69.7569	0.0000000E+000	0.0000000E+000	0.0000000E+000	-20.2431	0.0000000E+000	0.0000000E+000	0.0000000E+000	20.2431	2.71162	69.7569	5.07419e-06	0.000187889	-8.95e-09	0.000187898	3.88006	80118.6	3.81641	80122.4
63093.8	1.17365	0.531502	1.28839	-24.364	6.83555	3.87977	0.057378	4.74601	0.807689	1	9	0.00534617	0.0041495	0	0.000176934	-1.28262e-05	3.0542e-05	75.6638	0.00736039	0.00182252	-0.00713118	-24.0414	1.28713	1.17547	0.524371	0.707041	0.320193	0.776164	24.364	807.689	1783.52	1957.88	-65.636	0.0000000E+000	0.0000000E+000	0.0000000E+000	65.636	0.0000000E+000	0.0000000E+000	0.0000000E+000	-65.636	0.0000000E+000	0.0000000E+000	0.0000000E+000	-24.364	0.0000000E+000	0.0000000E+000	0.0000000E+000	24.364	2.20817	65.636	-7.01823e-06	0.000222614	-7.35944e-10	0.000222614	3.87979	67617.8	0.223539	67618
15847.7	1.66336	0.508467	1.73934	-16.9976	9.13553	3.87976	0.0551401	19.7511	1.6879	1	9	0.00495729	0.00285009	0	0.000210534	-0.000223036	4.92484e-06	43.225	0.00172796	0.00125911	-0.00118342	-16.9483	1.7402	1.66462	0.507284	0.549814	0.16807	0.574929	16.9976	1687.9	5521.67	5773.89	-73.0024	0.0000000E+000	0.0000000E+000	0.0000000E+000	73.0024	0.0000000E+000	0.0000000E+000	0.0000000E+000	-73.0024	0.0000000E+000	0.0000000E+000	0.0000000E+000	-16.9976	0.0000000E+000	0.0000000E+000	0.0000000E+000	16.9976	3.27133	73.0024	8.6663e-06	0.00021393	-1.22982e-08	0.000213942	3.87998	70361.8	4.04489	70365.8
3983.6	2.06113	0.597606	2.14602	-16.169	10.9841	3.87959	-0.0288907	66.8543	5.18433	1	9	0.0046236	0.0021545	0	0.000234791	0.000216493	1.53712e-05	-43.9966	0.00713447	0.0051324	0.00495571	-16.2577	2.15233	2.06626	0.602562	0.447547	0.129762	0.465979	16.169	5184.33	17880.6	18617.1	-73.831	0.0000000E+000	0.0000000E+000	0.0000000E+000	73.831	0.0000000E+000	0.0000000E+000	0.0000000E+000	-73.831	0.0000000E+000	0.0000000E+000	0.0000000E+000	-16.169	0.0000000E+000	0.0000000E+000	0.0000000E+000	16.169	3.44898	73.831	2.50145e-07	-0.000112084	-6.25464e-09	-0.000112078	3.87937	134285	7.49352	134277
1000.32	2.64306	0.951753	2.8092	-19.8037	13.8268	3.8797	0.0878871	167.169	19.1885	1	9	0.00500011	0.0017799	0	0.000288595	6.28372e-06	7.82325e-06	-57.215	0.00439532	0.00238002	0.00369518	-19.8581	2.81269	2.64544	0.955449	0.334921	0.120603	0.355973	19.8037	19188.5	53287.2	56636.8	-70.1963	0.0000000E+000	0.0000000E+000	0.0000000E+000	70.1963	0.0000000E+000	0.0000000E+000	0.0000000E+000	-70.1963	0.0000000E+000	0.0000000E+000	0.0000000E+000	-19.8037	0.0000000E+000	0.0000000E+000	0.0000000E+000	19.8037	2.77704	70.1963	1.1115e-05	0.000340976	5.52258e-10	0.000340975	3.87969	44144.2	0.0714976	44144.1
251.044	3.83972	1.33463	4.06506	-19.1667	16.773	3.87967	0.0444354	475.017	51.2031	1	10	0.00499639	0.00122911	0	0.000329957	4.45036e-05	1.02566e-05	-1.13901	0.00834475	0.0083431	0.000165878	-19.1303	4.07299	3.84806	1.33479	0.232363	0.0807657	0.245999	19.1667	51203.1	147311	155956	-70.8333	0.0000000E+000	0.0000000E+000	0.0000000E+000	70.8333	0.0000000E+000	0.0000000E+000	0.0000000E+000	-70.8333	0.0000000E+000	0.0000000E+000	0.0000000E+000	-19.1667	0.0000000E+000	0.0000000E+000	0.0000000E+000	19.1667	2.877	70.8333	6.27818e-06	0.000172395	1.97753e-09	0.000172393	3.87963	87310.5	1.00154	87309.4
63.0823	5.11713	0.895292	5.19486	-9.92402	19.4939	3.87969	0.0577521	2818.04	83.7009	1	10	0.00498317	0.000959251	0	0.000369187	0.000216493	1.01499e-05	32.0583	0.0105811	0.00896756	-0.00561626	-9.84607	5.20273	5.1261	0.889676	0.189618	0.0331755	0.192498	9.92402	83700.9	478400	485667	-80.076	0.0000000E+000	0.0000000E+000	0.0000000E+000	80.076	0.0000000E+000	0.0000000E+000	0.0000000E+000	-80.076	0.0000000E+000	0.0000000E+000	0.0000000E+000	-9.92402	0.0000000E+000	0.0000000E+000	0.0000000E+000	9.92402	5.71559	80.076	6.86585e-06	0.00022406	1.25029e-08	0.000224048	3.87947	67178.3	3.74866	67174.5
15.8576	5.37852	0.406015	5.39383	-4.31696	22.1521	3.87967	0.0279853	24719.6	140.065	1	10	0.00498946	0.000925032	0	0.000391434	0.000101833	1.79042e-05	100.49	0.0193552	-0.00352399	-0.0190317	-4.11801	5.38891	5.375	0.386983	0.184871	0.0139556	0.185397	4.31696	140065	1.85546e+06	1.86074e+06	-85.683	0.0000000E+000	0.0000000E+000	0.0000000E+000	85.683	0.0000000E+000	0.0000000E+000	0.0000000E+000	-85.683	0.0000000E+000	0.0000000E+000	0.0000000E+000	-4.31696	0.0000000E+000	0.0000000E+000	0.0000000E+000	4.31696	13.2471	85.683	7.38385e-07	0.000108574	2.84984e-09	0.000108571	3.87957	138633	3.63882	138629
3.97785	5.63252	0.180564	5.63541	-1.83612	25.0634	3.87971	0.0466492	221585	227.484	1	10	0.00498236	0.000884117	0	0.000436467	0.000140053	5.57328e-06	-8.05203	0.00630378	0.00624164	0.000882985	-1.84305	5.64168	5.63876	0.181447	0.177358	0.00568563	0.177449	1.83612	227484	7.09615e+06	7.0998e+06	-88.1639	0.0000000E+000	0.0000000E+000	0.0000000E+000	88.1639	0.0000000E+000	0.0000000E+000	0.0000000E+000	-88.1639	0.0000000E+000	0.0000000E+000	0.0000000E+000	-1.83612	0.0000000E+000	0.0000000E+000	0.0000000E+000	1.83612	31.1941	88.1639	1.17818e-05	0.000180985	6.53338e-09	0.000180979	3.87957	83167.8	3.00227	83164.8
1.00469	5.81834	0.254359	5.8239	-2.50319	240.319	3.87969	0.0189215	622788	1187.97	1	11	0.00506432	0.000869575	0	-0.000898986	-0.000146596	5.06966e-07	-17.4663	0.000583004	0.000556124	0.000174985	-2.50467	5.82446	5.8189	0.254534	0.171542	0.00749926	0.171706	2.50319	1.18797e+06	2.71743e+07	2.72002e+07	-87.4968	0.0000000E+000	0.0000000E+000	0.0000000E+000	87.4968	0.0000000E+000	0.0000000E+000	0.0000000E+000	-87.4968	0.0000000E+000	0.0000000E+000	0.0000000E+000	-2.50319	0.0000000E+000	0.0000000E+000	0.0000000E+000	2.50319	22.8746	87.4968	-0.0014381	7.34097e-05	-2.77382e-09	7.34125e-05	3.87984	205042	7.74758	205049
0.251173	6.04334	0.513232	6.0651	-4.8542	240.321	3.87969	0.0189215	1.23462e+06	8840.66	1	11	0.00509164	0.000839499	0	-0.000898986	-0.000146596	4.9743e-07	34.0942	0.000592532	0.000490686	-0.000332147	-4.85069	6.06556	6.04383	0.512899	0.164286	0.0139521	0.164878	4.8542	8.84065e+06	1.04099e+08	1.04474e+08	-85.1458	0.0000000E+000	0.0000000E+000	0.0000000E+000	85.1458	0.0000000E+000	0.0000000E+000	0.0000000E+000	-85.1458	0.0000000E+000	0.0000000E+000	0.0000000E+000	-4.8542	0.0000000E+000	0.0000000E+000	0.0000000E+000	4.8542	11.7751	85.1458	0.000000000000000E+000	7.34097e-05	-2.77382e-09	7.34125e-05	3.87984	205042	7.74758	205049
0.0602816	6.53398	1.02482	6.61386	-8.91393	240.323	3.87969	0.0189215	2.57624e+06	61854.8	1	11	0.00508318	0.000768565	0	-0.000898986	-0.000146596	9.55084e-07	-34.269	0.00124268	0.00102696	0.00069973	-8.91854	6.61498	6.53501	1.02552	0.149371	0.0234282	0.151198	8.91393	6.18548e+07	3.94369e+08	3.9919e+08	-81.0861	0.0000000E+000	0.0000000E+000	0.0000000E+000	81.0861	0.0000000E+000	0.0000000E+000	0.0000000E+000	-81.0861	0.0000000E+000	0.0000000E+000	0.0000000E+000	-8.91393	0.0000000E+000	0.0000000E+000	0.0000000E+000	8.91393	6.37573	81.0861	0.000000000000000E+000	7.34097e-05	-2.77382e-09	7.34125e-05	3.87984	205042	7.74758	205049
0.00796479	8.47441	2.2969	8.78017	-15.1651	20329.2	3.87969	0.00124168	8.69968e+06	595364	1	11	0.00507559	0.000578075	0	-0.0537015	-0.000223036	4.01383e-07	3.88401	0.000694344	0.000692749	-4.70327e-05	-15.1636	8.78082	8.4751	2.29686	0.109927	0.0297946	0.113893	15.1651	5.95364e+08	2.19659e+09	2.27585e+09	-74.8349	0.0000000E+000	0.0000000E+000	0.0000000E+000	74.8349	0.0000000E+000	0.0000000E+000	0.0000000E+000	-74.8349	0.0000000E+000	0.0000000E+000	0.0000000E+000	-15.1651	0.0000000E+000	0.0000000E+000	0.0000000E+000	15.1651	3.68949	74.8349	-0.0528025	4.81733e-06	-2.76939e-10	4.81761e-06	3.87992	3.12455e+06	179.624	3.12473e+06
0.0019912	10.0744	3.87372	10.7935	-21.0323	20329.2	3.87969	0.00124168	2.06338e+07	2.65774e+06	1	11	0.00508959	0.000471545	0	-0.0537015	-0.000223036	1.06871e-06	-7.73458	0.00226639	0.00224577	0.000305021	-21.0296	10.7957	10.0766	3.87402	0.0864763	0.0332512	0.0926488	21.0323	2.65774e+09	6.91199e+09	7.40535e+09	-68.9677	0.0000000E+000	0.0000000E+000	0.0000000E+000	68.9677	0.0000000E+000	0.0000000E+000	0.0000000E+000	-68.9677	0.0000000E+000	0.0000000E+000	0.0000000E+000	-21.0323	0.0000000E+000	0.0000000E+000	0.0000000E+000	21.0323	2.6007	68.9677	0.000000000000000E+000	4.81733e-06	-2.76939e-10	4.81761e-06	3.87992	3.12455e+06	179.624	3.12473e+06
0.000497799	10.5577	10.4871	14.881	-44.8079	20329.2	3.87969	0.00124168	3.04867e+07	1.51411e+07	1	11	0.00509075	0.000342098	0	-0.0537015	-0.000223036	2.79367e-06	-33.2558	0.00816628	0.00682889	0.00447821	-44.8016	14.889	10.5645	10.4916	0.0476765	0.0473579	0.0671998	44.8079	1.51411e+10	1.5243e+10	2.14849e+10	-45.1921	0.0000000E+000	0.0000000E+000	0.0000000E+000	45.1921	0.0000000E+000	0.0000000E+000	0.0000000E+000	-45.1921	0.0000000E+000	0.0000000E+000	0.0000000E+000	-44.8079	0.0000000E+000	0.0000000E+000	0.0000000E+000	44.8079	1.00673	45.1921	0.000000000000000E+000	4.81733e-06	-2.76939e-10	4.81761e-06	3.87992	3.12455e+06	179.624	3.12473e+06
9.95598e-05	9.29518	69.6316	70.2493	-82.3965	20329.2	3.87969	0.00124168	2.29578e+07	2.25558e+07	1	11	0.00508816	7.24301e-05	0	-0.0537015	-0.000223036	2.25133e-06	-27.8565	0.0310828	0.0274809	0.0145237	-82.3758	70.2674	9.32266	69.6462	0.00188354	0.0141099	0.014235	82.3965	2.25558e+10	3.01099e+09	2.27559e+10	-7.60351	0.0000000E+000	0.0000000E+000	0.0000000E+000	7.60351	0.0000000E+000	0.0000000E+000	0.0000000E+000	-7.60351	0.0000000E+000	0.0000000E+000	0.0000000E+000	-82.3965	0.0000000E+000	0.0000000E+000	0.0000000E+000	82.3965	0.133491	7.60352	0.000000000000000E+000	4.81733e-06	-2.76939e-10	4.81761e-06	3.87992	3.12455e+06	179.624	3.12473e+06