File: txt/19747_R319_UC100_SOC50_C03.mpt
EC-Lab ASCII FILE
Nb header lines : 65

Potentio Electrochemical Impedance Spectroscopy

Run on channel : 3 (SN 65921)
User :
CE vs. WE compliance from -10 V to 10 V
Electrode connection : standard
Potential control : Ewe
Ewe ctrl range : min = -10.00 V, max = 10.00 V
Safety Limits :
	Do not start on E overload
Acquisition started on : 12/15/2025 16:10:36.749
Technique started on : 12/15/2025 16:10:38.524
Loaded Setting File :  C:\Users\Celltest\OneDrive - store-dot.com\Documents\EC-Lab\Data\@Biologic Test Protocols\cathode half cell EIS SOC50.mps
Saved on :
	File : 19747_R319_UC100_SOC50_C03.mpr
	Directory : C:\Users\Celltest\OneDrive - store-dot.com\Documents\EC-Lab\Data\Michael\
	Host : 169.254.61.224
Device : VMP-3e (SN .003165)
Address : USB
EC-LAB for windows v11.62 (software)
Internet server v27.00 (firmware)
Command interpretor v12.03 (firmware)
Electrode material :
Initial state :
Electrolyte :
Comments :
Electrode surface area : 0.001 cm²
Characteristic mass : 0.001 g
Equivalent Weight : 0.000 g/eq.
Density : 0.000 g/cm3
Volume (V) : 0.001 cm³
Record Ece
Cycle Definition : Charge/Discharge alternance
Mode                Multi sine
E (V)               0.0000
vs.                 Eoc
tE (h:m:s)          0:00:0.0000
record              0
dI                  0.000
unit dI             mA
dt (s)              0.000
fi                  1.000
unit fi             MHz
ff                  0.100
unit ff             mHz
Nd                  10
Points              per decade
spacing             Logarithmic
Va (mV)             5.0
pw                  0.10
Na                  2
corr                0
E range min (V)     -10.000
E range max (V)     10.000
I Range             Auto
Bandwidth           5
nc cycles           0
goto Ns'            0
nr cycles           0
inc. cycle          0

freq/Hz	Re(Z)/Ohm	-Im(Z)/Ohm	|Z|/Ohm	Phase(Z)/deg	time/s	<Ewe>/V	<I>/mA	Cs/µF	Cp/µF	cycle number	I Range	|Ewe|/V	|I|/A	Ns	(Q-Qo)/mA.h	<Ece>/V	|Ece|/V	Phase(Zce)/deg	|Zce|/Ohm	Re(Zce)/Ohm	-Im(Zce)/Ohm	Phase(Zwe-ce)/deg	|Zwe-ce|/Ohm	Re(Zwe-ce)/Ohm	-Im(Zwe-ce)/Ohm	Re(Y)/Ohm-1	Im(Y)/Ohm-1	|Y|/Ohm-1	Phase(Y)/deg	Re(C)/nF	Im(C)/nF	|C|/nF	Phase(C)/deg	Re(M)	Im(M)	|M|	Phase(M)/deg	Re(Permittivity)	Im(Permittivity)	|Permittivity|	Phase(Permittivity)/deg	Re(Resistivity)/Ohm.cm	Im(Resistivity)/Ohm.cm	|Resistivity|/Ohm.cm	Phase(Resistivity)/deg	Re(Conductivity)/mS/cm	Im(Conductivity)/mS/cm	|Conductivity|/mS/cm	Phase(Conductivity)/deg	Tan(Delta)	Loss Angle(Delta)/deg	dq/mA.h	Pwe/W	Pce/W	Pwe-ce/W	<Ewe-Ece>/V	Rwe/Ohm	Rce/Ohm	Rwe-ce/Ohm		Ewe-Ece/V
1.00002e+06	1.59331	3.086	3.47305	-62.6925	1.77455	3.88443	-0.0944532	0.0515723	0.0407181	1	10	0.000221356	6.37355e-05	0	-5.56377e-05	-0.000127773	0.000196312	-63.2855	3.08011	1.38465	2.75133	-62.9712	6.55307	2.97796	5.83733	0.132093	0.255844	0.287932	62.6925	40.7181	21.0229	45.8249	-27.3075	0.0000000E+000	0.0000000E+000	0.0000000E+000	27.3075	0.0000000E+000	0.0000000E+000	0.0000000E+000	-27.3075	0.0000000E+000	0.0000000E+000	0.0000000E+000	-62.6925	0.0000000E+000	0.0000000E+000	0.0000000E+000	62.6925	0.516304	27.3075	-5.56377e-05	-0.000366897	1.20686e-08	-0.000366909	3.88456	41125.5	1.35277	41126.8
251206	0.770954	0.303734	0.828628	-21.503	4.47754	3.88404	-0.0950677	2.08591	0.280262	1	9	0.00195794	0.00236287	0	-0.000130163	5.88539e-06	5.66552e-05	88.8885	0.0239773	0.000465129	-0.0239728	-19.9336	0.820582	0.771419	0.279761	1.12282	0.442358	1.20681	21.503	280.262	711.375	764.592	-68.497	0.0000000E+000	0.0000000E+000	0.0000000E+000	68.497	0.0000000E+000	0.0000000E+000	0.0000000E+000	-68.497	0.0000000E+000	0.0000000E+000	0.0000000E+000	-21.503	0.0000000E+000	0.0000000E+000	0.0000000E+000	21.503	2.53826	68.497	-9.55174e-06	-0.000369246	-5.5951e-10	-0.000369246	3.88403	40855.5	0.0619073	40855.4
63093.8	1.27422	0.643581	1.42753	-26.7974	6.77752	3.88397	-0.0936133	3.91949	0.796652	1	9	0.00528994	0.00370567	0	-0.000218946	6.31676e-05	1.89289e-05	53.623	0.0051081	0.00302959	-0.00411269	-26.5953	1.42839	1.27725	0.639469	0.625282	0.315817	0.700512	26.7974	796.652	1577.28	1767.05	-63.2026	0.0000000E+000	0.0000000E+000	0.0000000E+000	63.2026	0.0000000E+000	0.0000000E+000	0.0000000E+000	-63.2026	0.0000000E+000	0.0000000E+000	0.0000000E+000	-26.7974	0.0000000E+000	0.0000000E+000	0.0000000E+000	26.7974	1.97989	63.2026	-1.10481e-05	-0.000363591	-5.91332e-09	-0.000363585	3.88391	41489.5	0.674772	41488.9
15847.7	1.92894	0.651236	2.03591	-18.6554	9.07753	3.88397	-0.0825371	15.4211	1.57789	1	9	0.00513239	0.00252093	0	-0.000265577	4.40735e-05	1.31082e-05	0.921813	0.00519973	0.00519906	-8.36531e-05	-18.6065	2.04081	1.93414	0.651153	0.465375	0.157117	0.491182	18.6554	1577.89	4673.66	4932.83	-71.3446	0.0000000E+000	0.0000000E+000	0.0000000E+000	71.3446	0.0000000E+000	0.0000000E+000	0.0000000E+000	-71.3446	0.0000000E+000	0.0000000E+000	0.0000000E+000	-18.6554	0.0000000E+000	0.0000000E+000	0.0000000E+000	18.6554	2.96197	71.3446	-6.30143e-06	-0.000320571	-3.6377e-09	-0.000320568	3.88392	47057.2	0.533984	47056.7
3983.6	2.41741	0.688323	2.51349	-15.8936	11.1741	3.88392	-0.0738477	58.0433	4.35293	1	9	0.00545683	0.00217102	0	-0.000317991	-8.95849e-05	7.7207e-06	34.2223	0.00355626	0.00294054	-0.00200006	-15.8314	2.51577	2.42035	0.686323	0.382644	0.108953	0.397853	15.8936	4352.93	15287.6	15895.2	-74.1064	0.0000000E+000	0.0000000E+000	0.0000000E+000	74.1064	0.0000000E+000	0.0000000E+000	0.0000000E+000	-74.1064	0.0000000E+000	0.0000000E+000	0.0000000E+000	-15.8936	0.0000000E+000	0.0000000E+000	0.0000000E+000	15.8936	3.51202	74.1064	-4.1449e-06	-0.000286818	6.61564e-09	-0.000286825	3.88401	52593.7	1.2131	52594.9
1000.32	3.06282	1.02708	3.23045	-18.5383	14.2628	3.88393	-0.113362	154.909	15.6589	1	10	0.00500362	0.00154889	0	-0.000386659	-0.000108679	5.17422e-06	-117.095	0.00334059	-0.00152155	0.00297396	-18.5968	3.22995	3.0613	1.03005	0.293492	0.0984191	0.309555	18.5383	15658.9	46695.8	49251.4	-71.4617	0.0000000E+000	0.0000000E+000	0.0000000E+000	71.4617	0.0000000E+000	0.0000000E+000	0.0000000E+000	-71.4617	0.0000000E+000	0.0000000E+000	0.0000000E+000	-18.5383	0.0000000E+000	0.0000000E+000	0.0000000E+000	18.5383	2.98207	71.4617	-1.57317e-05	-0.000440292	1.23201e-08	-0.000440304	3.88404	34261.2	0.958687	34262.2
251.044	4.33917	1.33937	4.54118	-17.1539	16.964	3.88392	-0.108082	473.335	41.175	1	10	0.0048865	0.00107604	0	-0.000467843	5.88539e-06	6.04457e-06	-102.69	0.00561741	-0.001234	0.0054802	-17.2246	4.54162	4.33793	1.34485	0.210411	0.0649477	0.220207	17.1539	41175	133395	139605	-72.8461	0.0000000E+000	0.0000000E+000	0.0000000E+000	72.8461	0.0000000E+000	0.0000000E+000	0.0000000E+000	-72.8461	0.0000000E+000	0.0000000E+000	0.0000000E+000	-17.1539	0.0000000E+000	0.0000000E+000	0.0000000E+000	17.1539	3.2397	72.8461	-1.24345e-05	-0.000419783	-6.36106e-10	-0.000419783	3.88392	35934.9	0.0544528	35934.8
63.0823	5.55424	0.85984	5.6204	-8.79999	19.6829	3.88392	-0.10432	2934.23	68.6746	1	10	0.00486466	0.000865537	0	-0.000544982	-8.95849e-05	5.36374e-06	69.2846	0.00619701	0.00219205	-0.00579636	-8.73819	5.62168	5.55643	0.854044	0.175829	0.0272197	0.177923	8.79999	68674.6	443612	448896	-81.2	0.0000000E+000	0.0000000E+000	0.0000000E+000	81.2	0.0000000E+000	0.0000000E+000	0.0000000E+000	-81.2	0.0000000E+000	0.0000000E+000	0.0000000E+000	-8.79999	0.0000000E+000	0.0000000E+000	0.0000000E+000	8.79999	6.45961	81.2	-1.37036e-05	-0.00040517	9.34549e-09	-0.00040518	3.88401	37230.9	0.858753	37231.8
15.8576	5.95009	0.347732	5.96025	-3.34464	22.3411	3.8839	-0.106729	28862.8	98.2426	1	10	0.00484847	0.000813468	0	-0.00061848	-8.95849e-05	1.07378e-05	-14.7229	0.0132	0.0127666	0.00335471	-3.36962	5.97319	5.96286	0.351087	0.167493	0.00978851	0.167778	3.34464	98242.5	1.68104e+06	1.68391e+06	-86.6554	0.0000000E+000	0.0000000E+000	0.0000000E+000	86.6554	0.0000000E+000	0.0000000E+000	0.0000000E+000	-86.6554	0.0000000E+000	0.0000000E+000	0.0000000E+000	-3.34464	0.0000000E+000	0.0000000E+000	0.0000000E+000	3.34464	17.1111	86.6554	-1.0595e-05	-0.000414524	9.56128e-09	-0.000414533	3.88399	36390.4	0.839371	36391.2
3.97785	6.07602	0.193103	6.07909	-1.82031	25.2544	3.88394	-0.0965768	207197	209.066	1	10	0.00485138	0.000798043	0	-0.000690968	-0.000242337	2.08089e-06	141.968	0.0026075	-0.00205384	-0.00160648	-1.80579	6.07699	6.07397	0.191496	0.164415	0.0052253	0.164498	1.82031	209066	6.5783e+06	6.58162e+06	-88.1797	0.0000000E+000	0.0000000E+000	0.0000000E+000	88.1797	0.0000000E+000	0.0000000E+000	0.0000000E+000	-88.1797	0.0000000E+000	0.0000000E+000	0.0000000E+000	-1.82031	0.0000000E+000	0.0000000E+000	0.0000000E+000	1.82031	31.4652	88.1797	-5.12521e-06	-0.000375099	2.34042e-08	-0.000375122	3.88418	40216.1	2.50927	40218.6
1.00469	6.19739	0.255779	6.20266	-2.36338	240.509	3.88393	-0.063611	619328	1053.16	1	11	0.00503768	0.000812181	0	-0.00830737	-0.000223243	6.76201e-07	2.4815	0.000832575	0.000831794	-3.60478e-05	-2.36273	6.20349	6.19822	0.255743	0.161084	0.00664828	0.161221	2.36338	1.05316e+06	2.55175e+07	2.55393e+07	-87.6366	0.0000000E+000	0.0000000E+000	0.0000000E+000	87.6366	0.0000000E+000	0.0000000E+000	0.0000000E+000	-87.6366	0.0000000E+000	0.0000000E+000	0.0000000E+000	-2.36338	0.0000000E+000	0.0000000E+000	0.0000000E+000	2.36338	24.2294	87.6366	-0.00747348	-0.000247061	1.42007e-08	-0.000247075	3.88416	61057.5	3.50951	61061.1
0.251173	6.41869	0.508021	6.43876	-4.52536	240.512	3.88393	-0.063611	1.24728e+06	7764.67	1	11	0.00506689	0.000786935	0	-0.00830737	-0.000223243	7.07775e-07	5.05411	0.000899407	0.00089591	-7.92347e-05	-4.52403	6.43965	6.41958	0.507941	0.154825	0.012254	0.155309	4.52536	7.76467e+06	9.81043e+07	9.84111e+07	-85.4746	0.0000000E+000	0.0000000E+000	0.0000000E+000	85.4746	0.0000000E+000	0.0000000E+000	0.0000000E+000	-85.4746	0.0000000E+000	0.0000000E+000	0.0000000E+000	-4.52536	0.0000000E+000	0.0000000E+000	0.0000000E+000	4.52536	12.6347	85.4746	0.000000000000000E+000	-0.000247061	1.42007e-08	-0.000247075	3.88416	61057.5	3.50951	61061.1
0.0602816	6.9014	1.04944	6.98073	-8.64629	240.515	3.88393	-0.063611	2.5158e+06	56858	1	11	0.00505889	0.000724692	0	-0.00830737	-0.000223243	3.49237e-07	1.40963	0.00048191	0.000481764	-1.18551e-05	-8.6456	6.98121	6.90188	1.04943	0.141623	0.0215356	0.143251	8.64629	5.6858e+07	3.73913e+08	3.78211e+08	-81.3537	0.0000000E+000	0.0000000E+000	0.0000000E+000	81.3537	0.0000000E+000	0.0000000E+000	0.0000000E+000	-81.3537	0.0000000E+000	0.0000000E+000	0.0000000E+000	-8.64629	0.0000000E+000	0.0000000E+000	0.0000000E+000	8.64629	6.57625	81.3537	0.000000000000000E+000	-0.000247061	1.42007e-08	-0.000247075	3.88416	61057.5	3.50951	61061.1
0.00796479	8.83012	2.34863	9.13713	-14.8946	20329.4	3.88393	0.0020479	8.50808e+06	562135	1	11	0.00505347	0.000553069	0	-0.0612844	-0.000452372	3.87236e-07	-2.00269	0.000700158	0.00069973	2.4468e-05	-14.8937	9.13781	8.83082	2.34865	0.105766	0.0281316	0.109444	14.8946	5.62135e+08	2.11346e+09	2.18694e+09	-75.1054	0.0000000E+000	0.0000000E+000	0.0000000E+000	75.1054	0.0000000E+000	0.0000000E+000	0.0000000E+000	-75.1054	0.0000000E+000	0.0000000E+000	0.0000000E+000	-14.8946	0.0000000E+000	0.0000000E+000	0.0000000E+000	14.8946	3.75969	75.1054	-0.052977	7.95389e-06	-9.26411e-10	7.95481e-06	3.88439	1.89655e+06	220.896	1.89677e+06
0.0019912	10.4164	3.93138	11.1336	-20.6777	20329.4	3.88393	0.0020479	2.03311e+07	2.53502e+06	1	11	0.00506443	0.000454879	0	-0.0612844	-0.000452372	3.02424e-07	-67.7069	0.000664846	0.000252206	0.000615152	-20.6802	11.134	10.4166	3.932	0.0840325	0.0317158	0.0898184	20.6777	2.53502e+09	6.71666e+09	7.17912e+09	-69.3223	0.0000000E+000	0.0000000E+000	0.0000000E+000	69.3223	0.0000000E+000	0.0000000E+000	0.0000000E+000	-69.3223	0.0000000E+000	0.0000000E+000	0.0000000E+000	-20.6777	0.0000000E+000	0.0000000E+000	0.0000000E+000	20.6777	2.64954	69.3223	0.000000000000000E+000	7.95389e-06	-9.26411e-10	7.95481e-06	3.88439	1.89655e+06	220.896	1.89677e+06
0.000497799	10.9338	10.5693	15.2072	-44.029	20329.4	3.88393	0.0020479	3.02495e+07	1.46122e+07	1	11	0.00506803	0.000333266	0	-0.0612844	-0.000452372	5.43274e-07	-6.48181	0.00163015	0.00161973	0.000184024	-44.0253	15.2085	10.9354	10.5695	0.0472795	0.0457036	0.0657585	44.029	1.46122e+10	1.51161e+10	2.10241e+10	-45.971	0.0000000E+000	0.0000000E+000	0.0000000E+000	45.971	0.0000000E+000	0.0000000E+000	0.0000000E+000	-45.971	0.0000000E+000	0.0000000E+000	0.0000000E+000	-44.029	0.0000000E+000	0.0000000E+000	0.0000000E+000	44.029	1.03448	45.971	0.000000000000000E+000	7.95389e-06	-9.26411e-10	7.95481e-06	3.88439	1.89655e+06	220.896	1.89677e+06
9.95598e-05	8.54933	73.3211	73.8178	-83.3493	20329.4	3.88393	0.0020479	2.18025e+07	2.15101e+07	1	11	0.00507013	6.86843e-05	0	-0.0612844	-0.000452372	1.53555e-06	82.1799	0.0223566	0.0030419	-0.0221487	-83.3449	73.7962	8.55237	73.299	0.00156895	0.0134557	0.0135469	83.3493	2.15101e+10	2.5081e+09	2.16558e+10	-6.65073	0.0000000E+000	0.0000000E+000	0.0000000E+000	6.65073	0.0000000E+000	0.0000000E+000	0.0000000E+000	-6.65073	0.0000000E+000	0.0000000E+000	0.0000000E+000	-83.3493	0.0000000E+000	0.0000000E+000	0.0000000E+000	83.3493	0.116601	6.65073	0.000000000000000E+000	7.95389e-06	-9.26411e-10	7.95481e-06	3.88439	1.89655e+06	220.896	1.89677e+06