File: txt/19745_R319_UC100_SOC50_C01.mpt
EC-Lab ASCII FILE
Nb header lines : 65

Potentio Electrochemical Impedance Spectroscopy

Run on channel : 1 (SN 66354)
User :
CE vs. WE compliance from -10 V to 10 V
Electrode connection : standard
Potential control : Ewe
Ewe ctrl range : min = -10.00 V, max = 10.00 V
Safety Limits :
	Do not start on E overload
Acquisition started on : 12/15/2025 16:10:14.448
Technique started on : 12/15/2025 16:10:17.143
Loaded Setting File :  C:\Users\Celltest\OneDrive - store-dot.com\Documents\EC-Lab\Data\@Biologic Test Protocols\cathode half cell EIS SOC50.mps
Saved on :
	File : 19745_R319_UC100_SOC50_C01.mpr
	Directory : C:\Users\Celltest\OneDrive - store-dot.com\Documents\EC-Lab\Data\Michael\
	Host : 169.254.61.224
Device : VMP-3e (SN .003165)
Address : USB
EC-LAB for windows v11.62 (software)
Internet server v27.00 (firmware)
Command interpretor v12.03 (firmware)
Electrode material :
Initial state :
Electrolyte :
Comments :
Electrode surface area : 0.001 cm²
Characteristic mass : 0.001 g
Equivalent Weight : 0.000 g/eq.
Density : 0.000 g/cm3
Volume (V) : 0.001 cm³
Record Ece
Cycle Definition : Charge/Discharge alternance
Mode                Multi sine
E (V)               0.0000
vs.                 Eoc
tE (h:m:s)          0:00:0.0000
record              0
dI                  0.000
unit dI             mA
dt (s)              0.000
fi                  1.000
unit fi             MHz
ff                  0.100
unit ff             mHz
Nd                  10
Points              per decade
spacing             Logarithmic
Va (mV)             5.0
pw                  0.10
Na                  2
corr                0
E range min (V)     -10.000
E range max (V)     10.000
I Range             Auto
Bandwidth           5
nc cycles           0
goto Ns'            0
nr cycles           0
inc. cycle          0

freq/Hz	Re(Z)/Ohm	-Im(Z)/Ohm	|Z|/Ohm	Phase(Z)/deg	time/s	<Ewe>/V	<I>/mA	Cs/µF	Cp/µF	cycle number	I Range	|Ewe|/V	|I|/A	Ns	(Q-Qo)/mA.h	<Ece>/V	|Ece|/V	Phase(Zce)/deg	|Zce|/Ohm	Re(Zce)/Ohm	-Im(Zce)/Ohm	Phase(Zwe-ce)/deg	|Zwe-ce|/Ohm	Re(Zwe-ce)/Ohm	-Im(Zwe-ce)/Ohm	Re(Y)/Ohm-1	Im(Y)/Ohm-1	|Y|/Ohm-1	Phase(Y)/deg	Re(C)/nF	Im(C)/nF	|C|/nF	Phase(C)/deg	Re(M)	Im(M)	|M|	Phase(M)/deg	Re(Permittivity)	Im(Permittivity)	|Permittivity|	Phase(Permittivity)/deg	Re(Resistivity)/Ohm.cm	Im(Resistivity)/Ohm.cm	|Resistivity|/Ohm.cm	Phase(Resistivity)/deg	Re(Conductivity)/mS/cm	Im(Conductivity)/mS/cm	|Conductivity|/mS/cm	Phase(Conductivity)/deg	Tan(Delta)	Loss Angle(Delta)/deg	dq/mA.h	Pwe/W	Pce/W	Pwe-ce/W	<Ewe-Ece>/V	Rwe/Ohm	Rce/Ohm	Rwe-ce/Ohm		Ewe-Ece/V
1.00002e+06	1.06214	-0.00825007	1.06217	0.44503	2.69455	3.88041	0.135117	-19.291	-0.0011638	1	9	0.000219699	0.000206839	0	5.24792e-05	0.000231029	0.00019225	-6.57051	0.929465	0.92336	0.106355	-2.82872	1.98792	1.9855	0.0981047	0.941437	-0.0073125	0.941465	-0.44503	-1.1638	149.832	149.836	-90.445	0.0000000E+000	0.0000000E+000	0.0000000E+000	90.445	0.0000000E+000	0.0000000E+000	0.0000000E+000	-90.445	0.0000000E+000	0.0000000E+000	0.0000000E+000	0.44503	0.0000000E+000	0.0000000E+000	0.0000000E+000	-0.44503	128.743	89.555	5.24792e-05	0.000524308	3.12159e-08	0.000524277	3.88018	28718.9	1.70984	28717.2
251206	0.671196	0.30795	0.73847	-24.6461	4.99554	3.88007	0.0824393	2.05735	0.357771	1	9	0.00192265	0.00260356	0	0.00011374	0.000288261	6.10663e-05	116.608	0.0234549	-0.0105052	-0.0209708	-23.4783	0.720326	0.660691	0.28698	1.23079	0.564697	1.35415	24.6461	357.771	779.783	857.94	-65.3539	0.0000000E+000	0.0000000E+000	0.0000000E+000	65.3539	0.0000000E+000	0.0000000E+000	0.0000000E+000	-65.3539	0.0000000E+000	0.0000000E+000	0.0000000E+000	-24.6461	0.0000000E+000	0.0000000E+000	0.0000000E+000	24.6461	2.17956	65.3539	9.96613e-06	0.00031987	2.3764e-08	0.000319847	3.87978	47065.8	3.49664	47062.3
63093.8	1.18673	0.699228	1.37741	-30.5068	7.29552	3.88004	0.0888098	3.60757	0.929667	1	9	0.00539719	0.00391837	0	0.00012758	-9.32854e-05	2.55898e-05	79.8631	0.00653074	0.00114942	-0.00642879	-30.2517	1.37515	1.18788	0.692799	0.6255	0.368548	0.726002	30.5068	929.667	1577.83	1831.35	-59.4932	0.0000000E+000	0.0000000E+000	0.0000000E+000	59.4932	0.0000000E+000	0.0000000E+000	0.0000000E+000	-59.4932	0.0000000E+000	0.0000000E+000	0.0000000E+000	-30.5068	0.0000000E+000	0.0000000E+000	0.0000000E+000	30.5068	1.6972	59.4932	3.09099e-06	0.000344585	-8.28466e-09	0.000344593	3.88013	43689.3	1.0504	43690.3
15847.7	1.96187	0.706837	2.08532	-19.8135	9.84556	3.88004	0.0917529	14.2081	1.63241	1	9	0.00487231	0.00233648	0	0.000190835	0.00015472	1.11674e-05	22.5182	0.00477958	0.00441517	-0.00183047	-19.7252	2.08885	1.96628	0.705006	0.451155	0.162546	0.479544	19.8135	1632.41	4530.86	4815.96	-70.1865	0.0000000E+000	0.0000000E+000	0.0000000E+000	70.1865	0.0000000E+000	0.0000000E+000	0.0000000E+000	-70.1865	0.0000000E+000	0.0000000E+000	0.0000000E+000	-19.8135	0.0000000E+000	0.0000000E+000	0.0000000E+000	19.8135	2.77556	70.1865	8.33694e-06	0.000356005	1.4196e-08	0.000355991	3.87989	42287.9	1.68626	42286.3
3983.6	2.46665	0.63549	2.5472	-14.4471	11.6941	3.87981	-0.0158749	62.8688	3.91316	1	9	0.00481204	0.00188915	0	0.000226013	-0.000112363	5.42034e-06	58.3729	0.00286919	0.00150457	-0.00244306	-14.3855	2.54805	2.46816	0.633047	0.380174	0.0979452	0.392588	14.4471	3913.16	15188.9	15684.9	-75.5529	0.0000000E+000	0.0000000E+000	0.0000000E+000	75.5529	0.0000000E+000	0.0000000E+000	0.0000000E+000	-75.5529	0.0000000E+000	0.0000000E+000	0.0000000E+000	-14.4471	0.0000000E+000	0.0000000E+000	0.0000000E+000	14.4471	3.8815	75.5529	9.82735e-07	-6.15917e-05	1.78375e-09	-6.15935e-05	3.87992	244398	7.07799	244405
1000.32	3.02872	0.995099	3.188	-18.1882	14.3238	3.88	0.133552	159.888	15.578	1	9	0.00465284	0.00145948	0	0.000310208	0.000135642	4.64936e-05	10.7127	0.0318561	0.0313009	-0.00592158	-17.9139	3.21593	3.06002	0.989178	0.298004	0.0979106	0.313676	18.1882	15578	47413.6	49907.1	-71.8118	0.0000000E+000	0.0000000E+000	0.0000000E+000	71.8118	0.0000000E+000	0.0000000E+000	0.0000000E+000	-71.8118	0.0000000E+000	0.0000000E+000	0.0000000E+000	-18.1882	0.0000000E+000	0.0000000E+000	0.0000000E+000	18.1882	3.04363	71.8118	1.48615e-05	0.000518182	1.81153e-08	0.000518164	3.87986	29052.3	1.01565	29051.3
251.044	4.19267	1.36744	4.41003	-18.0638	17.27	3.87992	-0.00277328	463.618	44.5754	1	10	0.00470392	0.00106664	0	0.000316781	0.000211951	5.23075e-06	71.2498	0.00490395	0.00157634	-0.00464369	-18.0001	4.4101	4.19425	1.3628	0.215579	0.0703113	0.226756	18.0638	44575.4	136671	143757	-71.9362	0.0000000E+000	0.0000000E+000	0.0000000E+000	71.9362	0.0000000E+000	0.0000000E+000	0.0000000E+000	-71.9362	0.0000000E+000	0.0000000E+000	0.0000000E+000	-18.0638	0.0000000E+000	0.0000000E+000	0.0000000E+000	18.0638	3.06607	71.9362	1.17539e-07	-1.07601e-05	-5.87801e-10	-1.07595e-05	3.8797	1.39904e+06	76.4263	1.39896e+06
63.0823	5.52076	0.928532	5.5983	-9.54718	19.9909	3.87994	0.000308896	2717.16	74.7476	1	10	0.00468505	0.00083687	0	0.000315296	0.00015472	2.33445e-06	63.9424	0.0027895	0.00122536	-0.00250596	-9.51981	5.59909	5.52198	0.926026	0.176152	0.0296268	0.178626	9.54718	74747.7	444426	450668	-80.4528	0.0000000E+000	0.0000000E+000	0.0000000E+000	80.4528	0.0000000E+000	0.0000000E+000	0.0000000E+000	-80.4528	0.0000000E+000	0.0000000E+000	0.0000000E+000	-9.54718	0.0000000E+000	0.0000000E+000	0.0000000E+000	9.54718	5.94568	80.4528	-6.08631e-08	1.1985e-06	4.77923e-11	1.19845e-06	3.87979	1.25607e+07	500.879	1.25602e+07
15.8576	5.96542	0.371008	5.97695	-3.55882	22.649	3.87994	-0.00977621	27052	104.234	1	10	0.0046959	0.000785669	0	0.000318341	-0.000112363	1.84245e-05	-104.687	0.0234507	-0.00594565	0.0226844	-3.77956	5.97247	5.95948	0.393693	0.166987	0.0103854	0.167309	3.55882	104234	1.67597e+06	1.67921e+06	-86.4412	0.0000000E+000	0.0000000E+000	0.0000000E+000	86.4412	0.0000000E+000	0.0000000E+000	0.0000000E+000	-86.4412	0.0000000E+000	0.0000000E+000	0.0000000E+000	-3.55882	0.0000000E+000	0.0000000E+000	0.0000000E+000	3.55882	16.0789	86.4412	2.37848e-06	-3.79311e-05	1.09848e-09	-3.79322e-05	3.88005	396876	11.4935	396888
3.97785	6.08881	0.202115	6.09216	-1.90121	25.5613	3.87997	-0.00195709	197958	217.885	1	10	0.00468963	0.00076978	0	0.000311	7.84103e-05	3.26914e-06	-18.8178	0.00424685	0.00401985	0.00136986	-1.91282	6.09623	6.09283	0.203485	0.164055	0.00544573	0.164145	1.90121	217885	6.56388e+06	6.5675e+06	-88.0988	0.0000000E+000	0.0000000E+000	0.0000000E+000	88.0988	0.0000000E+000	0.0000000E+000	0.0000000E+000	-88.0988	0.0000000E+000	0.0000000E+000	0.0000000E+000	-1.90121	0.0000000E+000	0.0000000E+000	0.0000000E+000	1.90121	30.1254	88.0988	2.21635e-06	-7.59345e-06	-1.53456e-10	-7.59329e-06	3.87989	1.98252e+06	40.0648	1.98248e+06
1.00469	6.32145	0.253662	6.32654	-2.29789	240.816	3.87997	-0.0184089	624497	1003.94	1	11	0.00500907	0.000791755	0	-0.00342491	0.000307338	4.31773e-07	8.12446	0.000545336	0.000539863	-7.7069e-05	-2.29699	6.32708	6.32199	0.253585	0.157937	0.00633758	0.158064	2.29789	1.00395e+06	2.5019e+07	2.50392e+07	-87.7021	0.0000000E+000	0.0000000E+000	0.0000000E+000	87.7021	0.0000000E+000	0.0000000E+000	0.0000000E+000	-87.7021	0.0000000E+000	0.0000000E+000	0.0000000E+000	-2.29789	0.0000000E+000	0.0000000E+000	0.0000000E+000	2.29789	24.9207	87.7021	-0.00373004	-7.14258e-05	-5.65774e-09	-7.14201e-05	3.87966	210766	16.6951	210750
0.251173	6.53797	0.502099	6.55722	-4.39155	240.819	3.87997	-0.0184089	1.26199e+06	7399.41	1	11	0.00503551	0.000767934	0	-0.00342491	0.000307338	3.35184e-07	-21.9935	0.000436475	0.000404711	0.00016346	-4.3927	6.55763	6.53837	0.502263	0.152056	0.0116775	0.152504	4.39155	7.3994e+06	9.63496e+07	9.66333e+07	-85.6085	0.0000000E+000	0.0000000E+000	0.0000000E+000	85.6085	0.0000000E+000	0.0000000E+000	0.0000000E+000	-85.6085	0.0000000E+000	0.0000000E+000	0.0000000E+000	-4.39155	0.0000000E+000	0.0000000E+000	0.0000000E+000	4.39155	13.0213	85.6085	0.000000000000000E+000	-7.14258e-05	-5.65774e-09	-7.14201e-05	3.87966	210766	16.6951	210750
0.0602816	7.02065	1.02081	7.09448	-8.27287	240.822	3.87997	-0.0184089	2.58637e+06	53547.4	1	11	0.00502884	0.000708839	0	-0.00342491	0.000307338	4.16762e-07	-45.3081	0.00058795	0.000413501	0.000417973	-8.27573	7.09494	7.02106	1.02123	0.139488	0.0202817	0.140955	8.27287	5.35474e+07	3.68275e+08	3.72147e+08	-81.7271	0.0000000E+000	0.0000000E+000	0.0000000E+000	81.7271	0.0000000E+000	0.0000000E+000	0.0000000E+000	-81.7271	0.0000000E+000	0.0000000E+000	0.0000000E+000	-8.27287	0.0000000E+000	0.0000000E+000	0.0000000E+000	8.27287	6.87754	81.7271	0.000000000000000E+000	-7.14258e-05	-5.65774e-09	-7.14201e-05	3.87966	210766	16.6951	210750
0.00796479	9.03421	2.18198	9.29397	-13.5783	20329.7	3.87998	0.00200801	9.15787e+06	504771	1	11	0.00502292	0.00054045	0	-0.0537644	-7.42081e-05	5.37367e-07	-12.6527	0.000994297	0.000970151	0.000217791	-13.5782	9.29497	9.03518	2.1822	0.104589	0.0252609	0.107597	13.5783	5.04771e+08	2.08994e+09	2.15003e+09	-76.4217	0.0000000E+000	0.0000000E+000	0.0000000E+000	76.4217	0.0000000E+000	0.0000000E+000	0.0000000E+000	-76.4217	0.0000000E+000	0.0000000E+000	0.0000000E+000	-13.5783	0.0000000E+000	0.0000000E+000	0.0000000E+000	13.5783	4.14037	76.4217	-0.0503395	7.79103e-06	-1.4901e-10	7.79118e-06	3.88006	1.93226e+06	36.9561	1.93229e+06
0.0019912	10.4798	3.8007	11.1477	-19.9342	20329.7	3.87998	0.00200801	2.10301e+07	2.44456e+06	1	11	0.00503514	0.000451676	0	-0.0537644	-7.42081e-05	5.29382e-07	-32.1504	0.00117204	0.000992312	0.000623694	-19.9355	11.1488	10.4808	3.80133	0.08433	0.030584	0.0897047	19.9342	2.44456e+09	6.74044e+09	7.17004e+09	-70.0658	0.0000000E+000	0.0000000E+000	0.0000000E+000	70.0658	0.0000000E+000	0.0000000E+000	0.0000000E+000	-70.0658	0.0000000E+000	0.0000000E+000	0.0000000E+000	-19.9342	0.0000000E+000	0.0000000E+000	0.0000000E+000	19.9342	2.75732	70.0658	0.000000000000000E+000	7.79103e-06	-1.4901e-10	7.79118e-06	3.88006	1.93226e+06	36.9561	1.93229e+06
0.000497799	11.0178	10.6813	15.3454	-44.1116	20329.7	3.87998	0.00200801	2.99324e+07	1.45022e+07	1	11	0.00503727	0.000328259	0	-0.0537644	-7.42081e-05	2.88028e-07	-111.105	0.00087744	-0.000315946	0.000818583	-44.1147	15.3457	11.0175	10.6821	0.0467883	0.0453594	0.0651661	44.1116	1.45022e+10	1.4959e+10	2.08347e+10	-45.8884	0.0000000E+000	0.0000000E+000	0.0000000E+000	45.8884	0.0000000E+000	0.0000000E+000	0.0000000E+000	-45.8884	0.0000000E+000	0.0000000E+000	0.0000000E+000	-44.1116	0.0000000E+000	0.0000000E+000	0.0000000E+000	44.1116	1.0315	45.8884	0.000000000000000E+000	7.79103e-06	-1.4901e-10	7.79118e-06	3.88006	1.93226e+06	36.9561	1.93229e+06
9.95598e-05	8.45363	72.045	72.5393	-83.3076	20329.7	3.87998	0.00200801	2.21887e+07	2.18874e+07	1	11	0.00503811	6.94536e-05	0	-0.0537644	-7.42081e-05	1.8248e-06	-75.0502	0.0262737	0.00677788	0.0253844	-83.3046	72.5653	8.46041	72.0704	0.00160656	0.0136917	0.0137856	83.3076	2.18874e+10	2.56822e+09	2.20375e+10	-6.69238	0.0000000E+000	0.0000000E+000	0.0000000E+000	6.69238	0.0000000E+000	0.0000000E+000	0.0000000E+000	-6.69238	0.0000000E+000	0.0000000E+000	0.0000000E+000	-83.3076	0.0000000E+000	0.0000000E+000	0.0000000E+000	83.3076	0.117338	6.69238	0.000000000000000E+000	7.79103e-06	-1.4901e-10	7.79118e-06	3.88006	1.93226e+06	36.9561	1.93229e+06