File: txt/19749_R319_UC100_SOC50_C05.mpt
EC-Lab ASCII FILE
Nb header lines : 65

Potentio Electrochemical Impedance Spectroscopy

Run on channel : 5 (SN 65912)
User :
CE vs. WE compliance from -10 V to 10 V
Electrode connection : standard
Potential control : Ewe
Ewe ctrl range : min = -10.00 V, max = 10.00 V
Safety Limits :
	Do not start on E overload
Acquisition started on : 12/15/2025 16:10:54.976
Technique started on : 12/15/2025 16:10:55.863
Loaded Setting File :  C:\Users\Celltest\OneDrive - store-dot.com\Documents\EC-Lab\Data\@Biologic Test Protocols\cathode half cell EIS SOC50.mps
Saved on :
	File : 19749_R319_UC100_SOC50_C05.mpr
	Directory : C:\Users\Celltest\OneDrive - store-dot.com\Documents\EC-Lab\Data\Michael\
	Host : 169.254.61.224
Device : VMP-3e (SN .003165)
Address : USB
EC-LAB for windows v11.62 (software)
Internet server v27.00 (firmware)
Command interpretor v12.03 (firmware)
Electrode material :
Initial state :
Electrolyte :
Comments :
Electrode surface area : 0.001 cm²
Characteristic mass : 0.001 g
Equivalent Weight : 0.000 g/eq.
Density : 0.000 g/cm3
Volume (V) : 0.001 cm³
Record Ece
Cycle Definition : Charge/Discharge alternance
Mode                Multi sine
E (V)               0.0000
vs.                 Eoc
tE (h:m:s)          0:00:0.0000
record              0
dI                  0.000
unit dI             mA
dt (s)              0.000
fi                  1.000
unit fi             MHz
ff                  0.100
unit ff             mHz
Nd                  10
Points              per decade
spacing             Logarithmic
Va (mV)             5.0
pw                  0.10
Na                  2
corr                0
E range min (V)     -10.000
E range max (V)     10.000
I Range             Auto
Bandwidth           5
nc cycles           0
goto Ns'            0
nr cycles           0
inc. cycle          0

freq/Hz	Re(Z)/Ohm	-Im(Z)/Ohm	|Z|/Ohm	Phase(Z)/deg	time/s	<Ewe>/V	<I>/mA	Cs/µF	Cp/µF	cycle number	I Range	|Ewe|/V	|I|/A	Ns	(Q-Qo)/mA.h	<Ece>/V	|Ece|/V	Phase(Zce)/deg	|Zce|/Ohm	Re(Zce)/Ohm	-Im(Zce)/Ohm	Phase(Zwe-ce)/deg	|Zwe-ce|/Ohm	Re(Zwe-ce)/Ohm	-Im(Zwe-ce)/Ohm	Re(Y)/Ohm-1	Im(Y)/Ohm-1	|Y|/Ohm-1	Phase(Y)/deg	Re(C)/nF	Im(C)/nF	|C|/nF	Phase(C)/deg	Re(M)	Im(M)	|M|	Phase(M)/deg	Re(Permittivity)	Im(Permittivity)	|Permittivity|	Phase(Permittivity)/deg	Re(Resistivity)/Ohm.cm	Im(Resistivity)/Ohm.cm	|Resistivity|/Ohm.cm	Phase(Resistivity)/deg	Re(Conductivity)/mS/cm	Im(Conductivity)/mS/cm	|Conductivity|/mS/cm	Phase(Conductivity)/deg	Tan(Delta)	Loss Angle(Delta)/deg	dq/mA.h	Pwe/W	Pce/W	Pwe-ce/W	<Ewe-Ece>/V	Rwe/Ohm	Rce/Ohm	Rwe-ce/Ohm		Ewe-Ece/V
1.00002e+06	-106.101	-363.853	379.007	106.257	0.886515	3.88653	-0.0561994	-0.000437408	-0.000403128	1	12	0.000169426	4.47026e-07	0	-4.05594e-06	0.000321514	0.000174144	97.6918	389.562	-52.1408	-386.057	101.915	766.424	-158.242	-749.91	-0.000738628	-0.00253298	0.00263847	-106.257	-0.403128	-0.117554	0.419918	163.743	0.0000000E+000	0.0000000E+000	0.0000000E+000	-163.743	0.0000000E+000	0.0000000E+000	0.0000000E+000	163.743	0.0000000E+000	0.0000000E+000	0.0000000E+000	106.257	0.0000000E+000	0.0000000E+000	0.0000000E+000	-106.257	0.291605	16.2569	-4.05594e-06	-0.000218421	-1.80689e-08	-0.000218402	3.88621	69156.1	5.72095	69150.4
251206	0.745711	0.286263	0.798769	-21.0007	4.51953	3.88683	-0.00154835	2.21322	0.284258	1	9	0.00199786	0.00250118	0	2.54288e-05	9.24193e-05	5.08531e-05	98.2251	0.0203316	-0.00290868	-0.0201225	-19.7122	0.789041	0.742802	0.26614	1.16877	0.448666	1.25193	21.0007	284.258	740.489	793.175	-68.9993	0.0000000E+000	0.0000000E+000	0.0000000E+000	68.9993	0.0000000E+000	0.0000000E+000	0.0000000E+000	-68.9993	0.0000000E+000	0.0000000E+000	0.0000000E+000	-21.0007	0.0000000E+000	0.0000000E+000	0.0000000E+000	21.0007	2.60499	68.9993	6.61418e-07	-6.01817e-06	-1.43097e-10	-6.01803e-06	3.88674	2.51031e+06	59.6889	2.51025e+06
63093.8	1.25067	0.630379	1.40056	-26.7496	6.81756	3.88656	-0.0337235	4.00158	0.810651	1	9	0.0053024	0.00378593	0	-9.11877e-06	-3.03681e-06	2.35294e-05	68.8067	0.00621498	0.00224681	-0.00579463	-26.4964	1.39997	1.25292	0.624584	0.637591	0.321366	0.714002	26.7496	810.651	1608.33	1801.08	-63.2504	0.0000000E+000	0.0000000E+000	0.0000000E+000	63.2504	0.0000000E+000	0.0000000E+000	0.0000000E+000	-63.2504	0.0000000E+000	0.0000000E+000	0.0000000E+000	-26.7496	0.0000000E+000	0.0000000E+000	0.0000000E+000	26.7496	1.984	63.2504	-9.71697e-06	-0.000131069	1.02412e-10	-0.000131069	3.88657	115248	0.0900502	115248
15847.7	1.90584	0.606428	2	-17.6508	9.11554	3.88655	-0.0296272	16.5606	1.52256	1	9	0.00513571	0.00256786	0	-1.91836e-05	-7.94017e-05	9.53398e-06	41.2954	0.00371282	0.0027895	-0.00245024	-17.5597	2.00191	1.90863	0.603977	0.476462	0.151607	0.500001	17.6508	1522.56	4785.01	5021.4	-72.3492	0.0000000E+000	0.0000000E+000	0.0000000E+000	72.3492	0.0000000E+000	0.0000000E+000	0.0000000E+000	-72.3492	0.0000000E+000	0.0000000E+000	0.0000000E+000	-17.6508	0.0000000E+000	0.0000000E+000	0.0000000E+000	17.6508	3.14274	72.3492	-1.85582e-06	-0.000115147	2.35245e-09	-0.00011515	3.88663	131182	2.68003	131185
3983.6	2.3441	0.587622	2.41663	-14.073	11.2121	3.88651	-0.0184552	67.9902	4.01998	1	9	0.00520971	0.00215578	0	-3.28916e-05	0.000187875	1.00541e-05	-96.7474	0.00466378	-0.000547954	0.00463148	-14.1827	2.41723	2.34355	0.592254	0.40138	0.100619	0.4138	14.073	4019.98	16036.2	16532.4	-75.927	0.0000000E+000	0.0000000E+000	0.0000000E+000	75.927	0.0000000E+000	0.0000000E+000	0.0000000E+000	-75.927	0.0000000E+000	0.0000000E+000	0.0000000E+000	-14.073	0.0000000E+000	0.0000000E+000	0.0000000E+000	14.073	3.98912	75.927	-3.37771e-06	-7.17264e-05	-3.46729e-09	-7.1723e-05	3.88632	210591	10.18	210581
1000.32	2.89304	0.868759	3.02066	-16.7146	13.8408	3.88651	-0.0288079	183.139	15.1487	1	9	0.00521078	0.00172505	0	-5.84345e-05	-6.03105e-05	1.20222e-05	-152.429	0.00696922	-0.00617779	0.00322567	-16.8071	3.01568	2.88686	0.871984	0.317066	0.0952125	0.331053	16.7146	15148.7	50446.4	52671.8	-73.2854	0.0000000E+000	0.0000000E+000	0.0000000E+000	73.2854	0.0000000E+000	0.0000000E+000	0.0000000E+000	-73.2854	0.0000000E+000	0.0000000E+000	0.0000000E+000	-16.7146	0.0000000E+000	0.0000000E+000	0.0000000E+000	16.7146	3.33008	73.2854	-1.78619e-06	-0.000111962	1.73742e-09	-0.000111964	3.88657	134911	2.09354	134913
251.044	3.92385	1.2071	4.10533	-17.0996	16.787	3.88652	-0.0391463	525.202	45.4065	1	10	0.00516994	0.00125933	0	-8.59094e-05	1.60544e-05	6.69342e-06	-24.8954	0.00531508	0.00482119	0.00223746	-17.1096	4.11059	3.92867	1.20934	0.232818	0.0716223	0.243586	17.0996	45406.5	147600	154427	-72.9005	0.0000000E+000	0.0000000E+000	0.0000000E+000	72.9005	0.0000000E+000	0.0000000E+000	0.0000000E+000	-72.9005	0.0000000E+000	0.0000000E+000	0.0000000E+000	-17.0996	0.0000000E+000	0.0000000E+000	0.0000000E+000	17.0996	3.25064	72.9005	-4.57422e-06	-0.000152143	-6.28471e-10	-0.000152142	3.8865	99281.8	0.410113	99281.4
63.0823	5.08812	0.844845	5.15778	-9.42753	19.5079	3.88652	-0.0350767	2986.31	80.1241	1	10	0.00513165	0.000994934	0	-0.000114616	3.51456e-05	5.15722e-06	-120.354	0.00518348	-0.00261943	0.00447292	-9.48133	5.15594	5.0855	0.849318	0.191263	0.0317578	0.193882	9.42753	80124.1	482552	489158	-80.5725	0.0000000E+000	0.0000000E+000	0.0000000E+000	80.5725	0.0000000E+000	0.0000000E+000	0.0000000E+000	-80.5725	0.0000000E+000	0.0000000E+000	0.0000000E+000	-9.42753	0.0000000E+000	0.0000000E+000	0.0000000E+000	9.42753	6.02255	80.5725	-4.48946e-06	-0.000136326	-1.23279e-09	-0.000136325	3.88649	110801	1.00197	110800
15.8576	5.50987	0.346079	5.52072	-3.59407	22.166	3.88652	-0.0389974	29000.7	113.964	1	10	0.0051252	0.000928357	0	-0.000133163	0.000130602	2.48895e-05	-2.06052	0.0268103	0.026793	0.000963968	-3.58666	5.54752	5.53666	0.347043	0.180779	0.0113549	0.181136	3.59407	113964	1.8144e+06	1.81797e+06	-86.4059	0.0000000E+000	0.0000000E+000	0.0000000E+000	86.4059	0.0000000E+000	0.0000000E+000	0.0000000E+000	-86.4059	0.0000000E+000	0.0000000E+000	0.0000000E+000	-3.59407	0.0000000E+000	0.0000000E+000	0.0000000E+000	3.59407	15.9208	86.4059	-4.42366e-07	-0.000151564	-5.09313e-09	-0.000151559	3.88639	99661	3.34898	99657.6
3.97785	5.63595	0.200387	5.63951	-2.0363	25.0773	3.88654	-0.0328128	199665	252.092	1	10	0.00513162	0.00090994	0	-0.000167624	5.42368e-05	7.04872e-06	54.4336	0.00774635	0.00450564	-0.0063012	-1.97075	5.64379	5.64045	0.194086	0.177208	0.00630067	0.17732	2.0363	252092	7.09016e+06	7.09464e+06	-87.9637	0.0000000E+000	0.0000000E+000	0.0000000E+000	87.9637	0.0000000E+000	0.0000000E+000	0.0000000E+000	-87.9637	0.0000000E+000	0.0000000E+000	0.0000000E+000	-2.0363	0.0000000E+000	0.0000000E+000	0.0000000E+000	2.0363	28.1253	87.9637	-3.39453e-06	-0.000127528	-1.77966e-09	-0.000127527	3.88649	118446	1.65292	118444
1.00469	5.78209	0.25335	5.78764	-2.50889	240.436	3.88652	-0.0251649	625267	1198.13	1	11	0.00507484	0.000876842	0	-0.00514006	-0.000117584	6.89793e-07	-3.9694	0.000786679	0.000784792	5.44568e-05	-2.50908	5.78842	5.78287	0.253404	0.172616	0.00756342	0.172782	2.50889	1.19813e+06	2.73444e+07	2.73707e+07	-87.4911	0.0000000E+000	0.0000000E+000	0.0000000E+000	87.4911	0.0000000E+000	0.0000000E+000	0.0000000E+000	-87.4911	0.0000000E+000	0.0000000E+000	0.0000000E+000	-2.50889	0.0000000E+000	0.0000000E+000	0.0000000E+000	2.50889	22.8225	87.4911	-0.00491257	-9.78041e-05	2.959e-09	-9.78071e-05	3.88664	154442	4.67254	154447
0.251173	6.00126	0.503945	6.02238	-4.80005	240.437	3.88652	-0.0251649	1.25737e+06	8804.26	1	11	0.00510565	0.000847779	0	-0.00514006	-0.000117584	6.57725e-07	2.25706	0.000775822	0.00077522	-3.05541e-05	-4.79914	6.02315	6.00203	0.503914	0.165465	0.0138946	0.166047	4.80005	8.80426e+06	1.04846e+08	1.05215e+08	-85.2	0.0000000E+000	0.0000000E+000	0.0000000E+000	85.2	0.0000000E+000	0.0000000E+000	0.0000000E+000	-85.2	0.0000000E+000	0.0000000E+000	0.0000000E+000	-4.80005	0.0000000E+000	0.0000000E+000	0.0000000E+000	4.80005	11.9086	85.2	0.000000000000000E+000	-9.78041e-05	2.959e-09	-9.78071e-05	3.88664	154442	4.67254	154447
0.0602816	6.47534	1.01026	6.55368	-8.86756	240.438	3.88652	-0.0251649	2.61339e+06	62100.7	1	11	0.00509441	0.000777336	0	-0.00514006	-0.000117584	6.637e-07	-26.4053	0.000853814	0.000764736	0.000379707	-8.8698	6.55449	6.47611	1.01063	0.150762	0.0235213	0.152586	8.86756	6.21007e+07	3.98041e+08	4.02856e+08	-81.1324	0.0000000E+000	0.0000000E+000	0.0000000E+000	81.1324	0.0000000E+000	0.0000000E+000	0.0000000E+000	-81.1324	0.0000000E+000	0.0000000E+000	0.0000000E+000	-8.86756	0.0000000E+000	0.0000000E+000	0.0000000E+000	8.86756	6.40961	81.1324	0.000000000000000E+000	-9.78041e-05	2.959e-09	-9.78071e-05	3.88664	154442	4.67254	154447
0.00796479	8.4651	2.32244	8.77791	-15.3419	20329.3	3.88653	0.00147826	8.60402e+06	602294	1	11	0.00508851	0.000579695	0	-0.0603342	0.000187875	1.37445e-07	-41.0245	0.000237099	0.000178874	0.000155627	-15.3425	8.77812	8.46528	2.3226	0.109863	0.0301414	0.113922	15.3419	6.02294e+08	2.19531e+09	2.27643e+09	-74.6581	0.0000000E+000	0.0000000E+000	0.0000000E+000	74.6581	0.0000000E+000	0.0000000E+000	0.0000000E+000	-74.6581	0.0000000E+000	0.0000000E+000	0.0000000E+000	-15.3419	0.0000000E+000	0.0000000E+000	0.0000000E+000	15.3419	3.64492	74.6581	-0.0551941	5.74529e-06	2.77728e-10	5.74501e-06	3.88634	2.62912e+06	127.092	2.629e+06
0.0019912	10.0397	3.90563	10.7726	-21.257	20329.3	3.88653	0.00147826	2.04651e+07	2.69002e+06	1	11	0.00509989	0.000473413	0	-0.0603342	0.000187875	3.11986e-07	-46.8122	0.000659014	0.000451024	0.000480497	-21.2585	10.7732	10.0401	3.90611	0.0865123	0.033655	0.092828	21.257	2.69002e+09	6.91487e+09	7.41968e+09	-68.743	0.0000000E+000	0.0000000E+000	0.0000000E+000	68.743	0.0000000E+000	0.0000000E+000	0.0000000E+000	-68.743	0.0000000E+000	0.0000000E+000	0.0000000E+000	-21.257	0.0000000E+000	0.0000000E+000	0.0000000E+000	21.257	2.57057	68.743	0.000000000000000E+000	5.74529e-06	2.77728e-10	5.74501e-06	3.88634	2.62912e+06	127.092	2.629e+06
0.000497799	10.6153	10.5485	14.9651	-44.8193	20329.4	3.88653	0.00147826	3.03092e+07	1.5059e+07	1	11	0.00510021	0.000340806	0	-0.0603342	0.000187875	3.4858e-07	-117.446	0.00102281	-0.000471431	0.000907685	-44.823	14.9654	10.6148	10.5494	0.0473991	0.047101	0.066822	44.8193	1.5059e+10	1.51543e+10	2.13641e+10	-45.1807	0.0000000E+000	0.0000000E+000	0.0000000E+000	45.1807	0.0000000E+000	0.0000000E+000	0.0000000E+000	-45.1807	0.0000000E+000	0.0000000E+000	0.0000000E+000	-44.8193	0.0000000E+000	0.0000000E+000	0.0000000E+000	44.8193	1.00633	45.1808	0.000000000000000E+000	5.74529e-06	2.77728e-10	5.74501e-06	3.88634	2.62912e+06	127.092	2.629e+06
9.95598e-05	8.50588	72.1939	72.6933	-83.2804	20329.4	3.88653	0.00147826	2.21429e+07	2.18398e+07	1	11	0.00509926	7.01476e-05	0	-0.0603342	0.000187875	1.25057e-06	-132.496	0.0178277	-0.0120432	0.0131448	-83.291	72.7049	8.49384	72.2071	0.00160965	0.0136619	0.0137564	83.2804	2.18398e+10	2.57316e+09	2.19908e+10	-6.7196	0.0000000E+000	0.0000000E+000	0.0000000E+000	6.7196	0.0000000E+000	0.0000000E+000	0.0000000E+000	-6.7196	0.0000000E+000	0.0000000E+000	0.0000000E+000	-83.2804	0.0000000E+000	0.0000000E+000	0.0000000E+000	83.2804	0.11782	6.7196	0.000000000000000E+000	5.74529e-06	2.77728e-10	5.74501e-06	3.88634	2.62912e+06	127.092	2.629e+06